Data from FLMT021711__12__18-14-58-687.txt Node

Date: Tue Nov 05 18:14:58 CET 2024
User: Etudiants TP
Spectrometer: FLMT02171
Trigger mode: 0
Integration Time (sec): 1,000000E-1
Scans to average: 5
Electric dark correction enabled: true
Nonlinearity correction enabled: false
Boxcar width: 15
XAxis mode: Wavelengths
Number of Pixels in Spectrum: 3648
>>>>>Begin Spectral Data<<<<<
194,658	-75,53
194,923	-70,2
195,188	-61,97
195,453	-61,2
195,717	-54,74
195,982	-53,4
196,247	-51,69
196,512	-55,57
196,777	-53,58
197,042	-51,39
197,307	-50,8
197,572	-45,91
197,837	-46,47
198,101	-43,26
198,366	-40,61
198,631	-38,79
198,896	-32,08
199,161	-23,6
199,425	-15,7
199,69	-5,15
199,955	-5,84
200,22	-9,61
200,484	-12,05
200,749	-12,11
201,014	-11,6
201,278	-11,74
201,543	-9,87
201,807	-10,29
202,072	-8,93
202,337	-8,98
202,601	-8,86
202,866	-10,75
203,13	-11,57
203,395	-14,96
203,659	-14,78
203,924	-17,16
204,189	-16,26
204,453	-14,95
204,717	-10,29
204,982	-9,46
205,246	-8,08
205,511	-6,97
205,775	-8,33
206,04	-2,53
206,304	-2,84
206,568	-1,62
206,833	-1,35
207,097	-0,29
207,361	1,52
207,626	6,32
207,89	6,07
208,154	7,49
208,419	10,21
208,683	10,81
208,947	12,62
209,211	12,42
209,476	13,13
209,74	13,72
210,004	12,17
210,268	13,64
210,532	15,7
210,796	15,11
211,061	17,28
211,325	17,99
211,589	16,03
211,853	17,1
212,117	17,35
212,381	17,33
212,645	18,11
212,909	16,23
213,173	13,29
213,437	12,45
213,701	13,2
213,965	14,09
214,229	8,9
214,493	9,18
214,757	8,83
215,021	9,21
215,285	13,73
215,549	15,16
215,813	11,8
216,077	11,74
216,34	13,71
216,604	12,66
216,868	13,72
217,132	13,54
217,396	12,26
217,659	11,46
217,923	6,68
218,187	8,14
218,451	6,81
218,714	4,59
218,978	4,68
219,242	5,84
219,505	6,18
219,769	9,39
220,033	9,71
220,296	11,63
220,56	12,62
220,824	10,5
221,087	11,95
221,351	13,28
221,614	13,82
221,878	15,64
222,142	14,17
222,405	14,56
222,669	16,81
222,932	11,81
223,196	8,84
223,459	4,74
223,722	4,96
223,986	4,13
224,249	3,07
224,513	2,17
224,776	3,02
225,04	2,3
225,303	2,73
225,566	2,59
225,83	5,48
226,093	9,48
226,356	7,81
226,62	6,42
226,883	7,58
227,146	7,84
227,409	6,84
227,673	5,14
227,936	2,87
228,199	1,87
228,462	-1,02
228,725	-1,52
228,989	-1,66
229,252	-0,62
229,515	3,84
229,778	2,76
230,041	0,31
230,304	-1,86
230,567	-0,65
230,83	-3,21
231,093	-0,47
231,356	-0,47
231,619	6,44
231,882	5,3
232,145	7,79
232,408	7,28
232,671	7,02
232,934	5,48
233,197	3,84
233,46	3,46
233,723	5,61
233,986	1,99
234,249	-0,19
234,512	1,7
234,775	5,91
235,037	5,69
235,3	5,98
235,563	7,29
235,826	8,92
236,089	11,66
236,351	11,81
236,614	14,3
236,877	13,71
237,14	14,69
237,402	14,39
237,665	8,06
237,928	7,7
238,19	5,6
238,453	8,76
238,716	7,59
238,978	7,29
239,241	6,38
239,503	9,11
239,766	4,26
240,029	2,99
240,291	5,36
240,554	4,95
240,816	5,7
241,079	7,93
241,341	7,61
241,604	5,3
241,866	2,56
242,129	4,11
242,391	6,13
242,653	5,74
242,916	4,5
243,178	3,33
243,441	5,45
243,703	3,04
243,965	1,08
244,228	0,39
244,49	-0,31
244,752	0,03
245,015	1,24
245,277	3,73
245,539	2,43
245,801	4,79
246,064	3,6
246,326	4
246,588	4,07
246,85	6,56
247,112	5,97
247,374	8,16
247,637	10,37
247,899	9,41
248,161	8,98
248,423	2,87
248,685	2,99
248,947	1,29
249,209	0,07
249,471	1,87
249,733	3,39
249,995	2,35
250,257	2,11
250,519	-0,28
250,781	1,96
251,043	1,1
251,305	3,45
251,567	3,4
251,829	5,09
252,091	4,97
252,353	2,47
252,615	4,27
252,876	2,09
253,138	1,09
253,4	-4,08
253,662	-2,82
253,924	-1,28
254,185	0,76
254,447	0,72
254,709	-0,4
254,971	1,65
255,232	3,64
255,494	2,41
255,756	-0,14
256,017	0,81
256,279	2,34
256,541	4,03
256,802	4,79
257,064	6,08
257,326	5,34
257,587	5,84
257,849	5,63
258,11	7,95
258,372	9,26
258,633	10,11
258,895	10,14
259,156	8,65
259,418	6,91
259,679	2,97
259,941	1,14
260,202	2,69
260,464	5,21
260,725	3,85
260,987	2,36
261,248	0,75
261,509	2,9
261,771	1,41
262,032	3,29
262,293	3,1
262,555	3,29
262,816	2,55
263,077	-1,2
263,338	-3,99
263,6	-4,65
263,861	-5,05
264,122	-6,44
264,383	-4,68
264,645	-4,02
264,906	-4,77
265,167	-3,69
265,428	-5,29
265,689	-3,77
265,95	-4,71
266,211	-3,84
266,473	-4,97
266,734	-8,56
266,995	-13,82
267,256	-12,71
267,517	-10,4
267,778	-5,54
268,039	-4,39
268,3	-5,02
268,561	-6,95
268,822	-4,95
269,083	-6,02
269,344	-6,7
269,604	-8,12
269,865	-8,11
270,126	-12,85
270,387	-13,11
270,648	-11,58
270,909	-12,41
271,17	-12,85
271,43	-15,04
271,691	-17,1
271,952	-17,85
272,213	-15,63
272,473	-18,35
272,734	-17,49
272,995	-16,67
273,256	-16,7
273,516	-13,05
273,777	-15,6
274,038	-13,5
274,298	-15,94
274,559	-16,07
274,82	-9,8
275,08	-4,84
275,341	-3,75
275,601	-4,09
275,862	-7,18
276,122	-5,89
276,383	-5,68
276,643	-3,47
276,904	-3,74
277,164	-0,02
277,425	0,7
277,685	4,28
277,946	5,12
278,206	6,68
278,467	9,67
278,727	10,33
278,987	9,41
279,248	8,72
279,508	10,4
279,768	12,92
280,029	15,11
280,289	11,37
280,549	10,5
280,81	10,4
281,07	8,87
281,33	9,75
281,59	7,87
281,851	10,02
282,111	7,73
282,371	7,61
282,631	8,74
282,891	6,13
283,151	3,04
283,412	-0,19
283,672	0,01
283,932	-1,39
284,192	-1,78
284,452	-3,5
284,712	-6,75
284,972	-8,68
285,232	-11,21
285,492	-9,02
285,752	-10,73
286,012	-4,21
286,272	-2,05
286,532	-6,13
286,792	-6,95
287,052	-4,84
287,312	-3,68
287,571	-3,68
287,831	-3,37
288,091	-6,23
288,351	-4,87
288,611	-1,67
288,871	-1,42
289,13	-1
289,39	-4,51
289,65	-2,81
289,91	-5,71
290,17	-1,85
290,429	0,37
290,689	-2,75
290,949	-4,37
291,208	-2,38
291,468	1,87
291,728	1,32
291,987	5,14
292,247	3,68
292,506	6,3
292,766	9,42
293,026	9,13
293,285	10,7
293,545	12,81
293,804	12,4
294,064	8,59
294,323	6,16
294,583	6,78
294,842	7,52
295,102	7,55
295,361	6,58
295,621	7,29
295,88	9
296,139	8,1
296,399	8,59
296,658	4,09
296,917	4,66
297,177	1,19
297,436	1,81
297,695	-0,91
297,955	0,87
298,214	-0,54
298,473	1,52
298,732	3,84
298,992	6,38
299,251	5,91
299,51	1,62
299,769	2,22
300,028	1,61
300,287	2,79
300,547	2,96
300,806	0,86
301,065	5,05
301,324	6,43
301,583	2,43
301,842	-0,74
302,101	-3,47
302,36	-3,14
302,619	-3,34
302,878	-3,95
303,137	-6,17
303,396	-4,61
303,655	-3,24
303,914	-6,48
304,173	-6,07
304,432	-6,02
304,691	-3,01
304,95	-6,42
305,208	-1,1
305,467	-0,05
305,726	-0,4
305,985	0,47
306,244	1,35
306,503	-0,14
306,761	-0,58
307,02	-3,85
307,279	-2,63
307,537	-0,94
307,796	-3,44
308,055	-5,76
308,314	-5,99
308,572	-7,79
308,831	-5,45
309,09	-6,26
309,348	-5,05
309,607	-6,14
309,865	-1,63
310,124	-1,74
310,382	-0,83
310,641	1,15
310,9	-0,32
311,158	1,09
311,417	1,52
311,675	1,99
311,933	2,09
312,192	4,66
312,45	4,61
312,709	5,21
312,967	5,73
313,226	5,08
313,484	4,78
313,742	3,43
314,001	1,36
314,259	0,12
314,517	0,57
314,776	3,02
315,034	6
315,292	3,34
315,55	0,52
315,809	1,17
316,067	2,33
316,325	0,84
316,583	2,28
316,841	-0,4
317,1	-3,69
317,358	-7,23
317,616	-7,21
317,874	-8,58
318,132	-9,34
318,39	-9,27
318,648	-10,07
318,906	-9,33
319,164	-10,67
319,422	-12,31
319,68	-13,53
319,938	-12,62
320,196	-13,2
320,454	-12,33
320,712	-13,71
320,97	-13,74
321,228	-15,53
321,486	-13,83
321,744	-11,06
322,002	-6,91
322,26	-8,73
322,517	-9,17
322,775	-13,56
323,033	-16,07
323,291	-14,88
323,549	-12,55
323,806	-11,31
324,064	-11,24
324,322	-8,41
324,58	-10,19
324,837	-6,9
325,095	-7,42
325,353	-5,46
325,61	-2,21
325,868	-2,96
326,126	-0,02
326,383	-1,55
326,641	-2,46
326,898	-1,77
327,156	0,09
327,413	1,29
327,671	1,02
327,928	3,48
328,186	3,05
328,443	1,23
328,701	6,11
328,958	6,2
329,216	7,12
329,473	5,22
329,731	4,8
329,988	3,31
330,245	5,65
330,503	6,98
330,76	8,11
331,017	12,32
331,275	10,48
331,532	9,76
331,789	6,42
332,047	5,12
332,304	1,95
332,561	1,72
332,818	-0,71
333,076	1,06
333,333	2,78
333,59	2,02
333,847	4,53
334,104	3,08
334,361	2,52
334,618	0,5
334,876	-1,39
335,133	-2,41
335,39	-4,42
335,647	-3,99
335,904	-8,28
336,161	-10,58
336,418	-8,68
336,675	-13,65
336,932	-11,92
337,189	-12,91
337,446	-12,65
337,703	-13,64
337,96	-18,05
338,216	-18,48
338,473	-22
338,73	-21,95
338,987	-23,71
339,244	-20,14
339,501	-22,02
339,757	-20,35
340,014	-18,46
340,271	-17,49
340,528	-16,23
340,785	-11,69
341,041	-10,57
341,298	-15,04
341,555	-15,18
341,811	-15,57
342,068	-18,36
342,325	-19,06
342,581	-16,24
342,838	-13,53
343,094	-12,82
343,351	-13,16
343,608	-15,06
343,864	-11,48
344,121	-9,96
344,377	-11,09
344,634	-10,63
344,89	-11,44
345,147	-11,94
345,403	-12,5
345,66	-11,64
345,916	-8,97
346,172	-10,29
346,429	-11,08
346,685	-12,18
346,942	-11,39
347,198	-14,57
347,454	-13,12
347,711	-12,5
347,967	-16,3
348,223	-15,26
348,48	-16,34
348,736	-13,22
348,992	-14,29
349,248	-11,31
349,504	-11,68
349,761	-12,36
350,017	-12,56
350,273	-12,04
350,529	-11,82
350,785	-12,93
351,041	-14,94
351,297	-11,64
351,554	-13,29
351,81	-15,94
352,066	-16,52
352,322	-16,38
352,578	-16,34
352,834	-16,35
353,09	-15,32
353,346	-14,82
353,602	-17,23
353,858	-18,24
354,114	-19,11
354,369	-16,11
354,625	-12,97
354,881	-15,01
355,137	-13,43
355,393	-12,38
355,649	-11,75
355,905	-10,31
356,16	-10,58
356,416	-8,84
356,672	-16,47
356,928	-16,96
357,183	-17,58
357,439	-17,01
357,695	-19,14
357,951	-13,74
358,206	-13,12
358,462	-14,17
358,718	-15,91
358,973	-13,72
359,229	-15,21
359,484	-14,09
359,74	-11,15
359,996	-10,98
360,251	-8,18
360,507	-8,47
360,762	-8,73
361,018	-5,79
361,273	-7,08
361,529	-4,02
361,784	-2,61
362,04	-0,05
362,295	-1,46
362,55	-2,01
362,806	0,07
363,061	0,35
363,316	1,98
363,572	1,99
363,827	4,03
364,082	1,24
364,338	0,64
364,593	0,74
364,848	1,68
365,104	0,04
365,359	1,94
365,614	3,08
365,869	-0,2
366,124	0,33
366,38	0,74
366,635	3,02
366,89	4,75
367,145	5,19
367,4	9,36
367,655	9,64
367,91	9,85
368,165	6,81
368,42	4,2
368,675	5,14
368,93	4,15
369,185	2,03
369,44	0,21
369,695	0,81
369,95	-1,36
370,205	-2,02
370,46	-2,88
370,715	-4,24
370,97	-3,55
371,225	-4,68
371,48	-2,15
371,734	-1,26
371,989	0,76
372,244	1,61
372,499	3,85
372,754	2,15
373,008	-0,23
373,263	-5,15
373,518	-3,8
373,773	-5,83
374,027	-7,39
374,282	-6,51
374,537	-6,18
374,791	-5,38
375,046	-6,74
375,301	-8,29
375,555	-10,24
375,81	-8,33
376,064	-5,85
376,319	-2,41
376,573	-3,42
376,828	-6,43
377,082	-1,83
377,337	-2,26
377,591	-4,44
377,846	-2,65
378,1	1,18
378,355	0,3
378,609	0,33
378,863	-2,78
379,118	-1,86
379,372	-4,58
379,627	-6,94
379,881	-8,75
380,135	-10,01
380,389	-10,72
380,644	-9,16
380,898	-7,42
381,152	-5,81
381,407	-6,14
381,661	-2,58
381,915	-0,85
382,169	-0,17
382,423	-2,02
382,677	-6,13
382,932	-5,25
383,186	-3,95
383,44	-3,92
383,694	-1,89
383,948	-4,67
384,202	-6,22
384,456	-3,98
384,71	-2,97
384,964	-5,11
385,218	-3,25
385,472	-4,12
385,726	-4,9
385,98	-6,67
386,234	-5,38
386,488	-8,06
386,742	-5,7
386,996	-7
387,249	-6,07
387,503	-3,25
387,757	-2,02
388,011	-0,58
388,265	-0,51
388,518	0,24
388,772	3,14
389,026	4,25
389,28	2,12
389,533	1,35
389,787	3,75
390,041	1,64
390,295	1,3
390,548	2,36
390,802	5,32
391,055	3,85
391,309	4,28
391,563	1,23
391,816	2,8
392,07	2,37
392,323	1,95
392,577	3,68
392,83	5,78
393,084	11
393,337	15,71
393,591	16,81
393,844	17,79
394,098	21,8
394,351	26,54
394,604	29,05
394,858	29,42
395,111	29,6
395,364	24,47
395,618	26,97
395,871	24,43
396,124	24,41
396,378	23,25
396,631	23,56
396,884	21,46
397,137	21,87
397,391	21,33
397,644	17,8
397,897	16,93
398,15	19,83
398,403	21,97
398,657	20,71
398,91	19,57
399,163	19,23
399,416	19,58
399,669	18,65
399,922	17,41
400,175	17,35
400,428	18,61
400,681	22,62
400,934	22,74
401,187	27,01
401,44	32,06
401,693	34,16
401,946	33,06
402,199	30,32
402,452	29,3
402,704	27,3
402,957	27,31
403,21	31,49
403,463	30,53
403,716	32,04
403,969	32,93
404,221	33,14
404,474	33,76
404,727	37,95
404,98	41,24
405,232	42,54
405,485	44,87
405,738	47,65
405,99	47,07
406,243	48,6
406,496	50,67
406,748	50,19
407,001	49,97
407,253	50,69
407,506	50,63
407,759	52,19
408,011	49,11
408,264	47,22
408,516	42,41
408,769	34,36
409,021	29,54
409,274	22,75
409,526	21,27
409,778	17,97
410,031	19,4
410,283	18,02
410,536	22,3
410,788	18,9
411,04	17,17
411,293	19,3
411,545	20
411,797	18,58
412,049	18,55
412,302	18,75
412,554	19,14
412,806	16,46
413,058	13,28
413,311	12,86
413,563	10,91
413,815	10,97
414,067	7,2
414,319	4,53
414,571	6,72
414,823	4,55
415,075	2,71
415,328	2,25
415,58	5,75
415,832	7,17
416,084	7,25
416,336	5,51
416,588	11,31
416,84	9,57
417,091	14,36
417,343	9,7
417,595	11,98
417,847	12,86
418,099	13,75
418,351	11,6
418,603	14,72
418,855	16,79
419,106	15,37
419,358	15,28
419,61	14,83
419,862	15,51
420,114	12,7
420,365	11,39
420,617	11,83
420,869	11,35
421,12	10,51
421,372	12,36
421,624	10,28
421,875	11,43
422,127	8,31
422,379	7,12
422,63	9,5
422,882	8,65
423,133	8,44
423,385	8,05
423,636	9,37
423,888	12,51
424,139	15,64
424,391	12,7
424,642	10,81
424,894	8,36
425,145	8,91
425,396	5,78
425,648	7,25
425,899	4,67
426,151	6,31
426,402	5,49
426,653	6,12
426,905	5,13
427,156	2,44
427,407	2,29
427,658	1,45
427,91	0,56
428,161	0,11
428,412	2,43
428,663	3,17
428,914	3,47
429,166	3,9
429,417	5,39
429,668	3,32
429,919	4,13
430,17	4,13
430,421	4,96
430,672	9,16
430,923	10,56
431,174	9,44
431,425	12,01
431,676	16,33
431,927	23,1
432,178	34,83
432,429	49,45
432,68	61,62
432,931	76,99
433,182	87,3
433,433	90,02
433,683	96,44
433,934	97,94
434,185	98,45
434,436	97,37
434,687	98,78
434,937	101,34
435,188	101,51
435,439	99,96
435,69	100,48
435,94	99,43
436,191	99,18
436,442	98,97
436,692	98,15
436,943	94,55
437,194	92,04
437,444	95,51
437,695	98,66
437,945	99,83
438,196	97,28
438,447	94,12
438,697	93,18
438,948	90,91
439,198	84,79
439,449	74,74
439,699	65,12
439,949	53,39
440,2	39,02
440,45	26,38
440,701	13,49
440,951	4,53
441,201	0,1
441,452	-4,68
441,702	-7,86
441,952	-9,94
442,203	-10,78
442,453	-13,47
442,703	-13,72
442,953	-13,45
443,204	-11,21
443,454	-12,47
443,704	-12,35
443,954	-16,32
444,204	-15,31
444,455	-13,06
444,705	-9,85
444,955	-10,04
445,205	-13,02
445,455	-16,18
445,705	-17
445,955	-15,97
446,205	-16,67
446,455	-16,96
446,705	-15,37
446,955	-15,13
447,205	-14,26
447,455	-12,7
447,705	-13,85
447,955	-15,92
448,205	-16,4
448,454	-17,46
448,704	-17,21
448,954	-19
449,204	-18,88
449,454	-19,05
449,704	-19,15
449,953	-19,4
450,203	-18,39
450,453	-21,15
450,703	-20,47
450,952	-21,76
451,202	-20,33
451,452	-21,8
451,701	-19,04
451,951	-16,12
452,201	-17,41
452,45	-18,75
452,7	-16,68
452,949	-16,83
453,199	-17,04
453,448	-16,43
453,698	-16,95
453,947	-17,2
454,197	-17,94
454,446	-21,15
454,696	-18,52
454,945	-18,14
455,195	-18,97
455,444	-18,66
455,693	-12,96
455,943	-13,65
456,192	-13,42
456,442	-11,94
456,691	-12,13
456,94	-12,61
457,189	-14,28
457,439	-12,35
457,688	-11,62
457,937	-11,07
458,186	-8,73
458,436	-7,81
458,685	-6,68
458,934	-7,3
459,183	-6,79
459,432	-5,42
459,681	-5,07
459,93	-6,09
460,179	-6,8
460,429	-8,41
460,678	-3,67
460,927	-0,07
461,176	0,64
461,425	1,75
461,674	4,39
461,923	4,71
462,172	5,57
462,42	4,46
462,669	6,92
462,918	6,56
463,167	6,74
463,416	2,84
463,665	3,08
463,914	4,32
464,162	1,77
464,411	2,81
464,66	3,31
464,909	2,89
465,158	2,51
465,406	2,77
465,655	4,13
465,904	5,25
466,152	4,85
466,401	5
466,65	6,73
466,898	5,43
467,147	2,88
467,395	3,13
467,644	4,85
467,893	4,18
468,141	3,48
468,39	0,02
468,638	-4,21
468,887	-7,09
469,135	-9,26
469,384	-9,68
469,632	-8,21
469,88	-8,37
470,129	-7,2
470,377	-10,55
470,626	-7,68
470,874	-4,36
471,122	-2,49
471,371	-3,77
471,619	-6,01
471,867	-2,45
472,115	-3,51
472,364	-5,23
472,612	-1,34
472,86	-1,76
473,108	-1,52
473,356	-1,59
473,605	-2,06
473,853	-4,15
474,101	-4,72
474,349	-5,97
474,597	-2,6
474,845	-4,1
475,093	-7,18
475,341	-8,63
475,589	-8,04
475,837	-5,5
476,085	-4,35
476,333	-3,42
476,581	-1,53
476,829	-0,64
477,077	2,34
477,325	2,74
477,573	5,65
477,821	4,86
478,069	6,7
478,317	5,99
478,564	6,7
478,812	5,84
479,06	5,52
479,308	5,37
479,555	5,13
479,803	5,27
480,051	8,53
480,299	9,3
480,546	9,93
480,794	8,75
481,042	10,78
481,289	11,41
481,537	14,94
481,784	15,87
482,032	20,81
482,28	22,86
482,527	24,82
482,775	28,63
483,022	32,43
483,27	37,67
483,517	43,43
483,765	45,22
484,012	47,24
484,259	48,23
484,507	52,66
484,754	54,34
485,002	55,71
485,249	56,37
485,496	61,57
485,744	62,26
485,991	63,3
486,238	62,67
486,486	66,89
486,733	70,48
486,98	74,9
487,227	75,13
487,474	78,06
487,722	79,98
487,969	76,98
488,216	77,68
488,463	78,21
488,71	76,65
488,957	76,85
489,204	76,11
489,451	76,47
489,699	75,2
489,946	70,27
490,193	69,71
490,44	68,92
490,687	68,48
490,934	63,49
491,18	57,38
491,427	57,55
491,674	59,31
491,921	58,63
492,168	56,63
492,415	52,58
492,662	52,29
492,909	53,09
493,155	51
493,402	46,7
493,649	42,89
493,896	41,94
494,142	35,7
494,389	34,48
494,636	31,8
494,883	28,72
495,129	25,8
495,376	23,04
495,623	23,94
495,869	25,32
496,116	25,92
496,362	24,79
496,609	25,67
496,855	28,79
497,102	26,6
497,348	24,6
497,595	24,71
497,841	26,3
498,088	23,29
498,334	20,32
498,581	18,74
498,827	19,13
499,074	17,86
499,32	17,33
499,566	19,22
499,813	18,3
500,059	16,21
500,305	14,86
500,552	11,72
500,798	9,67
501,044	13,89
501,29	12,17
501,537	9,76
501,783	12,49
502,029	14,61
502,275	10,76
502,521	8,11
502,767	8,13
503,013	10,04
503,26	6,98
503,506	2,16
503,752	2,31
503,998	0,57
504,244	-0,2
504,49	-4,64
504,736	-2,24
504,982	-4,36
505,228	-1,43
505,474	-1,02
505,72	-0,93
505,966	-1,78
506,211	1,21
506,457	-0,11
506,703	-2,46
506,949	-5,45
507,195	-7,46
507,441	-11,78
507,686	-9,02
507,932	-9,28
508,178	-7,83
508,424	-9,96
508,669	-11,96
508,915	-11,35
509,161	-9,76
509,406	-9,81
509,652	-10,43
509,898	-7,88
510,143	-7,22
510,389	-8,43
510,634	-12,98
510,88	-8,68
511,125	-5,71
511,371	-4,46
511,616	-2,43
511,862	-5,32
512,107	-7,76
512,353	-7,46
512,598	-6,78
512,844	-8,98
513,089	-11,38
513,335	-9,62
513,58	-8,67
513,825	-8,81
514,071	-9,94
514,316	-8,63
514,561	-7,1
514,806	-8,43
515,052	-5,38
515,297	-7,19
515,542	-6,5
515,787	-5,92
516,033	-4,3
516,278	-4,58
516,523	-5,01
516,768	-6,59
517,013	-9,64
517,258	-11,06
517,503	-9,26
517,748	-7,9
517,993	-7,72
518,238	-6,26
518,483	-9,16
518,728	-10,23
518,973	-14,1
519,218	-15,17
519,463	-14,57
519,708	-13,8
519,953	-16,93
520,198	-16,55
520,443	-14,98
520,688	-12,96
520,933	-14,92
521,177	-17,06
521,422	-19,87
521,667	-16,08
521,912	-18,06
522,157	-21,97
522,401	-18,73
522,646	-18,11
522,891	-17,3
523,135	-17,28
523,38	-16,91
523,625	-18,97
523,869	-16,23
524,114	-14,91
524,358	-14,49
524,603	-13,88
524,848	-16,93
525,092	-18,63
525,337	-17,55
525,581	-15,87
525,826	-13,85
526,07	-12,63
526,315	-10,99
526,559	-10,89
526,803	-12,81
527,048	-8,51
527,292	-8,42
527,537	-6,39
527,781	-6,04
528,025	-8,09
528,269	-6,01
528,514	-5,2
528,758	-4,97
529,002	-3,13
529,247	0,02
529,491	-0,37
529,735	5,51
529,979	3,45
530,223	4,75
530,467	2,99
530,712	3,05
530,956	1,14
531,2	3,27
531,444	1,49
531,688	2,64
531,932	2,18
532,176	3,47
532,42	6,2
532,664	6,75
532,908	5,75
533,152	4,48
533,396	2,8
533,64	1,87
533,884	0,53
534,128	0,87
534,371	2,87
534,615	4,27
534,859	3,84
535,103	3
535,347	3,37
535,59	6,05
535,834	2,88
536,078	5,52
536,322	9,82
536,565	13,63
536,809	14,26
537,053	19,23
537,296	21,14
537,54	26,22
537,784	29,11
538,027	35,42
538,271	39,58
538,514	46,3
538,758	53,78
539,001	59,21
539,245	66,18
539,488	73,27
539,732	80,9
539,975	85,6
540,219	94,15
540,462	99,37
540,706	108,49
540,949	113,66
541,192	119,68
541,436	129,58
541,679	140,54
541,922	150,42
542,166	154,62
542,409	166,31
542,652	177,19
542,895	189,67
543,139	199,99
543,382	213,8
543,625	220,99
543,868	225,19
544,111	228,82
544,354	230,42
544,598	231,51
544,841	231,88
545,084	231,28
545,327	231,66
545,57	231,16
545,813	230,03
546,056	226,03
546,299	221,2
546,542	219,13
546,785	217,97
547,028	213,76
547,271	209,85
547,514	207,16
547,756	199,72
547,999	195,18
548,242	189,93
548,485	183,17
548,728	180,02
548,971	171,24
549,213	166,9
549,456	157,56
549,699	148,63
549,942	137,71
550,184	126,13
550,427	114,64
550,67	103,86
550,912	89,68
551,155	82
551,398	74,96
551,64	68,12
551,883	62,52
552,125	56,57
552,368	53,5
552,61	47,5
552,853	43,62
553,095	39,12
553,338	35,12
553,58	32,4
553,823	29,45
554,065	29,33
554,308	22,57
554,55	19,04
554,792	14,57
555,035	10,94
555,277	8,47
555,519	8,36
555,762	5,62
556,004	6,3
556,246	1,24
556,488	1,83
556,731	-3,25
556,973	-2,55
557,215	-3,27
557,457	-1,92
557,699	-0,45
557,941	-3,83
558,183	-4,84
558,426	-2,34
558,668	-6,5
558,91	-5,08
559,152	-5,71
559,394	-7,7
559,636	-5,62
559,878	-6,65
560,12	-8,2
560,362	-6,28
560,604	-7,44
560,845	-7,47
561,087	-7,01
561,329	-5,72
561,571	-9,4
561,813	-8,49
562,055	-9,66
562,297	-9,37
562,538	-9,15
562,78	-6,62
563,022	-8,43
563,264	-8,08
563,505	-8,46
563,747	-7,09
563,989	-9,61
564,23	-11,22
564,472	-13,37
564,714	-11,19
564,955	-11,45
565,197	-14,03
565,438	-12,26
565,68	-9,58
565,921	-11,96
566,163	-9,86
566,404	-11,83
566,646	-9,88
566,887	-6,51
567,129	-6,45
567,37	-7,66
567,612	-5,33
567,853	-8,12
568,094	-6,67
568,336	-7,25
568,577	-7,98
568,818	-8,18
569,06	-10,26
569,301	-12,18
569,542	-11,65
569,783	-10,1
570,025	-10,13
570,266	-10,1
570,507	-8,69
570,748	-8,98
570,989	-7,82
571,23	-5,98
571,472	-6,19
571,713	-6,54
571,954	-5,06
572,195	-6,26
572,436	-4,67
572,677	-0,99
572,918	1,32
573,159	0,38
573,4	0,73
573,641	1,24
573,882	4,19
574,123	2,47
574,364	-2,26
574,604	-0,3
574,845	-0,85
575,086	-0,02
575,327	2,03
575,568	2,85
575,809	2,2
576,049	2,52
576,29	0,79
576,531	6,91
576,771	10,69
577,012	14,41
577,253	16,79
577,494	17,45
577,734	18,79
577,975	20,8
578,215	20,49
578,456	19,69
578,697	19,69
578,937	21,99
579,178	22,49
579,418	22,3
579,659	21,67
579,899	20,2
580,14	19,33
580,38	18
580,62	16,68
580,861	19,77
581,101	20,46
581,342	19,18
581,582	15,67
581,822	18,34
582,063	16,68
582,303	17,79
582,543	18,46
582,783	18,92
583,024	20
583,264	24,75
583,504	23,72
583,744	27
583,984	26,03
584,224	26,95
584,465	25,7
584,705	25,08
584,945	25,94
585,185	25,64
585,425	25,89
585,665	27,33
585,905	26,81
586,145	27,33
586,385	26,78
586,625	29,87
586,865	28,64
587,105	28,81
587,345	28,26
587,585	28,16
587,824	26,88
588,064	26,84
588,304	24,12
588,544	22,88
588,784	20,87
589,024	24,8
589,263	23,69
589,503	22,83
589,743	25,97
589,982	24,94
590,222	24,91
590,462	22,22
590,701	19,33
590,941	20,38
591,181	18,19
591,42	16,02
591,66	17,96
591,899	20,53
592,139	19,08
592,378	18,88
592,618	16,8
592,857	15,27
593,097	14
593,336	14,32
593,576	12,87
593,815	12,49
594,055	10,48
594,294	11,37
594,533	10,79
594,773	10
595,012	11,14
595,251	11,63
595,491	15,05
595,73	17,11
595,969	18,36
596,208	20,19
596,447	23,25
596,687	24,25
596,926	25,26
597,165	19,95
597,404	21,45
597,643	19,16
597,882	19,26
598,121	20,38
598,36	21,7
598,599	22,22
598,838	21,98
599,077	16,82
599,316	15,07
599,555	13,64
599,794	14,17
600,033	16,54
600,272	17,18
600,511	15,8
600,75	16,83
600,989	19,13
601,228	19,16
601,466	18,95
601,705	19,13
601,944	19,95
602,183	22,77
602,422	20,41
602,66	20,03
602,899	18,89
603,138	18,05
603,376	17,27
603,615	17,93
603,854	16,33
604,092	16,29
604,331	17,58
604,569	19,78
604,808	20
605,047	21,28
605,285	20,94
605,524	20,7
605,762	20,44
606	23
606,239	25,24
606,477	27,35
606,716	26,34
606,954	29,67
607,193	32,16
607,431	36,35
607,669	45,89
607,908	57,09
608,146	74,44
608,384	87,08
608,622	100,73
608,861	114,34
609,099	125,35
609,337	135,07
609,575	143,82
609,813	155,36
610,052	162,82
610,29	164,94
610,528	170,56
610,766	174,88
611,004	179,2
611,242	181,74
611,48	185,57
611,718	186,21
611,956	190,64
612,194	192,06
612,432	194,4
612,67	195,39
612,908	197,82
613,146	196,64
613,384	197,02
613,621	195,3
613,859	195,69
614,097	195,27
614,335	194,05
614,573	191,98
614,811	187,15
615,048	176,34
615,286	165,91
615,524	149,54
615,761	134,18
615,999	120,55
616,237	107,64
616,474	98,12
616,712	88,97
616,95	78,52
617,187	68,81
617,425	62,47
617,662	58,68
617,9	51,53
618,137	44,26
618,375	38,54
618,612	33,25
618,85	31,05
619,087	30,96
619,325	26,27
619,562	21,63
619,799	18,36
620,037	15,42
620,274	12,83
620,511	14,72
620,749	10,48
620,986	9,49
621,223	7,46
621,461	6,83
621,698	7,37
621,935	5,38
622,172	2,72
622,409	5,72
622,647	7,11
622,884	5,86
623,121	6,96
623,358	6,3
623,595	6,57
623,832	6,61
624,069	4,97
624,306	6,55
624,543	8,28
624,78	10,45
625,017	10,12
625,254	12,44
625,491	15,44
625,728	17,52
625,965	18,18
626,202	17,65
626,438	15,93
626,675	15,5
626,912	18,64
627,149	20,1
627,386	23,51
627,622	23,09
627,859	22,15
628,096	24,46
628,333	26,19
628,569	27,34
628,806	29,55
629,043	29,66
629,279	32,63
629,516	35,13
629,752	31,09
629,989	31,1
630,225	29,36
630,462	29,81
630,699	29,66
630,935	28,61
631,171	25,61
631,408	26,83
631,644	25
631,881	21,49
632,117	17,09
632,354	17,26
632,59	15,26
632,826	15,54
633,063	13,03
633,299	13,79
633,535	11,84
633,771	10,16
634,008	12,63
634,244	10,99
634,48	9,21
634,716	8,75
634,953	7,61
635,189	6,56
635,425	6,14
635,661	6,56
635,897	4,68
636,133	3,7
636,369	1,81
636,605	-3,95
636,841	-5,28
637,077	-4,7
637,313	-6,27
637,549	-6,42
637,785	-7,06
638,021	-6,23
638,257	-7,57
638,493	-6,51
638,729	-9,42
638,965	-6,13
639,2	-3,27
639,436	-3,81
639,672	-3,55
639,908	-5,68
640,144	-2,47
640,379	1,32
640,615	-0,53
640,851	1,44
641,086	2,61
641,322	0,69
641,558	2,07
641,793	2,89
642,029	0,76
642,264	0,04
642,5	-0,03
642,736	-3,1
642,971	-2,63
643,207	-4,09
643,442	-7,35
643,678	-7,29
643,913	-4,81
644,148	-5,63
644,384	-1,46
644,619	-0,83
644,855	1,95
645,09	1,92
645,325	1,5
645,561	2,22
645,796	1,27
646,031	6,46
646,266	2,63
646,502	0,11
646,737	3
646,972	3,12
647,207	4,66
647,442	1,76
647,678	-1,55
647,913	0,66
648,148	2,88
648,383	2,35
648,618	1,67
648,853	2,88
649,088	5,17
649,323	8,04
649,558	8,93
649,793	10,01
650,028	10,42
650,263	7,76
650,498	10,23
650,733	10,69
650,968	10,72
651,202	12,38
651,437	10,89
651,672	6,87
651,907	6,74
652,142	6,31
652,376	7,02
652,611	8,63
652,846	10,68
653,081	10,92
653,315	9,61
653,55	10,02
653,785	9,7
654,019	11,39
654,254	8,23
654,488	9,23
654,723	5,45
654,958	2
655,192	0,71
655,427	-4,9
655,661	-2,62
655,896	0,23
656,13	0,3
656,364	-3,39
656,599	-6,08
656,833	-3,52
657,068	-1,43
657,302	-0
657,536	-1,5
657,771	0,88
658,005	2,99
658,239	3,98
658,474	0,7
658,708	1,73
658,942	1,52
659,176	0,09
659,41	-2,48
659,645	-3,21
659,879	-3,83
660,113	-7,52
660,347	-7,86
660,581	-10,87
660,815	-11,17
661,049	-11,78
661,283	-15,27
661,517	-15,4
661,751	-16,83
661,985	-16,01
662,219	-13,31
662,453	-14,46
662,687	-11,7
662,921	-16,31
663,155	-17,75
663,389	-24,12
663,622	-25,59
663,856	-23,69
664,09	-26,14
664,324	-27,74
664,558	-27,76
664,791	-28,23
665,025	-29,68
665,259	-30,92
665,492	-33,47
665,726	-28,78
665,96	-28,2
666,193	-28,86
666,427	-28,34
666,661	-28,3
666,894	-28,98
667,128	-29,86
667,361	-26,53
667,595	-26,5
667,828	-26,41
668,062	-26,01
668,295	-25,7
668,529	-24,06
668,762	-23,26
668,995	-24,99
669,229	-22,09
669,462	-21,24
669,695	-20
669,929	-21,95
670,162	-20,4
670,395	-21,95
670,629	-20,35
670,862	-17,98
671,095	-20,34
671,328	-21,2
671,561	-25,15
671,795	-24,69
672,028	-22,75
672,261	-23,31
672,494	-21,8
672,727	-21,55
672,96	-20,8
673,193	-20,61
673,426	-17,79
673,659	-17,1
673,892	-15,78
674,125	-16,05
674,358	-15,45
674,591	-17,76
674,824	-18,49
675,057	-18,39
675,29	-20,43
675,523	-18,33
675,755	-19,39
675,988	-17,53
676,221	-12,56
676,454	-14,33
676,687	-12,47
676,919	-13,38
677,152	-12,47
677,385	-12,44
677,617	-11,08
677,85	-9,97
678,083	-9,54
678,315	-6,41
678,548	-7,57
678,78	-6,97
679,013	-7,79
679,246	-7,64
679,478	-6,04
679,711	-8,26
679,943	-6,49
680,175	-10,13
680,408	-8,03
680,64	-10,4
680,873	-8,39
681,105	-7,44
681,338	-4,02
681,57	-6,45
681,802	-4,73
682,034	-3,46
682,267	-0,45
682,499	2,73
682,731	0,58
682,964	-0,05
683,196	-2,78
683,428	-5,68
683,66	-6,33
683,892	-4,28
684,124	-1,96
684,356	1,77
684,589	2,51
684,821	1,61
685,053	2,04
685,285	2,59
685,517	2,98
685,749	5,91
685,981	8,42
686,213	8,7
686,445	8,99
686,676	6,69
686,908	8,89
687,14	8,29
687,372	7,73
687,604	5,46
687,836	5,54
688,068	4,59
688,299	3,98
688,531	2,13
688,763	8,62
688,995	7,26
689,226	9,73
689,458	7,68
689,69	5,66
689,921	5,05
690,153	4,92
690,384	6,74
690,616	6,67
690,848	7,52
691,079	3,83
691,311	1,15
691,542	-2,17
691,774	-5,14
692,005	-2,2
692,237	1,23
692,468	-2,55
692,699	-3,51
692,931	-4,21
693,162	-6,69
693,393	-7,74
693,625	-10,5
693,856	-9,9
694,087	-10,47
694,319	-9,64
694,55	-8,31
694,781	-9,4
695,012	-9,19
695,243	-11,83
695,475	-12,11
695,706	-12,25
695,937	-14,7
696,168	-15,44
696,399	-18,3
696,63	-20,31
696,861	-19,6
697,092	-13,57
697,323	-10,88
697,554	-9,58
697,785	-9,41
698,016	-8,08
698,247	-9,2
698,478	-7,14
698,709	-5,85
698,94	-2,28
699,171	-3,38
699,401	-8,34
699,632	-4,49
699,863	-8,08
700,094	-9,07
700,325	-5,62
700,555	-2,53
700,786	1
701,017	1,34
701,247	1,34
701,478	1,49
701,709	1,45
701,939	1,09
702,17	3,56
702,401	6,52
702,631	7,88
702,862	6,75
703,092	4,16
703,323	9,61
703,553	11,34
703,784	13,28
704,014	13,58
704,244	8,21
704,475	8,24
704,705	8,48
704,936	9,56
705,166	9,74
705,396	12,25
705,627	12,89
705,857	13,81
706,087	16,17
706,317	14,94
706,548	14,48
706,778	14,01
707,008	15,58
707,238	18,44
707,468	15,85
707,698	14,24
707,928	13,15
708,158	11,94
708,389	11,81
708,619	11,41
708,849	12,18
709,079	14,43
709,309	12,33
709,539	10,09
709,768	10,16
709,998	12,85
710,228	13,27
710,458	10,56
710,688	8,1
710,918	8,58
711,148	8,03
711,378	8,71
711,607	7,17
711,837	7,24
712,067	7,16
712,297	6,25
712,526	4,85
712,756	4,89
712,986	0,2
713,215	-3,72
713,445	-3,83
713,674	-1,94
713,904	-2,56
714,134	-0,17
714,363	-3,81
714,593	-3,85
714,822	-4,47
715,052	-4,59
715,281	-3,44
715,511	-5,94
715,74	-7,35
715,969	-10,18
716,199	-11,4
716,428	-11,78
716,657	-11,34
716,887	-10,36
717,116	-13,9
717,345	-13,58
717,575	-14,42
717,804	-13,84
718,033	-16,14
718,262	-17,29
718,492	-17,54
718,721	-17,45
718,95	-19,02
719,179	-21,46
719,408	-21,95
719,637	-25,22
719,866	-26,83
720,095	-25,26
720,324	-25,79
720,553	-29,89
720,782	-31,67
721,011	-32,95
721,24	-34,16
721,469	-32,74
721,698	-32,79
721,927	-33,69
722,156	-35,74
722,385	-36,92
722,613	-30,89
722,842	-30,73
723,071	-26,81
723,3	-26,67
723,529	-27,2
723,757	-27,53
723,986	-31,28
724,215	-31,76
724,443	-30,18
724,672	-28,46
724,901	-26,82
725,129	-23,82
725,358	-20,09
725,586	-22,71
725,815	-23,06
726,043	-23,45
726,272	-25,2
726,5	-25,11
726,729	-23,44
726,957	-26,6
727,186	-27,2
727,414	-26,73
727,642	-24,42
727,871	-23,26
728,099	-22,37
728,327	-22,2
728,556	-21,02
728,784	-20,27
729,012	-20,98
729,241	-16,82
729,469	-16,99
729,697	-20,46
729,925	-18,61
730,153	-20,7
730,381	-19,84
730,61	-18,49
730,838	-19,96
731,066	-18,67
731,294	-18,37
731,522	-21,07
731,75	-25,76
731,978	-26,74
732,206	-27,39
732,434	-29,97
732,662	-27,59
732,89	-29,54
733,118	-30,37
733,346	-29,95
733,573	-29,12
733,801	-28,23
734,029	-21,81
734,257	-20,05
734,485	-16,78
734,712	-14,32
734,94	-16,67
735,168	-13,84
735,396	-14,65
735,623	-16,83
735,851	-16,03
736,078	-13,65
736,306	-14,03
736,534	-14,43
736,761	-13,89
736,989	-17,37
737,216	-17,55
737,444	-19,93
737,671	-19,8
737,899	-14,72
738,126	-15,56
738,354	-14,06
738,581	-13,7
738,809	-11,84
739,036	-15,27
739,263	-16,8
739,491	-19,36
739,718	-18,66
739,945	-13,83
740,173	-11,04
740,4	-9,74
740,627	-12,67
740,854	-12,18
741,081	-15,18
741,309	-17,45
741,536	-21,37
741,763	-23,06
741,99	-20,85
742,217	-21,4
742,444	-21,47
742,671	-19,74
742,898	-19,52
743,125	-22,6
743,352	-25,95
743,579	-26,28
743,806	-28,49
744,033	-25,15
744,26	-25,54
744,487	-25,35
744,714	-24,75
744,941	-25,36
745,167	-21,67
745,394	-23,58
745,621	-23
745,848	-22,2
746,075	-18,29
746,301	-12,9
746,528	-6,99
746,755	-9,31
746,981	-9,43
747,208	-8,13
747,435	-6,75
747,661	-3,84
747,888	-2,96
748,114	-4,61
748,341	-1,05
748,567	1,17
748,794	0,56
749,02	0,72
749,247	-2,04
749,473	-1,4
749,7	-0,75
749,926	-2,78
750,152	1,6
750,379	2,03
750,605	2,82
750,831	4,54
751,058	3,04
751,284	2,72
751,51	6,56
751,737	7,75
751,963	5,58
752,189	4,09
752,415	3,08
752,641	1,36
752,867	-0
753,094	-1,93
753,32	-4,82
753,546	-7,22
753,772	-3,24
753,998	-4,72
754,224	-5,88
754,45	-6,5
754,676	-8
754,902	-9,17
755,128	-7,9
755,354	-9,45
755,579	-8,72
755,805	-7,42
756,031	-8,88
756,257	-9,4
756,483	-11,17
756,709	-14,09
756,934	-12,61
757,16	-15,72
757,386	-14,59
757,612	-16,66
757,837	-19,09
758,063	-16,46
758,289	-13,38
758,514	-16,74
758,74	-20,25
758,965	-23,24
759,191	-21,14
759,416	-19,45
759,642	-17,24
759,868	-15,53
760,093	-12,17
760,318	-13,1
760,544	-12,85
760,769	-16,05
760,995	-16,03
761,22	-16,76
761,445	-14,72
761,671	-12,11
761,896	-10,18
762,121	-11,87
762,347	-12,33
762,572	-14,66
762,797	-14,18
763,022	-13,79
763,248	-8,71
763,473	-6,8
763,698	-7,81
763,923	-8,43
764,148	-8,38
764,373	-8,71
764,598	-6,3
764,823	-3,89
765,048	-5,99
765,273	-10,79
765,498	-11,16
765,723	-10,5
765,948	-8,94
766,173	-11,53
766,398	-9,67
766,623	-12,89
766,848	-13,75
767,073	-17,28
767,298	-17,09
767,522	-17,28
767,747	-15,74
767,972	-16,43
768,197	-15,97
768,421	-17,78
768,646	-20,77
768,871	-23,39
769,095	-21,5
769,32	-20,82
769,545	-21,07
769,769	-21,82
769,994	-20,38
770,218	-23,86
770,443	-23,09
770,667	-20,3
770,892	-19,67
771,116	-20,76
771,341	-18,66
771,565	-19,22
771,79	-19,07
772,014	-21,07
772,238	-20,94
772,463	-19,07
772,687	-18,3
772,911	-18,12
773,136	-19,27
773,36	-18,82
773,584	-16,09
773,808	-18,32
774,033	-17,54
774,257	-18,27
774,481	-18,92
774,705	-20,02
774,929	-19,87
775,153	-19,18
775,377	-18,41
775,602	-19,78
775,826	-18,44
776,05	-15,95
776,274	-16,52
776,498	-16,26
776,722	-16,14
776,945	-15,89
777,169	-15,99
777,393	-17,17
777,617	-17,9
777,841	-17,59
778,065	-15,22
778,289	-17,17
778,512	-18,92
778,736	-17,85
778,96	-17,56
779,184	-14,27
779,407	-16,25
779,631	-16,66
779,855	-16,76
780,078	-14,85
780,302	-16,63
780,526	-19,32
780,749	-17,55
780,973	-15,83
781,196	-14,61
781,42	-17,62
781,643	-17,36
781,867	-16,49
782,09	-18,84
782,314	-18,63
782,537	-19,43
782,76	-20,91
782,984	-20,99
783,207	-21,12
783,431	-20,47
783,654	-22,12
783,877	-24,49
784,1	-26,46
784,324	-26,68
784,547	-27,58
784,77	-31,22
784,993	-33,26
785,216	-34,02
785,44	-32,96
785,663	-35,33
785,886	-31,4
786,109	-32,65
786,332	-30,36
786,555	-29,58
786,778	-29,23
787,001	-29,18
787,224	-27,67
787,447	-25,77
787,67	-25,01
787,893	-24,01
788,116	-24,31
788,339	-22,54
788,561	-23,41
788,784	-27,01
789,007	-28,18
789,23	-30,58
789,453	-29,87
789,675	-30,6
789,898	-33,38
790,121	-35,51
790,344	-36,56
790,566	-35,31
790,789	-34,54
791,012	-32,69
791,234	-31,68
791,457	-28,22
791,679	-26,9
791,902	-26,17
792,124	-26,25
792,347	-28,21
792,569	-29,24
792,792	-33,13
793,014	-30,33
793,237	-29,73
793,459	-30,64
793,681	-29,94
793,904	-31,18
794,126	-33,27
794,348	-33,2
794,571	-32,15
794,793	-34,8
795,015	-35,43
795,237	-35,49
795,46	-35
795,682	-34,28
795,904	-31,9
796,126	-33,08
796,348	-32,04
796,57	-28,37
796,792	-26,3
797,014	-22,62
797,237	-20,61
797,459	-19,08
797,681	-17,42
797,903	-20,57
798,124	-19,67
798,346	-8,86
798,568	-6,22
798,79	-3,39
799,012	-0,88
799,234	2,02
799,456	4,08
799,678	6,83
799,899	3,91
800,121	0,92
800,343	1,43
800,565	2,81
800,786	3,55
801,008	5,3
801,23	5,71
801,451	6,25
801,673	4,54
801,895	5,19
802,116	7,7
802,338	9,4
802,559	9,19
802,781	6,87
803,002	9,35
803,224	12,66
803,445	10,25
803,667	10,2
803,888	9,24
804,109	9,47
804,331	9,37
804,552	8,98
804,773	12,55
804,995	9,93
805,216	-4,42
805,437	-7,86
805,658	-11,17
805,88	-13,64
806,101	-14,29
806,322	-13,63
806,543	-14,71
806,764	-16,58
806,985	-15,2
807,207	-14,76
807,428	-15,83
807,649	-19,33
807,87	-20,88
808,091	-21,42
808,312	-19,77
808,533	-13,63
808,754	-11,99
808,975	-14,89
809,195	-12,65
809,416	-11,75
809,637	-10,93
809,858	-11,61
810,079	-15,22
810,3	-13,07
810,52	-15,01
810,741	-17,61
810,962	-19,76
811,183	-20,57
811,403	-20,55
811,624	-21,56
811,845	-20,64
812,065	-18,28
812,286	-16,24
812,506	-15,69
812,727	-16,12
812,948	-14,16
813,168	-12,7
813,389	-13,72
813,609	-12,19
813,83	-11,45
814,05	-12,21
814,27	-13,04
814,491	-8,43
814,711	-9,38
814,931	-11,82
815,152	-12,79
815,372	-15,56
815,592	-17,09
815,813	-18,13
816,033	-20,63
816,253	-19,59
816,473	-21,62
816,694	-21,06
816,914	-19,67
817,134	-20,83
817,354	-22,37
817,574	-21,12
817,794	-21,31
818,014	-21,94
818,234	-21,42
818,454	-22,4
818,674	-24,14
818,894	-26,16
819,114	-24,29
819,334	-24,74
819,554	-22,31
819,774	-20,02
819,994	-22,79
820,214	-23,8
820,433	-22,53
820,653	-23,1
820,873	-21,65
821,093	-20,23
821,312	-23,3
821,532	-20,81
821,752	-17,25
821,972	-19,8
822,191	-18,73
822,411	-19,95
822,63	-17,92
822,85	-17,58
823,07	-19,42
823,289	-16,85
823,509	-18,75
823,728	-16,52
823,948	-18,49
824,167	-17,99
824,387	-18,61
824,606	-17,09
824,825	-18,32
825,045	-19,84
825,264	-19,86
825,483	-17,77
825,703	-16,72
825,922	-19,15
826,141	-18,59
826,361	-18,68
826,58	-24,3
826,799	-25,35
827,018	-24,23
827,237	-25,01
827,456	-23,29
827,676	-23,37
827,895	-22,36
828,114	-19,79
828,333	-20,04
828,552	-21,15
828,771	-19,37
828,99	-21,39
829,209	-21,2
829,428	-19,09
829,647	-19,42
829,866	-18,54
830,084	-19,17
830,303	-18,94
830,522	-20,83
830,741	-19,1
830,96	-19,37
831,179	-18,25
831,397	-20,39
831,616	-20,17
831,835	-19,45
832,053	-18,7
832,272	-19,18
832,491	-18,21
832,709	-19,75
832,928	-20,05
833,147	-21,06
833,365	-18,72
833,584	-15,94
833,802	-13,42
834,021	-12,67
834,239	-12,84
834,458	-15,45
834,676	-19,62
834,894	-20,6
835,113	-22,35
835,331	-22,27
835,55	-23,96
835,768	-23,01
835,986	-21,26
836,204	-23,66
836,423	-22,87
836,641	-23,98
836,859	-24,95
837,077	-23,45
837,296	-23,41
837,514	-25,12
837,732	-25,21
837,95	-27,24
838,168	-23,45
838,386	-24,43
838,604	-22,66
838,822	-22,07
839,04	-22,96
839,258	-23,09
839,476	-20,19
839,694	-19,09
839,912	-19,3
840,13	-19,11
840,348	-17,13
840,566	-19,82
840,783	-18,7
841,001	-20,65
841,219	-18,12
841,437	-17,01
841,655	-17,73
841,872	-17,72
842,09	-17,42
842,308	-15,39
842,525	-15,36
842,743	-15,02
842,961	-16,78
843,178	-19,15
843,396	-15,08
843,613	-14,61
843,831	-13,66
844,048	-13,05
844,266	-13,32
844,483	-12,76
844,701	-12,88
844,918	-13,24
845,136	-12,52
845,353	-15,09
845,57	-14,46
845,788	-10,46
846,005	-12,82
846,222	-15,57
846,439	-14,68
846,657	-14,69
846,874	-14,77
847,091	-17,07
847,308	-15,89
847,526	-17,28
847,743	-16,75
847,96	-18,27
848,177	-17,47
848,394	-17,15
848,611	-16,61
848,828	-17,84
849,045	-20,31
849,262	-20,2
849,479	-19,76
849,696	-18,83
849,913	-20,6
850,13	-25,78
850,347	-21,69
850,564	-21,6
850,78	-24,57
850,997	-26,17
851,214	-25,6
851,431	-23,95
851,647	-27,41
851,864	-26,89
852,081	-25,11
852,298	-28,69
852,514	-31,52
852,731	-30,56
852,948	-26,98
853,164	-26,46
853,381	-27,99
853,597	-29,32
853,814	-30,72
854,03	-34,22
854,247	-32,69
854,463	-32,52
854,68	-33,34
854,896	-33,53
855,113	-33,56
855,329	-33,61
855,545	-30,85
855,762	-31,79
855,978	-35,08
856,194	-37,61
856,411	-34,36
856,627	-30,66
856,843	-29,33
857,059	-28,83
857,275	-31,32
857,492	-29,91
857,708	-25,21
857,924	-24,72
858,14	-23,28
858,356	-24,24
858,572	-25,44
858,788	-27,16
859,004	-25
859,22	-26,71
859,436	-25,36
859,652	-26,54
859,868	-28,91
860,084	-27,31
860,3	-27,57
860,516	-28,31
860,731	-27,01
860,947	-30,47
861,163	-28,92
861,379	-28,27
861,595	-25,68
861,81	-23,6
862,026	-23,15
862,242	-23,92
862,457	-22,55
862,673	-21,22
862,889	-21,02
863,104	-22,6
863,32	-22,37
863,535	-21,43
863,751	-25,76
863,966	-22,55
864,182	-18,97
864,397	-20,79
864,613	-22,38
864,828	-23,98
865,044	-21,48
865,259	-18,15
865,474	-18,07
865,69	-16,89
865,905	-15,34
866,12	-17,7
866,336	-18,35
866,551	-14,89
866,766	-16,51
866,981	-17,9
867,196	-18,03
867,412	-17,27
867,627	-15,87
867,842	-18,12
868,057	-16,85
868,272	-18,92
868,487	-22,11
868,702	-24
868,917	-25,84
869,132	-24,53
869,347	-23,54
869,562	-23,88
869,777	-24,31
869,992	-25,9
870,207	-26,29
870,422	-26,02
870,636	-27,5
870,851	-31,14
871,066	-32,79
871,281	-32,68
871,495	-33,5
871,71	-30,49
871,925	-33,81
872,14	-34,24
872,354	-37,17
872,569	-38,17
872,783	-36,21
872,998	-36,02
873,213	-38,27
873,427	-35,07
873,642	-32,57
873,856	-32,04
874,071	-32,88
874,285	-33,86
874,5	-34,14
874,714	-36,41
874,928	-37,39
875,143	-37,36
875,357	-37
875,571	-37,64
875,786	-38,22
876	-35,34
876,214	-34,03
876,429	-35,77
876,643	-34,48
876,857	-32,28
877,071	-31,87
877,285	-32,48
877,499	-34,62
877,714	-31,85
877,928	-30,08
878,142	-30,62
878,356	-33,83
878,57	-32
878,784	-30,1
878,998	-29,61
879,212	-26,85
879,426	-28,46
879,639	-27,85
879,853	-29,33
880,067	-29,82
880,281	-30,99
880,495	-28,57
880,709	-25,21
880,922	-25,37
881,136	-23,2
881,35	-20,27
881,564	-19,84
881,777	-22,27
881,991	-21,25
882,205	-17,69
882,418	-17,61
882,632	-20,77
882,845	-21,59
883,059	-21,59
883,273	-24,12
883,486	-25,93
883,7	-22,86
883,913	-24,15
884,126	-21,95
884,34	-24,93
884,553	-26,82
884,767	-21,92
884,98	-21,38
885,193	-22,93
885,407	-24,19
885,62	-20,91
885,833	-21,73
886,046	-20,48
886,26	-21,93
886,473	-22,15
886,686	-22,84
886,899	-21,22
887,112	-22,4
887,326	-25,53
887,539	-24,22
887,752	-24,93
887,965	-28,51
888,178	-27,95
888,391	-26,54
888,604	-27,36
888,817	-29,56
889,03	-28,04
889,243	-29,86
889,455	-31,71
889,668	-31,04
889,881	-26,88
890,094	-27,75
890,307	-31,71
890,52	-29,27
890,732	-27,62
890,945	-27,42
891,158	-27,52
891,37	-30,86
891,583	-30,53
891,796	-27,96
892,008	-29,89
892,221	-32,5
892,434	-36,15
892,646	-36,8
892,859	-36,72
893,071	-35,16
893,284	-33,25
893,496	-34,68
893,709	-34,88
893,921	-32,64
894,133	-33,33
894,346	-33,27
894,558	-32,78
894,771	-32,56
894,983	-30,24
895,195	-28,62
895,407	-28,02
895,62	-29,31
895,832	-27,57
896,044	-24,61
896,256	-25,19
896,468	-27,54
896,681	-25,81
896,893	-24,39
897,105	-25,36
897,317	-27,66
897,529	-25,87
897,741	-24,41
897,953	-21,69
898,165	-24,03
898,377	-25,94
898,589	-23,89
898,801	-24,88
899,013	-21,9
899,224	-19,26
899,436	-17,49
899,648	-18,3
899,86	-21,02
900,072	-16,93
900,283	-16,65
900,495	-16,34
900,707	-16,07
900,919	-19,07
901,13	-17,19
901,342	-18,62
901,554	-19,83
901,765	-19,47
901,977	-22,05
902,188	-24,56
902,4	-25,61
902,611	-27,59
902,823	-27,75
903,034	-30,4
903,246	-32,67
903,457	-34,32
903,669	-35,55
903,88	-34,63
904,091	-34,82
904,303	-34,09
904,514	-37,18
904,725	-33,79
904,936	-33,26
905,148	-33,09
905,359	-29,55
905,57	-29,41
905,781	-30,44
905,992	-31,23
906,204	-30,37
906,415	-28,74
906,626	-32,02
906,837	-28,53
907,048	-30,58
907,259	-30,38
907,47	-30,59
907,681	-32,7
907,892	-30,03
908,103	-29,92
908,314	-31,24
908,525	-28,7
908,735	-26,45
908,946	-27,36
909,157	-27,49
909,368	-24,26
909,579	-22,03
909,789	-23,84
910	-25,03
910,211	-22,46
910,421	-23,17
910,632	-22,27
910,843	-24,65
911,053	-20,59
911,264	-18,1
911,475	-18,79
911,685	-18,55
911,896	-18,94
912,106	-19,18
912,317	-22,6
912,527	-20,55
912,737	-20,82
912,948	-21,21
913,158	-20,54
913,369	-24,24
913,579	-21,73
913,789	-20,6
914	-17,2
914,21	-16,61
914,42	-16,26
914,63	-16,69
914,841	-15,74
915,051	-13,37
915,261	-12,42
915,471	-9,17
915,681	-9,68
915,891	-11,25
916,101	-12,28
916,311	-11,22
916,521	-9,12
916,731	-9,01
916,941	-6,8
917,151	-9,27
917,361	-6,84
917,571	-12,04
917,781	-15,05
917,991	-18,57
918,201	-18,55
918,411	-21,52
918,621	-21,72
918,83	-19,66
919,04	-21,48
919,25	-19,37
919,46	-17,88
919,669	-20,79
919,879	-20,92
920,089	-22,29
920,298	-23,91
920,508	-23,2
920,717	-21,59
920,927	-25,36
921,136	-24,75
921,346	-26,82
921,555	-30,52
921,765	-30,55
921,974	-32,31
922,184	-34,11
922,393	-33,79
922,603	-33,88
922,812	-31,03
923,021	-31,47
923,23	-33,44
923,44	-35,79
923,649	-34,48
923,858	-34,94
924,067	-33,99
924,277	-35,8
924,486	-31,55
924,695	-32,01
924,904	-30,16
925,113	-29,22
925,322	-28,85
925,531	-29
925,74	-31,46
925,949	-33,6
926,158	-31,27
926,367	-31,73
926,576	-31,19
926,785	-31,55
926,994	-33,89
927,203	-31,98
927,412	-31,54
927,621	-32,27
927,83	-28,86
928,038	-28,02
928,247	-30
928,456	-29,87
928,665	-27,91
928,873	-26,28
929,082	-25,07
929,291	-24,47
929,499	-23,43
929,708	-24,34
929,916	-23,93
930,125	-23,69
930,333	-23,6
930,542	-20,83
930,75	-18,35
930,959	-17,55
931,167	-17,77
931,376	-17,68
931,584	-17,41
931,793	-16,53
932,001	-16,91
932,209	-18,76
932,418	-19,91
932,626	-20,8
932,834	-21,73
933,042	-24,66
933,251	-24,23
933,459	-24,24
933,667	-26,53
933,875	-26,06
934,083	-24,79
934,291	-24,84
934,499	-23,81
934,707	-23,65
934,915	-24,88
935,123	-23,03
935,331	-25,59
935,539	-27,89
935,747	-29,83
935,955	-30,44
936,163	-29,01
936,371	-29,83
936,579	-28,46
936,787	-29,82
936,995	-31,76
937,202	-34,05
937,41	-35,14
937,618	-36,31
937,826	-37,07
938,033	-41,11
938,241	-43,16
938,449	-41,06
938,656	-37,77
938,864	-36,91
939,071	-36,66
939,279	-34,2
939,486	-31,06
939,694	-32,02
939,901	-32,93
940,109	-32,42
940,316	-31,64
940,524	-32,68
940,731	-34,29
940,939	-33,71
941,146	-33,07
941,353	-32,68
941,561	-32,5
941,768	-33,1
941,975	-30,7
942,182	-31,7
942,39	-30,19
942,597	-26,97
942,804	-26,28
943,011	-28,74
943,218	-27,88
943,425	-28,46
943,632	-27,59
943,839	-27,78
944,046	-26,62
944,253	-26,54
944,46	-26,51
944,667	-22,92
944,874	-24,59
945,081	-23,57
945,288	-23,72
945,495	-21,5
945,702	-20,74
945,909	-23,12
946,115	-22,23
946,322	-23,02
946,529	-25,12
946,736	-25,55
946,942	-23,43
947,149	-24,52
947,356	-27,05
947,562	-29,75
947,769	-29,99
947,976	-31,62
948,182	-29,27
948,389	-29,94
948,595	-29,4
948,802	-30,46
949,008	-32,24
949,215	-29,99
949,421	-29,34
949,628	-29,86
949,834	-28,25
950,04	-29,56
950,247	-26,7
950,453	-25,3
950,659	-26,2
950,865	-22,95
951,072	-27,23
951,278	-24,12
951,484	-26,27
951,69	-29,51
951,896	-31,24
952,103	-33,38
952,309	-30,92
952,515	-29,98
952,721	-27,62
952,927	-24,88
953,133	-25,22
953,339	-27,14
953,545	-27,16
953,751	-24,5
953,957	-21,48
954,163	-22,46
954,369	-22,03
954,574	-24,13
954,78	-24,39
954,986	-23,37
955,192	-20,17
955,398	-22,36
955,603	-25,97
955,809	-24,59
956,015	-24,94
956,22	-25,18
956,426	-24,57
956,632	-26,98
956,837	-28,42
957,043	-27,1
957,248	-27,75
957,454	-26,48
957,66	-29,86
957,865	-30,67
958,07	-27,63
958,276	-29,27
958,481	-29,14
958,687	-31,01
958,892	-31,7
959,097	-31,22
959,303	-32,96
959,508	-34,12
959,713	-33,96
959,919	-35,64
960,124	-37,35
960,329	-36,12
960,534	-33,12
960,739	-32,31
960,945	-29,59
961,15	-30,27
961,355	-31,36
961,56	-36,83
961,765	-37,65
961,97	-37,39
962,175	-35,48
962,38	-38,64
962,585	-38,78
962,79	-40,09
962,995	-40,89
963,2	-42,78
963,404	-42,72
963,609	-43,96
963,814	-46,05
964,019	-47,2
964,224	-48,51
964,428	-48
964,633	-46,34
964,838	-45,47
965,042	-45,92
965,247	-48,15
965,452	-50,1
965,656	-47,69
965,861	-46,07
966,066	-45,91
966,27	-41,74
966,475	-37,86
966,679	-42,2
966,884	-41,99
967,088	-44,52
967,292	-46,68
967,497	-44,54
967,701	-44,78
967,906	-43,35
968,11	-40,22
968,314	-35,22
968,518	-36,45
968,723	-32,99
968,927	-30,2
969,131	-26,99
969,335	-24,15
969,539	-22,15
969,744	-21,22
969,948	-20,02
970,152	-16,93
970,356	-15,9
970,56	-14,35
970,764	-14,25
970,968	-13,15
971,172	-14,14
971,376	-13,46
971,58	-10,65
971,784	-9,18
971,988	-10,55
972,192	-8,06
972,395	-9,54
972,599	-11,99
972,803	-14,74
973,007	-12,91
973,21	-12,9
973,414	-12,22
973,618	-12,71
973,822	-13,7
974,025	-13,12
974,229	-11,58
974,432	-15,78
974,636	-20,51
974,84	-21,04
975,043	-21,52
975,247	-25,28
975,45	-29,17
975,654	-27,86
975,857	-25,9
976,06	-27,72
976,264	-29,25
976,467	-28,52
976,671	-28,54
976,874	-26,76
977,077	-28,86
977,28	-28,17
977,484	-28,87
977,687	-28,49
977,89	-27,26
978,093	-27,42
978,297	-26,9
978,5	-29,67
978,703	-27,99
978,906	-27,56
979,109	-28,34
979,312	-26,81
979,515	-26,79
979,718	-27,4
979,921	-26,25
980,124	-28,91
980,327	-29,01
980,53	-30,61
980,733	-27,43
980,936	-24,06
981,138	-25,61
981,341	-23,87
981,544	-23,28
981,747	-23,47
981,949	-26,24
982,152	-25,95
982,355	-26,06
982,558	-22,71
982,76	-26,05
982,963	-26,41
983,165	-27,44
983,368	-26,15
983,571	-27,37
983,773	-25,43
983,976	-25,41
984,178	-24,74
984,381	-25,76
984,583	-29,03
984,785	-29,72
984,988	-27,52
985,19	-26,16
985,392	-27,78
985,595	-30,9
985,797	-31,71
985,999	-28,83
986,202	-27,43
986,404	-27,46
986,606	-25,16
986,808	-25,39
987,01	-24,12
987,212	-25,48
987,415	-26,44
987,617	-27,1
987,819	-27,36
988,021	-26,14
988,223	-28,21
988,425	-30,13
988,627	-30,03
988,829	-33,68
989,031	-32,42
989,232	-32,9
989,434	-31,7
989,636	-31,25
989,838	-31,1
990,04	-29,38
990,242	-32,13
990,443	-35,92
990,645	-33,27
990,847	-29,54
991,048	-28,11
991,25	-31,24
991,452	-32,15
991,653	-32,48
991,855	-31,49
992,057	-31,42
992,258	-30,43
992,46	-31,02
992,661	-30,77
992,863	-33,36
993,064	-33,6
993,265	-35,33
993,467	-37,58
993,668	-34,49
993,87	-33,68
994,071	-33,93
994,272	-33,25
994,473	-30,73
994,675	-31,5
994,876	-30,52
995,077	-30,84
995,278	-28,27
995,48	-28,26
995,681	-30,21
995,882	-28,34
996,083	-29,27
996,284	-33,48
996,485	-30,88
996,686	-30,67
996,887	-32,51
997,088	-37,4
997,289	-38,68
997,49	-37,33
997,691	-37,73
997,892	-37,21
998,092	-33,11
998,293	-34,05
998,494	-34,58
998,695	-36,18
998,896	-32,65
999,096	-32,17
999,297	-31,35
999,498	-32,97
999,698	-34,57
999,899	-38,82
1000,1	-41,71
1000,3	-41,06
1000,501	-40,93
1000,701	-42,66
1000,902	-40,89
1001,102	-41,78
1001,303	-38,91
1001,503	-42,9
1001,704	-41,95
1001,904	-42,31
1002,105	-43,18
1002,305	-42,29
1002,505	-43,14
1002,706	-44,56
1002,906	-44,59
1003,106	-44,88
1003,306	-41,86
1003,507	-39,79
1003,707	-41,05
1003,907	-38,34
1004,107	-36,83
1004,307	-39,74
1004,507	-37,99
1004,707	-38,87
1004,907	-39,25
1005,107	-38,76
1005,308	-38,11
1005,507	-38,27
1005,707	-35,44
1005,907	-33,93
1006,107	-29,22
1006,307	-26,99
1006,507	-27,39
1006,707	-26,79
1006,907	-25,42
1007,106	-25,65
1007,306	-26,47
1007,506	-27,28
1007,706	-27,05
1007,905	-28,18
1008,105	-28,01
1008,305	-29,65
1008,504	-28,79
1008,704	-23,32
1008,903	-22,95
1009,103	-20,5
1009,303	-23,11
1009,502	-23,89
1009,702	-23,86
1009,901	-23,54
1010,1	-26,25
1010,3	-24,36
1010,499	-25,38
1010,699	-27,52
1010,898	-29,21
1011,097	-28,54
1011,296	-30,08
1011,496	-30,76
1011,695	-32,38
1011,894	-33,9
1012,093	-31,53
1012,293	-32,5
1012,492	-33,46
1012,691	-33,96
1012,89	-33,3
1013,089	-36,15
1013,288	-35,27
1013,487	-32,52
1013,686	-32,23
1013,885	-32,5
1014,084	-32,84
1014,283	-33,85
1014,482	-33,72
1014,681	-34,99
1014,88	-39,76
1015,078	-38,1
1015,277	-41,04
1015,476	-39,06
1015,675	-38,46
1015,873	-39,67
1016,072	-40,67
1016,271	-37,04
1016,47	-40,79
1016,668	-38,99
1016,867	-38,72
1017,065	-40,62
1017,264	-41,89
1017,463	-42,54
1017,661	-42,78
1017,86	-41,39
1018,058	-39,85
1018,256	-41,6
1018,455	-42,6
1018,653	-41,82
1018,852	-41,29
1019,05	-44,93
1019,248	-45,47
1019,447	-47,57
1019,645	-48,66
1019,843	-50,23
1020,041	-48,28
1020,24	-47,71
1020,438	-41,77
1020,636	-41,97
1020,834	-44,97
1021,032	-41,2
1021,23	-43,16
1021,428	-41,35
1021,626	-37,87
1021,824	-37,36
1022,022	-39,11
1022,22	-36,63
1022,418	-37,3
1022,616	-37,55
1022,814	-38,18
1023,012	-39,19
1023,21	-36,28
1023,408	-36,04
1023,606	-36,4
1023,803	-31,93
1024,001	-31,91
1024,199	-35,89
1024,397	-34,45
1024,594	-34,64
1024,792	-36,24
1024,99	-34,23
1025,187	-32,87
1025,385	-27,85
1025,582	-27,7
1025,78	-28,94
1025,977	-27,26
1026,175	-27,08
1026,372	-27,89
1026,57	-32,83
1026,767	-32,67
1026,965	-30,72
1027,162	-31,96
1027,359	-32,41
1027,557	-31,06
1027,754	-34,92
1027,951	-36,4
1028,148	-32,94
1028,346	-35,8
1028,543	-38,11
1028,74	-37,47
1028,937	-40,13
1029,134	-39,72
1029,331	-41,14
1029,528	-40,79
1029,725	-40,84
1029,923	-43,04
1030,12	-39,55
1030,317	-37,53
1030,513	-36,73
1030,71	-36,04
1030,907	-32,53
1031,104	-35,27
1031,301	-35,97
1031,498	-37,12
1031,695	-36,6
1031,892	-35,72
1032,088	-36,31
1032,285	-38,34
1032,482	-38,62
1032,678	-41,11
1032,875	-40,58
1033,072	-39,8
1033,268	-39,68
1033,465	-38,85
1033,662	-40,99
1033,858	-39,04
1034,055	-38,25
1034,251	-36,04
1034,448	-35,84
1034,644	-37,24
1034,84	-35,25
1035,037	-32,28
1035,233	-31,65
1035,43	-29,9
1035,626	-31,09
1035,822	-30,17
1036,019	-31,93
1036,215	-37,35
1036,411	-37,46
1036,607	-39,23
1036,803	-42,06
1037	-43,87
1037,196	-45,07
1037,392	-44,26
1037,588	-46,11
1037,784	-46,51
1037,98	-47,39
1038,176	-47,41
1038,372	-46,96
1038,568	-44,74
1038,764	-42
1038,96	-40,03
1039,156	-41,06
1039,352	-43,26
1039,547	-41,97
1039,743	-40,28
1039,939	-39,62
1040,135	-40,69
1040,331	-43,44
1040,526	-40,63
1040,722	-39,53
1040,918	-41,55
1041,113	-44,69
1041,309	-46,05
1041,505	-49,05
1041,7	-47,56
1041,896	-48,6
1042,091	-49,63
1042,287	-48,19
1042,482	-47,74
1042,678	-47,76
1042,873	-46,06
1043,069	-47,01
1043,264	-45,38
1043,459	-44,99
1043,655	-44,27
1043,85	-44,44
1044,045	-43,34
1044,24	-43,73
1044,436	-42,46
1044,631	-43,92
1044,826	-44,46
1045,021	-48,35
1045,216	-48,13
