Data from FLMT021711__3__18-14-11-688.txt Node

Date: Tue Nov 05 18:14:11 CET 2024
User: Etudiants TP
Spectrometer: FLMT02171
Trigger mode: 0
Integration Time (sec): 1,000000E-1
Scans to average: 5
Electric dark correction enabled: true
Nonlinearity correction enabled: false
Boxcar width: 15
XAxis mode: Wavelengths
Number of Pixels in Spectrum: 3648
>>>>>Begin Spectral Data<<<<<
194,658	-61,91
194,923	-59,03
195,188	-51,5
195,453	-50,1
195,717	-45,4
195,982	-43,14
196,247	-40,93
196,512	-44,36
196,777	-42,16
197,042	-40,01
197,307	-40,05
197,572	-34,91
197,837	-36,57
198,101	-34,23
198,366	-30,7
198,631	-29,77
198,896	-24
199,161	-17,01
199,425	-10,69
199,69	-0,1
199,955	0,36
200,22	-3,72
200,484	-4,18
200,749	-4,33
201,014	-2,47
201,278	-1,92
201,543	1,22
201,807	0,26
202,072	1,64
202,337	2,03
202,601	2,64
202,866	0,42
203,13	2,27
203,395	-0,98
203,659	-1,14
203,924	-1,81
204,189	-1,06
204,453	0,19
204,717	4,16
204,982	5,2
205,246	5,75
205,511	8,87
205,775	7,18
206,04	13,26
206,304	13,74
206,568	14,04
206,833	14,74
207,097	16,01
207,361	17,28
207,626	20,94
207,89	20,88
208,154	21,53
208,419	25,43
208,683	24,82
208,947	26,18
209,211	25,32
209,476	23,1
209,74	22,21
210,004	23,68
210,268	24,05
210,532	26,59
210,796	27,09
211,061	27,46
211,325	27,24
211,589	27,17
211,853	28,92
212,117	28,96
212,381	29,17
212,645	29,11
212,909	29,41
213,173	26,79
213,437	27,04
213,701	25,91
213,965	26,2
214,229	22,12
214,493	22,19
214,757	21,4
215,021	20,95
215,285	24,14
215,549	26,62
215,813	24,79
216,077	23,35
216,34	25,33
216,604	24,43
216,868	25,67
217,132	27,22
217,396	27,03
217,659	28,66
217,923	24,55
218,187	24,27
218,451	23,7
218,714	19,68
218,978	19,6
219,242	22,57
219,505	22,78
219,769	24,46
220,033	22,3
220,296	23,43
220,56	24,2
220,824	21,58
221,087	21,92
221,351	22,31
221,614	22,84
221,878	24,1
222,142	23,24
222,405	22,97
222,669	25,24
222,932	21,42
223,196	20,3
223,459	17,06
223,722	16,63
223,986	15,21
224,249	15,46
224,513	14,81
224,776	14,43
225,04	14,8
225,303	13,76
225,566	14,84
225,83	16,95
226,093	21,11
226,356	18,79
226,62	16,86
226,883	18,89
227,146	19,2
227,409	18,65
227,673	16,62
227,936	15,12
228,199	16,46
228,462	13,63
228,725	11,67
228,989	11,2
229,252	11,91
229,515	17,93
229,778	17,18
230,041	16,09
230,304	14,2
230,567	15,74
230,83	13,06
231,093	15,74
231,356	15,72
231,619	22,36
231,882	21,45
232,145	23,43
232,408	20,61
232,671	19,6
232,934	18,01
233,197	15,7
233,46	14,11
233,723	14,77
233,986	12,91
234,249	10,79
234,512	13,43
234,775	17,25
235,037	16,41
235,3	16,16
235,563	16,52
235,826	17,77
236,089	19,89
236,351	19,86
236,614	23,06
236,877	23,4
237,14	26,57
237,402	25,98
237,665	18,34
237,928	16,65
238,19	14,91
238,453	17,61
238,716	16,39
238,978	16,72
239,241	15,65
239,503	17,28
239,766	10,87
240,029	8,68
240,291	10,93
240,554	12,13
240,816	11,11
241,079	13,07
241,341	12,98
241,604	14,09
241,866	10,09
242,129	11,94
242,391	13,61
242,653	11,4
242,916	12,03
243,178	12,83
243,441	14,04
243,703	13,03
243,965	10,45
244,228	10,42
244,49	9,85
244,752	10,09
245,015	11,57
245,277	12,97
245,539	10,33
245,801	11,83
246,064	11,53
246,326	10,83
246,588	10,47
246,85	12,77
247,112	13,43
247,374	15,81
247,637	18,77
247,899	20,46
248,161	21,57
248,423	18,51
248,685	18,74
248,947	18,91
249,209	18,41
249,471	19,99
249,733	19,32
249,995	18,4
250,257	16,55
250,519	14,91
250,781	18,35
251,043	15,15
251,305	16,91
251,567	18,7
251,829	17,98
252,091	18,31
252,353	14,99
252,615	14,55
252,876	12,67
253,138	10,64
253,4	7,01
253,662	9,33
253,924	13,32
254,185	15,24
254,447	15,77
254,709	15,4
254,971	17,3
255,232	18,61
255,494	16,89
255,756	14,27
256,017	13,94
256,279	14,35
256,541	13,76
256,802	13,24
257,064	14,52
257,326	13,86
257,587	14,71
257,849	16,06
258,11	19,91
258,372	20,83
258,633	21,93
258,895	21,98
259,156	20,95
259,418	19,31
259,679	14,49
259,941	13,63
260,202	16,6
260,464	17,56
260,725	18,01
260,987	17,53
261,248	17,04
261,509	17,72
261,771	15,67
262,032	15,87
262,293	14,58
262,555	14,12
262,816	13,36
263,077	10,13
263,338	6,68
263,6	6,86
263,861	6,14
264,122	4,67
264,383	6,85
264,645	7,8
264,906	7,86
265,167	8,04
265,428	7,6
265,689	8,18
265,95	4,59
266,211	5,53
266,473	5,44
266,734	2,62
266,995	-1,4
267,256	-0,05
267,517	2,04
267,778	6,55
268,039	8,14
268,3	6,48
268,561	6,02
268,822	7,9
269,083	6,09
269,344	5,24
269,604	4,87
269,865	6,35
270,126	1,75
270,387	3,87
270,648	5,36
270,909	4,14
271,17	3,86
271,43	1,4
271,691	-0,71
271,952	-0,71
272,213	1,67
272,473	-0,54
272,734	1,5
272,995	3,41
273,256	3,53
273,516	5,56
273,777	3,79
274,038	7,46
274,298	4,63
274,559	4,79
274,82	10,15
275,08	12,39
275,341	13,33
275,601	11,69
275,862	8,6
276,122	9,26
276,383	9,81
276,643	10,71
276,904	9,92
277,164	13,89
277,425	14,13
277,685	18,8
277,946	19,3
278,206	21,01
278,467	22,02
278,727	23
278,987	22,54
279,248	22,11
279,508	26,29
279,768	28,18
280,029	29,39
280,289	25,71
280,549	24,28
280,81	23,81
281,07	21,98
281,33	23,99
281,59	22,14
281,851	22,81
282,111	21,97
282,371	21,67
282,631	22,03
282,891	18,77
283,151	17,13
283,412	15,22
283,672	15,5
283,932	16,22
284,192	16,95
284,452	15,72
284,712	13,68
284,972	12,36
285,232	8,41
285,492	11,42
285,752	7,97
286,012	14,32
286,272	15,2
286,532	11,74
286,792	11,62
287,052	14,51
287,312	14,77
287,571	11,42
287,831	12,94
288,091	9,78
288,351	12,1
288,611	15,9
288,871	14,92
289,13	15,25
289,39	11,19
289,65	12,97
289,91	11,78
290,17	13,68
290,429	16,1
290,689	14,08
290,949	11,7
291,208	13,35
291,468	16,47
291,728	17,05
291,987	17,92
292,247	16,84
292,506	19,9
292,766	22,89
293,026	22,12
293,285	24,12
293,545	24,85
293,804	24,72
294,064	20,14
294,323	18,05
294,583	19,22
294,842	18,88
295,102	19,19
295,361	18,86
295,621	20,65
295,88	19,96
296,139	19,99
296,399	18,77
296,658	14,49
296,917	14,65
297,177	12,4
297,436	14,7
297,695	13,17
297,955	14,71
298,214	13,49
298,473	14,13
298,732	17,3
298,992	19,74
299,251	19,49
299,51	15,98
299,769	16,9
300,028	17,53
300,287	17,45
300,547	15,6
300,806	14
301,065	17,11
301,324	18,69
301,583	16,56
301,842	12,94
302,101	10,25
302,36	12,34
302,619	12,79
302,878	13,88
303,137	11,36
303,396	12,62
303,655	13,4
303,914	10,65
304,173	11,76
304,432	14,11
304,691	17,39
304,95	16,04
305,208	21,28
305,467	20,35
305,726	18,6
305,985	19,96
306,244	21,8
306,503	22,22
306,761	19,8
307,02	17,59
307,279	17,48
307,537	17,83
307,796	15,48
308,055	12,07
308,314	13,15
308,572	11,33
308,831	11,44
309,09	12,37
309,348	13,59
309,607	12,05
309,865	16,47
310,124	17,96
310,382	18,28
310,641	19,22
310,9	15,7
311,158	17,15
311,417	17,2
311,675	18,32
311,933	19,53
312,192	21,14
312,45	20,52
312,709	19,87
312,967	19,25
313,226	17,94
313,484	18,75
313,742	19,17
314,001	16,32
314,259	13,43
314,517	14,35
314,776	17,41
315,034	20,16
315,292	17,83
315,55	16,17
315,809	14,69
316,067	15,96
316,325	13,97
316,583	15,76
316,841	15,09
317,1	11,17
317,358	7,25
317,616	7,22
317,874	5,97
318,132	5,22
318,39	6,77
318,648	4,65
318,906	5,66
319,164	3,99
319,422	2,64
319,68	-0,02
319,938	0,93
320,196	0,5
320,454	0,83
320,712	0,33
320,97	-0,27
321,228	-1,24
321,486	0,09
321,744	1,03
322,002	3,55
322,26	2,41
322,517	0,98
322,775	-2,6
323,033	-4,71
323,291	-1,34
323,549	0,37
323,806	2,51
324,064	2,15
324,322	3,97
324,58	2,75
324,837	4,51
325,095	3,39
325,353	4,37
325,61	7,59
325,868	6,51
326,126	8,16
326,383	5,46
326,641	4,25
326,898	5,78
327,156	6,01
327,413	7,93
327,671	8,87
327,928	10,62
328,186	10,3
328,443	8,76
328,701	11,71
328,958	11,48
329,216	11,42
329,473	8,73
329,731	9,48
329,988	9,78
330,245	13,68
330,503	14,79
330,76	14,92
331,017	17,28
331,275	14,57
331,532	14,97
331,789	12,8
332,047	12,94
332,304	8,93
332,561	8,76
332,818	8,12
333,076	11,39
333,333	14,18
333,59	13,87
333,847	16,19
334,104	14,12
334,361	12,83
334,618	12,41
334,876	10,1
335,133	10,35
335,39	8,16
335,647	10,81
335,904	6,62
336,161	4,2
336,418	5,51
336,675	2,56
336,932	4,94
337,189	3,24
337,446	5,61
337,703	3,1
337,96	-2,96
338,216	-3,9
338,473	-6,86
338,73	-6,52
338,987	-5,92
339,244	-2,08
339,501	-4,12
339,757	-1,91
340,014	0,02
340,271	3,26
340,528	4,56
340,785	8,32
341,041	9,39
341,298	5,32
341,555	3,96
341,811	3,67
342,068	0,72
342,325	1,39
342,581	4,77
342,838	7,46
343,094	7,69
343,351	8,18
343,608	4,39
343,864	6,26
344,121	8,1
344,377	7,58
344,634	6,2
344,89	4,91
345,147	5,2
345,403	3,28
345,66	5,3
345,916	8,89
346,172	8,12
346,429	7,82
346,685	6,86
346,942	6,62
347,198	2,5
347,454	4,41
347,711	4,39
347,967	0,44
348,223	-0,29
348,48	-0,58
348,736	2,79
348,992	1,23
349,248	4,38
349,504	3,65
349,761	3,61
350,017	5,43
350,273	5,17
350,529	4,12
350,785	2,51
351,041	1,74
351,297	2,33
351,554	1,72
351,81	0,29
352,066	-0,33
352,322	-1,54
352,578	0,1
352,834	-0,5
353,09	-0,41
353,346	-0,44
353,602	-2,56
353,858	-2,67
354,114	-3,81
354,369	-2,78
354,625	0,46
354,881	-1,54
355,137	0,81
355,393	1,2
355,649	1,57
355,905	2,96
356,16	3,54
356,416	5,36
356,672	-2,36
356,928	-3,12
357,183	-3,55
357,439	-2,94
357,695	-5,19
357,951	0,32
358,206	0,98
358,462	1,44
358,718	1,47
358,973	2,62
359,229	3,6
359,484	4,03
359,74	7,13
359,996	7,63
360,251	11,55
360,507	12
360,762	12,88
361,018	15,72
361,273	15,29
361,529	18,42
361,784	19,11
362,04	22,71
362,295	23,34
362,55	23,84
362,806	27,54
363,061	27,98
363,316	28,61
363,572	28,65
363,827	30,4
364,082	28,83
364,338	27,95
364,593	28
364,848	29,77
365,104	27,67
365,359	30,87
365,614	31,16
365,869	27,35
366,124	26,51
366,38	24,71
366,635	25,5
366,89	27,65
367,145	27,43
367,4	30,71
367,655	31,21
367,91	31,67
368,165	29,55
368,42	25,69
368,675	26,61
368,93	25,91
369,185	22,67
369,44	21,43
369,695	22,39
369,95	18,67
370,205	16,75
370,46	14,06
370,715	11,52
370,97	11,69
371,225	11,03
371,48	11,82
371,734	12,43
371,989	12,85
372,244	12,12
372,499	13,63
372,754	12,58
373,008	10,14
373,263	4,16
373,518	7,98
373,773	5,84
374,027	4,85
374,282	7,64
374,537	8,21
374,791	9,45
375,046	6,97
375,301	5,1
375,555	2,49
375,81	4,16
376,064	4,8
376,319	8,51
376,573	7,28
376,828	3,33
377,082	8,63
377,337	5,68
377,591	2,98
377,846	5,54
378,1	9,1
378,355	10,27
378,609	9,54
378,863	7,5
379,118	9,83
379,372	8,6
379,627	5,24
379,881	2,67
380,135	2,4
380,389	2,53
380,644	2,14
380,898	4,29
381,152	6,53
381,407	5,43
381,661	8,23
381,915	10,34
382,169	8,97
382,423	8,12
382,677	4,29
382,932	6,05
383,186	6,94
383,44	8,34
383,694	10,02
383,948	7,73
384,202	5,1
384,456	7,89
384,71	10,4
384,964	9,24
385,218	11,45
385,472	11,12
385,726	8,4
385,98	8,95
386,234	7,37
386,488	4,47
386,742	4,02
386,996	0,83
387,249	1,38
387,503	5,62
387,757	8,72
388,011	10,71
388,265	11,05
388,518	12,26
388,772	14,49
389,026	15,98
389,28	13,34
389,533	11,86
389,787	14,98
390,041	13,72
390,295	13,65
390,548	12,69
390,802	15,72
391,055	14,3
391,309	12,82
391,563	9,76
391,816	11,4
392,07	11,42
392,323	11,61
392,577	11,97
392,83	12,12
393,084	18,15
393,337	23,28
393,591	24,04
393,844	22,06
394,098	27,05
394,351	31,84
394,604	34,75
394,858	36,53
395,111	36,47
395,364	33,81
395,618	34,53
395,871	32,38
396,124	31,97
396,378	30,73
396,631	30,68
396,884	27,51
397,137	27,4
397,391	29,08
397,644	24,85
397,897	25,49
398,15	26,88
398,403	30,01
398,657	28,22
398,91	28,2
399,163	29,37
399,416	28,81
399,669	26,92
399,922	27,98
400,175	30,04
400,428	40,17
400,681	54,77
400,934	67,26
401,187	83,92
401,44	101,46
401,693	113,78
401,946	118,69
402,199	119,21
402,452	121,87
402,704	119,8
402,957	120,59
403,21	123,7
403,463	123,77
403,716	124,87
403,969	127,58
404,221	129,47
404,474	131,47
404,727	137,31
404,98	141,23
405,232	141,74
405,485	143,66
405,738	146,4
405,99	146,28
406,243	146,48
406,496	148,24
406,748	147,87
407,001	146,54
407,253	147,1
407,506	146,6
407,759	146,01
408,011	140,29
408,264	130,95
408,516	117,53
408,769	98,64
409,021	81,57
409,274	64,22
409,526	53,51
409,778	45,17
410,031	44,01
410,283	39,62
410,536	43,48
410,788	40,34
411,04	38,12
411,293	39,41
411,545	39,13
411,797	35,76
412,049	33,39
412,302	32,77
412,554	31,97
412,806	29
413,058	27
413,311	27,66
413,563	25,89
413,815	25,06
414,067	22,53
414,319	20,94
414,571	22,16
414,823	20,55
415,075	20,38
415,328	21,62
415,58	25,25
415,832	26,62
416,084	26,58
416,336	24,45
416,588	28,23
416,84	25,14
417,091	28,3
417,343	24,1
417,595	24,51
417,847	25,19
418,099	26,94
418,351	25,93
418,603	29,06
418,855	29,25
419,106	28,41
419,358	28,84
419,61	29,37
419,862	31,49
420,114	29,49
420,365	28,27
420,617	28,42
420,869	27,18
421,12	26,25
421,372	27,24
421,624	27,15
421,875	27,64
422,127	24,89
422,379	25,74
422,63	28,4
422,882	27,48
423,133	27,4
423,385	26,51
423,636	27,57
423,888	30,41
424,139	33,31
424,391	30,05
424,642	29,04
424,894	26,53
425,145	27,37
425,396	25,1
425,648	27,28
425,899	25,56
426,151	25,69
426,402	23,81
426,653	24,93
426,905	23,67
427,156	20,52
427,407	20,45
427,658	18,89
427,91	17,25
428,161	16,3
428,412	17,75
428,663	18,61
428,914	20,2
429,166	22,02
429,417	22,36
429,668	21,6
429,919	20,13
430,17	17,93
430,421	19,22
430,672	23,18
430,923	25,6
431,174	28,56
431,425	45,26
431,676	73,69
431,927	109,72
432,178	158,92
432,429	209,44
432,68	253,96
432,931	289,53
433,182	316,35
433,433	331,52
433,683	345,59
433,934	351,71
434,185	353,91
434,436	352,76
434,687	354,72
434,937	359,6
435,188	358,42
435,439	358,84
435,69	360,74
435,94	360,02
436,191	360,97
436,442	361,72
436,692	359,51
436,943	355,51
437,194	354,39
437,444	357,14
437,695	361,86
437,945	362,9
438,196	359,54
438,447	357,01
438,697	355,58
438,948	349,4
439,198	329,04
439,449	294,28
439,699	254,86
439,949	206,15
440,2	155,66
440,45	112,75
440,701	78,77
440,951	53,54
441,201	35,21
441,452	21,54
441,702	13,57
441,952	12,34
442,203	11,91
442,453	9,56
442,703	6,83
442,953	7,35
443,204	8,29
443,454	4,44
443,704	4,03
443,954	-0
444,204	-0,44
444,455	-0,2
444,705	0,54
444,955	0,09
445,205	-1,56
445,455	-5,02
445,705	-4,22
445,955	-3,33
446,205	-4,59
446,455	-5,41
446,705	-3,38
446,955	-2,13
447,205	0,53
447,455	2,57
447,705	1,28
447,955	-0,59
448,205	-1,12
448,454	-0,8
448,704	1,18
448,954	0,05
449,204	0,5
449,454	1,53
449,704	-1,14
449,953	-1,29
450,203	0,18
450,453	-2,16
450,703	0,79
450,952	-1,31
451,202	1,62
451,452	1,2
451,701	5,02
451,951	8,07
452,201	7,84
452,45	7,24
452,7	8,61
452,949	9,32
453,199	8,7
453,448	9,38
453,698	10,59
453,947	10,61
454,197	10,36
454,446	8,41
454,696	11,85
454,945	10,87
455,195	8,56
455,444	10,43
455,693	15,67
455,943	13,76
456,192	13,03
456,442	12,94
456,691	12,74
456,94	11,59
457,189	10,16
457,439	13,03
457,688	14,79
457,937	14,48
458,186	16,45
458,436	14,43
458,685	15,24
458,934	14,08
459,183	14,53
459,432	16,64
459,681	16,76
459,93	14,95
460,179	15,78
460,429	13,57
460,678	14,78
460,927	18,75
461,176	17,79
461,425	16,82
461,674	19,75
461,923	19,77
462,172	18,53
462,42	16,65
462,669	20,34
462,918	21,66
463,167	20,76
463,416	17,4
463,665	18,44
463,914	20
464,162	17,96
464,411	19,42
464,66	21,83
464,909	20,61
465,158	21,17
465,406	19,72
465,655	21,04
465,904	22,72
466,152	23,64
466,401	24,24
466,65	26,15
466,898	24,45
467,147	19,43
467,395	17,82
467,644	21,08
467,893	20,23
468,141	20,31
468,39	18,33
468,638	16,17
468,887	13,33
469,135	13,8
469,384	13,54
469,632	13,95
469,88	15,3
470,129	15,78
470,377	12,25
470,626	15,29
470,874	17,24
471,122	18,58
471,371	16,28
471,619	14,03
471,867	16,18
472,115	15,24
472,364	12,85
472,612	16,08
472,86	13,89
473,108	14,44
473,356	14,72
473,605	14,46
473,853	11,73
474,101	11,71
474,349	11,05
474,597	15,09
474,845	14,69
475,093	14,74
475,341	13,12
475,589	13,26
475,837	14,93
476,085	17,3
476,333	16,39
476,581	19,7
476,829	18,44
477,077	20,14
477,325	21,29
477,573	23,33
477,821	24,01
478,069	25,06
478,317	24,81
478,564	29,44
478,812	28,78
479,06	31,25
479,308	32,91
479,555	36,18
479,803	38,03
480,051	42,98
480,299	46,42
480,546	51,03
480,794	53,49
481,042	58,16
481,289	62,83
481,537	72,15
481,784	78,19
482,032	89,37
482,28	96,12
482,527	103,95
482,775	114,04
483,022	124,57
483,27	135,61
483,517	149,95
483,765	158,07
484,012	167,43
484,259	173,87
484,507	186,11
484,754	195,39
485,002	203,14
485,249	210,32
485,496	220
485,744	227,54
485,991	233,2
486,238	236,93
486,486	247,73
486,733	253,93
486,98	261,62
487,227	264,27
487,474	271,27
487,722	278,22
487,969	278,81
488,216	282,04
488,463	284,43
488,71	284,23
488,957	283,67
489,204	281,4
489,451	280,51
489,699	276,46
489,946	271,3
490,193	268,46
490,44	262,73
490,687	258,35
490,934	251,87
491,18	241,64
491,427	236,99
491,674	234,29
491,921	230,04
492,168	223,48
492,415	215,09
492,662	213,34
492,909	209,71
493,155	203,62
493,402	196,45
493,649	189,58
493,896	185,63
494,142	176,52
494,389	172,14
494,636	166,28
494,883	159,91
495,129	153,29
495,376	145,56
495,623	141,85
495,869	140,17
496,116	137,06
496,362	134,6
496,609	133,33
496,855	134,89
497,102	131,18
497,348	125,46
497,595	122,94
497,841	123,72
498,088	118,46
498,334	113,11
498,581	108
498,827	104,51
499,074	102,32
499,32	99,39
499,566	100,06
499,813	97,37
500,059	91,79
500,305	87,12
500,552	83,23
500,798	79,96
501,044	82,19
501,29	79,08
501,537	73,03
501,783	72,56
502,029	72,99
502,275	67,64
502,521	64,9
502,767	62,42
503,013	61,93
503,26	57,9
503,506	51,47
503,752	51,63
503,998	47,16
504,244	45,29
504,49	39,69
504,736	38,86
504,982	38,05
505,228	38,41
505,474	35,99
505,72	35,28
505,966	35,32
506,211	37,09
506,457	35,91
506,703	30,88
506,949	27,43
507,195	24,36
507,441	19,91
507,686	23,98
507,932	22,07
508,178	23,47
508,424	20,3
508,669	16,51
508,915	17,2
509,161	19,22
509,406	19,79
509,652	18,15
509,898	20,65
510,143	20,94
510,389	20,18
510,634	15,1
510,88	19,1
511,125	20,29
511,371	19,36
511,616	20,54
511,862	17,56
512,107	16,03
512,353	16,38
512,598	15,85
512,844	13,16
513,089	10,9
513,335	12,38
513,58	11,45
513,825	11,37
514,071	10,59
514,316	10,95
514,561	12,23
514,806	11,27
515,052	13,65
515,297	10,82
515,542	11,79
515,787	12,24
516,033	14,28
516,278	15,17
516,523	12,53
516,768	11,65
517,013	8,77
517,258	7,39
517,503	7,17
517,748	7
517,993	6,96
518,238	9,26
518,483	6,82
518,728	5,62
518,973	3,07
519,218	2,1
519,463	2,96
519,708	1,47
519,953	-0,52
520,198	0,16
520,443	1,88
520,688	5,44
520,933	5,59
521,177	4,68
521,422	3,37
521,667	5,51
521,912	6,14
522,157	3,03
522,401	6,16
522,646	6,38
522,891	6,63
523,135	6,97
523,38	6,83
523,625	6,11
523,869	7,51
524,114	9,93
524,358	7,77
524,603	8,86
524,848	6,62
525,092	5,71
525,337	7,08
525,581	8,51
525,826	9,14
526,07	9,47
526,315	11,5
526,559	11,22
526,803	9,95
527,048	12,59
527,292	13,48
527,537	13,6
527,781	11,67
528,025	9,47
528,269	8,98
528,514	9,55
528,758	10,05
529,002	10
529,247	14,1
529,491	14,26
529,735	21,01
529,979	21,51
530,223	23,73
530,467	23,04
530,712	23,18
530,956	22,89
531,2	25,31
531,444	25,06
531,688	28,24
531,932	31,41
532,176	32,92
532,42	37,17
532,664	39,88
532,908	40,34
533,152	41,39
533,396	44,87
533,64	47,57
533,884	49,68
534,128	54,7
534,371	62
534,615	70,94
534,859	77,1
535,103	85,03
535,347	94,37
535,59	105,28
535,834	113,83
536,078	127,83
536,322	141,77
536,565	161,04
536,809	179,15
537,053	205,21
537,296	229,67
537,54	262,66
537,784	301,81
538,027	348,54
538,271	394,93
538,514	444,53
538,758	494,25
539,001	540,59
539,245	587,77
539,488	633,28
539,732	680,72
539,975	723,9
540,219	768,91
540,462	810,46
540,706	852,14
540,949	889,61
541,192	930,13
541,436	974,7
541,679	1024,59
541,922	1082,51
542,166	1144,43
542,409	1218,98
542,652	1299,36
542,895	1379,12
543,139	1450,77
543,382	1512,32
543,625	1561,56
543,868	1607,02
544,111	1642,3
544,354	1666,29
544,598	1681,13
544,841	1691,63
545,084	1688,02
545,327	1675,45
545,57	1655,95
545,813	1634,53
546,056	1604,81
546,299	1574,82
546,542	1548,95
546,785	1521,9
547,028	1493,79
547,271	1461,63
547,514	1431,1
547,756	1397,48
547,999	1369,35
548,242	1339,93
548,485	1308,43
548,728	1276,53
548,971	1237,69
549,213	1197,17
549,456	1142,12
549,699	1077,22
549,942	1004,01
550,184	922,12
550,427	841,14
550,67	767,18
550,912	699,36
551,155	641,73
551,398	586,63
551,64	536,57
551,883	494,73
552,125	456,76
552,368	421,28
552,61	389,59
552,853	365,44
553,095	341,29
553,338	318,05
553,58	299,22
553,823	278,19
554,065	261,59
554,308	240,41
554,55	220,14
554,792	204,34
555,035	189,93
555,277	176,57
555,519	163,45
555,762	149,54
556,004	139,3
556,246	126,72
556,488	120,28
556,731	108,12
556,973	101,47
557,215	92,35
557,457	86,67
557,699	84,36
557,941	75,89
558,183	70,14
558,426	67,09
558,668	60,07
558,91	58,3
559,152	56,06
559,394	51,71
559,636	51,14
559,878	49,69
560,12	47,91
560,362	46,6
560,604	43,91
560,845	41,39
561,087	37,63
561,329	38,38
561,571	33,47
561,813	32,49
562,055	30,87
562,297	30,5
562,538	29,84
562,78	31,91
563,022	28,13
563,264	29,38
563,505	29,93
563,747	29,87
563,989	25,77
564,23	25,57
564,472	24,43
564,714	27,41
564,955	26,4
565,197	21,96
565,438	24,01
565,68	26,46
565,921	24,5
566,163	25,73
566,404	22,91
566,646	24,81
566,887	26,57
567,129	25,96
567,37	22,95
567,612	24,12
567,853	20,63
568,094	21,16
568,336	20,28
568,577	22
568,818	21,69
569,06	18,99
569,301	15,67
569,542	16,1
569,783	16,53
570,025	15,99
570,266	16,55
570,507	18,8
570,748	17,57
570,989	17,42
571,23	19,39
571,472	19,44
571,713	17,56
571,954	18,37
572,195	16,43
572,436	19,86
572,677	24,31
572,918	30,64
573,159	34,75
573,4	41,66
573,641	49,87
573,882	60
574,123	64,37
574,364	66,51
574,604	73,62
574,845	81,1
575,086	89,82
575,327	101,99
575,568	112,71
575,809	124,22
576,049	133,22
576,29	141,19
576,531	156,07
576,771	169,3
577,012	182,64
577,253	192,37
577,494	201,69
577,734	208,63
577,975	216,18
578,215	223,91
578,456	229,32
578,697	236,53
578,937	246,86
579,178	254,35
579,418	259,99
579,659	268,01
579,899	272,2
580,14	278,44
580,38	280,43
580,62	282,89
580,861	288,24
581,101	288,63
581,342	287,27
581,582	283,5
581,822	287,35
582,063	287,98
582,303	288,37
582,543	287,2
582,783	286,81
583,024	286,69
583,264	288,08
583,504	287,09
583,744	292,06
583,984	295,42
584,224	298,93
584,465	300,31
584,705	303,81
584,945	307,5
585,185	310,13
585,425	313,27
585,665	314,44
585,905	314,8
586,145	314,82
586,385	312,17
586,625	312,56
586,865	310,77
587,105	307,4
587,345	306,13
587,585	302,27
587,824	298,46
588,064	295,3
588,304	288,86
588,544	286,63
588,784	284,07
589,024	288,9
589,263	291,22
589,503	293,22
589,743	300,81
589,982	304,08
590,222	306,44
590,462	305,44
590,701	302,82
590,941	303,46
591,181	297,67
591,42	290,16
591,66	286,62
591,899	283,2
592,139	275,07
592,378	268,67
592,618	261,02
592,857	255,76
593,097	253,62
593,336	250,67
593,576	246,2
593,815	244,64
594,055	242,46
594,294	240,88
594,533	239,41
594,773	237,32
595,012	239,72
595,251	241,84
595,491	244,62
595,73	248,47
595,969	249,3
596,208	252,34
596,447	256,06
596,687	255,1
596,926	252,37
597,165	243,77
597,404	240,37
597,643	233,87
597,882	228,37
598,121	224,53
598,36	220,97
598,599	217,86
598,838	214,6
599,077	207,55
599,316	204,65
599,555	201,37
599,794	200,31
600,033	201,69
600,272	201,11
600,511	196,2
600,75	196,2
600,989	196,62
601,228	194,84
601,466	194,08
601,705	194,24
601,944	194,19
602,183	194,79
602,422	191,33
602,66	187,59
602,899	184,8
603,138	181,27
603,376	177,5
603,615	173,16
603,854	167,42
604,092	162,72
604,331	162,43
604,569	163,01
604,808	162,73
605,047	164,71
605,285	168,2
605,524	172,06
605,762	178,21
606	190,23
606,239	204,19
606,477	222,83
606,716	245,23
606,954	281,03
607,193	329,47
607,431	392,62
607,669	474,71
607,908	572,16
608,146	678,06
608,384	781,88
608,622	883,09
608,861	974,88
609,099	1058,78
609,337	1136,48
609,575	1206,54
609,813	1271,33
610,052	1329,38
610,29	1375,49
610,528	1419,06
610,766	1458,92
611,004	1497,04
611,242	1527,88
611,48	1559,98
611,718	1583,46
611,956	1607,56
612,194	1626,5
612,432	1643,37
612,67	1655,78
612,908	1669,62
613,146	1672,93
613,384	1673,46
613,621	1667,54
613,859	1660,44
614,097	1641,8
614,335	1613,46
614,573	1569,89
614,811	1511,02
615,048	1431,49
615,286	1338,98
615,524	1237,81
615,761	1134,82
615,999	1038,81
616,237	949,35
616,474	868,78
616,712	795,63
616,95	726,25
617,187	663,81
617,425	609,99
617,662	563,35
617,9	518,65
618,137	478,56
618,375	441,18
618,612	408,05
618,85	380,24
619,087	357,08
619,325	333,68
619,562	313,16
619,799	293,44
620,037	278,91
620,274	263,43
620,511	255,1
620,749	243,41
620,986	237,05
621,223	229,3
621,461	225,17
621,698	224,15
621,935	221,64
622,172	218,49
622,409	220,99
622,647	221,86
622,884	220,19
623,121	223,98
623,358	222,64
623,595	224,5
623,832	227,57
624,069	225,38
624,306	228,02
624,543	230,6
624,78	232,95
625,017	233,74
625,254	237,27
625,491	240,76
625,728	243,85
625,965	245,32
626,202	244,87
626,438	245,19
626,675	246,59
626,912	251,36
627,149	257,35
627,386	262,58
627,622	267,12
627,859	273,08
628,096	277,72
628,333	281,98
628,569	284,77
628,806	290,47
629,043	291,08
629,279	292,18
629,516	292,71
629,752	285,01
629,989	282,19
630,225	278,13
630,462	274,8
630,699	271,07
630,935	266,35
631,171	256,89
631,408	252,25
631,644	244,76
631,881	236,54
632,117	227,53
632,354	222,37
632,59	216,47
632,826	209,96
633,063	204,55
633,299	200,22
633,535	191,34
633,771	183,42
634,008	178,33
634,244	169,82
634,48	157,8
634,716	147,29
634,953	134,43
635,189	121,64
635,425	113,88
635,661	105,77
635,897	95,14
636,133	84,78
636,369	77,33
636,605	67,51
636,841	62,3
637,077	61,38
637,313	57,83
637,549	55,72
637,785	51,3
638,021	49,66
638,257	45,97
638,493	47,86
638,729	45,96
638,965	49,04
639,2	49,55
639,436	49,15
639,672	49,33
639,908	45,18
640,144	48,61
640,379	49,22
640,615	47,01
640,851	49,16
641,086	52,34
641,322	49,92
641,558	49,73
641,793	51,44
642,029	49,95
642,264	48,49
642,5	49,06
642,736	45,13
642,971	46,31
643,207	46,48
643,442	44,53
643,678	42,56
643,913	42,19
644,148	39,29
644,384	42,8
644,619	43,7
644,855	46,03
645,09	46,75
645,325	45,35
645,561	46,43
645,796	44,44
646,031	48,55
646,266	46,25
646,502	46,78
646,737	50,91
646,972	52,52
647,207	56,13
647,442	55,97
647,678	55,46
647,913	60,83
648,148	64,3
648,383	62,84
648,618	64,64
648,853	66,52
649,088	68,92
649,323	72,74
649,558	75,86
649,793	77,76
650,028	79,42
650,263	76,27
650,498	79,16
650,733	80,78
650,968	79,97
651,202	85,1
651,437	84,99
651,672	81,5
651,907	81,23
652,142	81,24
652,376	81,55
652,611	83,85
652,846	84,63
653,081	84,28
653,315	82,53
653,55	81,67
653,785	79,96
654,019	79,22
654,254	74,66
654,488	74,22
654,723	67,59
654,958	64,22
655,192	61,14
655,427	55,03
655,661	55,09
655,896	55,43
656,13	55,86
656,364	51,08
656,599	46,25
656,833	47,44
657,068	48,63
657,302	47,95
657,536	45,93
657,771	46,09
658,005	44,22
658,239	47,17
658,474	43,05
658,708	43,2
658,942	42,81
659,176	40,44
659,41	37,96
659,645	38,23
659,879	37,65
660,113	35,52
660,347	34,64
660,581	31,82
660,815	32,01
661,049	31,37
661,283	28,66
661,517	27,79
661,751	27,91
661,985	27,77
662,219	29,11
662,453	25,98
662,687	27,54
662,921	23,96
663,155	22,97
663,389	15,39
663,622	14,54
663,856	18,53
664,09	15,01
664,324	13,02
664,558	13,68
664,791	13,48
665,025	12,72
665,259	13,96
665,492	11,33
665,726	14,21
665,96	14,96
666,193	11,64
666,427	11,87
666,661	9,92
666,894	7,83
667,128	6,89
667,361	8,75
667,595	7,55
667,828	7,51
668,062	5,62
668,295	5,09
668,529	4,64
668,762	4,97
668,995	2,67
669,229	6,75
669,462	6,77
669,695	8,14
669,929	7,31
670,162	7,18
670,395	4,99
670,629	7,69
670,862	9,64
671,095	4,37
671,328	4,5
671,561	1,57
671,795	2,57
672,028	4,45
672,261	5,41
672,494	6,54
672,727	5,92
672,96	6,55
673,193	5,82
673,426	11,33
673,659	11,5
673,892	12,24
674,125	11,63
674,358	10,33
674,591	9,83
674,824	10,44
675,057	9,67
675,29	9,72
675,523	11,65
675,755	10,66
675,988	12,59
676,221	15,58
676,454	13,26
676,687	14,56
676,919	13,66
677,152	12,77
677,385	13,72
677,617	15,33
677,85	16,36
678,083	15,69
678,315	19,64
678,548	19,75
678,78	18,7
679,013	17,94
679,246	17,87
679,478	19,04
679,711	16,46
679,943	19,09
680,175	16,29
680,408	20,39
680,64	16,26
680,873	17,23
681,105	19,42
681,338	24,07
681,57	23,06
681,802	22,74
682,034	22,67
682,267	26,85
682,499	29,01
682,731	27,67
682,964	28,41
683,196	26,86
683,428	25,56
683,66	26,16
683,892	30,48
684,124	34,08
684,356	38,91
684,589	40,28
684,821	38,75
685,053	39,85
685,285	40,34
685,517	42,24
685,749	42,86
685,981	45,81
686,213	46,46
686,445	47,5
686,676	43,25
686,908	44,01
687,14	42,82
687,372	44,14
687,604	40,05
687,836	41,75
688,068	41,41
688,299	39,71
688,531	36,01
688,763	41,87
688,995	41,07
689,226	44,75
689,458	42,58
689,69	40,19
689,921	38,8
690,153	36,58
690,384	39,25
690,616	37,77
690,848	38,47
691,079	32,81
691,311	29,34
691,542	26,63
691,774	23,71
692,005	27,29
692,237	28,39
692,468	26,68
692,699	24,8
692,931	24,2
693,162	21,01
693,393	19,39
693,625	17,23
693,856	17,48
694,087	18,33
694,319	18,24
694,55	18,08
694,781	18,47
695,012	17,4
695,243	16,34
695,475	15,67
695,706	15,35
695,937	14,24
696,168	13,34
696,399	10,76
696,63	10,02
696,861	10,41
697,092	14,67
697,323	18,11
697,554	16,99
697,785	17,61
698,016	17,29
698,247	16,03
698,478	17,72
698,709	18,47
698,94	20,14
699,171	18,31
699,401	14,36
699,632	17,01
699,863	14,26
700,094	14,44
700,325	18,56
700,555	20,69
700,786	22,69
701,017	24,72
701,247	23,22
701,478	24,87
701,709	25,2
701,939	23,86
702,17	26,72
702,401	31,4
702,631	32,52
702,862	33,16
703,092	30,7
703,323	35,54
703,553	39,56
703,784	41,77
704,014	44,61
704,244	43,4
704,475	45,83
704,705	48,26
704,936	51,28
705,166	53,17
705,396	58,98
705,627	61,52
705,857	64,03
706,087	68,78
706,317	69,82
706,548	71,47
706,778	71,33
707,008	74,03
707,238	76,64
707,468	75,1
707,698	73,15
707,928	73,15
708,158	72,39
708,389	73,65
708,619	72,94
708,849	73,33
709,079	77,84
709,309	76,85
709,539	73,94
709,768	75,63
709,998	78,68
710,228	79,47
710,458	78,11
710,688	73,06
710,918	72,28
711,148	69,72
711,378	68,43
711,607	65,85
711,837	65,77
712,067	63,13
712,297	61,38
712,526	57,34
712,756	55,62
712,986	50,02
713,215	44,92
713,445	41,64
713,674	40,23
713,904	39,32
714,134	40,47
714,363	36,51
714,593	33,81
714,822	32,88
715,052	30,78
715,281	31,04
715,511	29,19
715,74	27,21
715,969	24,8
716,199	21,57
716,428	21,12
716,657	19,12
716,887	19,56
717,116	14,46
717,345	14,49
717,575	12,68
717,804	13,35
718,033	11,47
718,262	10,02
718,492	7,9
718,721	7,84
718,95	4,49
719,179	2,21
719,408	1,78
719,637	-1,17
719,866	-3,38
720,095	-0,26
720,324	-1,32
720,553	-4,23
720,782	-5,1
721,011	-5,08
721,24	-7,83
721,469	-8,03
721,698	-7,26
721,927	-6,89
722,156	-7,98
722,385	-9,99
722,613	-7,35
722,842	-6,31
723,071	-3
723,3	-3,59
723,529	-4,57
723,757	-3,99
723,986	-7,84
724,215	-9,04
724,443	-7,97
724,672	-5,79
724,901	-4,89
725,129	-3,28
725,358	0,45
725,586	-1,01
725,815	-1,29
726,043	-1,24
726,272	-2,33
726,5	-2,14
726,729	-0,87
726,957	-3,97
727,186	-6,48
727,414	-6,19
727,642	-3,45
727,871	-1,62
728,099	-2,06
728,327	-3,41
728,556	-0,11
728,784	1,58
729,012	0,36
729,241	2,89
729,469	3,27
729,697	1,03
729,925	0,92
730,153	-0,95
730,381	0,05
730,61	-1,37
730,838	-4,32
731,066	-2,78
731,294	-1,28
731,522	-5,37
731,75	-9,72
731,978	-10,92
732,206	-11,86
732,434	-13,42
732,662	-10,34
732,89	-13,85
733,118	-15,35
733,346	-15,25
733,573	-15,35
733,801	-14,89
734,029	-6,57
734,257	-6,82
734,485	-1,87
734,712	-0,89
734,94	-3,01
735,168	-0,15
735,396	1,66
735,623	-0,5
735,851	0,48
736,078	1,27
736,306	2,9
736,534	2,14
736,761	3,02
736,989	0,88
737,216	-0,1
737,444	-2,57
737,671	-0,33
737,899	5,66
738,126	3,56
738,354	4,32
738,581	6,44
738,809	8,75
739,036	7,05
739,263	7,22
739,491	4,2
739,718	3,1
739,945	9,04
740,173	12,02
740,4	13,71
740,627	12,04
740,854	12,16
741,081	7,25
741,309	8,1
741,536	2,91
741,763	1,48
741,99	2,4
742,217	2,38
742,444	2,38
742,671	4,04
742,898	3
743,125	1,02
743,352	-3,68
743,579	-3
743,806	-3,51
744,033	0,6
744,26	1,32
744,487	2,38
744,714	1,35
744,941	-0,15
745,167	4,63
745,394	3,76
745,621	1,87
745,848	1,21
746,075	3,02
746,301	6,09
746,528	12,63
746,755	11,34
746,981	9,44
747,208	10,94
747,435	11,87
747,661	12,82
747,888	13,41
748,114	11,72
748,341	12,31
748,567	14,37
748,794	13,26
749,02	11,77
749,247	8,08
749,473	7,76
749,7	6,61
749,926	6,88
750,152	11,33
750,379	13,25
750,605	13,35
750,831	12,47
751,058	9,4
751,284	6,98
751,51	8,97
751,737	11,1
751,963	8,28
752,189	6,44
752,415	5,6
752,641	5,67
752,867	5,68
753,094	4,42
753,32	2,91
753,546	-0,78
753,772	2,22
753,998	1,2
754,224	-0,25
754,45	-0,27
754,676	-1,58
754,902	-1,7
755,128	-1,44
755,354	-1,32
755,579	-0,2
755,805	2,05
756,031	1,86
756,257	2,14
756,483	0,33
756,709	-1,13
756,934	-2,21
757,16	-4,98
757,386	-5,93
757,612	-7,84
757,837	-9,79
758,063	-6,58
758,289	-2,33
758,514	-4,45
758,74	-8,07
758,965	-8,63
759,191	-7,46
759,416	-5,73
759,642	-4,03
759,868	-3,51
760,093	-0,24
760,318	-1,01
760,544	-1,36
760,769	-2,69
760,995	-2,43
761,22	-1,84
761,445	-0,27
761,671	2,31
761,896	4,37
762,121	5,33
762,347	4,07
762,572	0,52
762,797	-0,58
763,022	-0,43
763,248	3,9
763,473	4,75
763,698	5,44
763,923	6,85
764,148	6,38
764,373	6,85
764,598	8,81
764,823	13,66
765,048	9,74
765,273	5,53
765,498	6,02
765,723	6,55
765,948	7,85
766,173	7
766,398	7,38
766,623	6,08
766,848	4,97
767,073	3,2
767,298	3,1
767,522	2,72
767,747	3,33
767,972	2,56
768,197	3
768,421	1,6
768,646	-1,5
768,871	-4,68
769,095	-3,71
769,32	-1,15
769,545	-1,95
769,769	0,31
769,994	1,36
770,218	-2,08
770,443	-0,51
770,667	0,11
770,892	0,67
771,116	0,58
771,341	2,82
771,565	2,55
771,79	1,34
772,014	1,91
772,238	0,76
772,463	2,93
772,687	3,72
772,911	3,35
773,136	1,14
773,36	1,71
773,584	3,77
773,808	1,75
774,033	2
774,257	1,26
774,481	0,48
774,705	-0,44
774,929	-0,32
775,153	-0,81
775,377	-0,59
775,602	-0,38
775,826	0,85
776,05	2,53
776,274	0,24
776,498	3,05
776,722	0,8
776,945	2,49
777,169	1,52
777,393	-0,24
777,617	-1,27
777,841	-1,17
778,065	-0,43
778,289	-3,35
778,512	-4,76
778,736	-5,32
778,96	-6,56
779,184	-2,24
779,407	-4,58
779,631	-4,41
779,855	-5,65
780,078	-5,14
780,302	-6,85
780,526	-9,59
780,749	-8,32
780,973	-7,49
781,196	-6,98
781,42	-8,61
781,643	-7,34
781,867	-7,12
782,09	-10,02
782,314	-11,04
782,537	-10,77
782,76	-11,76
782,984	-12,14
783,207	-13,22
783,431	-13,69
783,654	-14,53
783,877	-16,88
784,1	-16,03
784,324	-16,49
784,547	-17,56
784,77	-22,05
784,993	-24
785,216	-24,16
785,44	-22,82
785,663	-23,39
785,886	-19,49
786,109	-21,08
786,332	-19,01
786,555	-19,18
786,778	-17,06
787,001	-16,39
787,224	-16,06
787,447	-14,63
787,67	-13,23
787,893	-12,8
788,116	-12,31
788,339	-9,74
788,561	-11,53
788,784	-14,23
789,007	-14,09
789,23	-14,38
789,453	-15,03
789,675	-16,95
789,898	-18,67
790,121	-19,99
790,344	-20,82
790,566	-19,05
790,789	-19,14
791,012	-19,08
791,234	-15,94
791,457	-12,63
791,679	-11,3
791,902	-8,81
792,124	-8,8
792,347	-10,28
792,569	-11,31
792,792	-15,14
793,014	-11,76
793,237	-12,24
793,459	-11,52
793,681	-10,73
793,904	-12,24
794,126	-12,81
794,348	-13,55
794,571	-11,14
794,793	-13,7
795,015	-14,43
795,237	-15,43
795,46	-13,69
795,682	-13,27
795,904	-11,88
796,126	-14,04
796,348	-14,05
796,57	-9,92
796,792	-9,01
797,014	-4,12
797,237	-1,81
797,459	-0,83
797,681	1,67
797,903	0,18
798,124	-0,36
798,346	11,56
798,568	12,75
798,79	17,15
799,012	19,48
799,234	21
799,456	22,71
799,678	25,33
799,899	22,46
800,121	20,33
800,343	20,04
800,565	19,01
800,786	21,34
801,008	21,87
801,23	22,5
801,451	21,58
801,673	19,88
801,895	20,73
802,116	24,34
802,338	25,36
802,559	25,5
802,781	23,04
803,002	25,69
803,224	28,94
803,445	26,35
803,667	28,33
803,888	25,8
804,109	24,97
804,331	24,22
804,552	22,89
804,773	24,72
804,995	21,68
805,216	7,44
805,437	5,24
805,658	0,06
805,88	-1,83
806,101	-2,36
806,322	-1,91
806,543	-2,51
806,764	-4,97
806,985	-3,76
807,207	-3,01
807,428	-2,29
807,649	-5,85
807,87	-6,68
808,091	-6,99
808,312	-6,78
808,533	-0,26
808,754	1,45
808,975	-2,24
809,195	-2,07
809,416	-0,4
809,637	-0,14
809,858	-1,46
810,079	-3,93
810,3	-1,52
810,52	-2,57
810,741	-4,41
810,962	-6,7
811,183	-5,79
811,403	-4,1
811,624	-3,94
811,845	-1,48
812,065	-0,23
812,286	2,7
812,506	3,72
812,727	4,34
812,948	7,2
813,168	8,67
813,389	6,96
813,609	9,19
813,83	9,38
814,05	7,85
814,27	7,91
814,491	12,36
814,711	12,02
814,931	9,44
815,152	9,48
815,372	6,68
815,592	5,4
815,813	4,3
816,033	3,75
816,253	4,32
816,473	3,98
816,694	5,22
816,914	6,43
817,134	6,28
817,354	2,33
817,574	3,73
817,794	4,08
818,014	1,41
818,234	-0,21
818,454	-1,83
818,674	-4,18
818,894	-6,82
819,114	-5,42
819,334	-5,49
819,554	-4,57
819,774	-4,06
819,994	-7,56
820,214	-8,76
820,433	-9,74
820,653	-10,59
820,873	-7,5
821,093	-7,28
821,312	-10,21
821,532	-7,81
821,752	-3,91
821,972	-6,39
822,191	-4,88
822,411	-7,4
822,63	-6,4
822,85	-6,05
823,07	-9,67
823,289	-8,81
823,509	-10,36
823,728	-7,94
823,948	-10,9
824,167	-9,98
824,387	-10,87
824,606	-7,67
824,825	-7,16
825,045	-7,11
825,264	-7,49
825,483	-4,57
825,703	-2,68
825,922	-5,59
826,141	-7,42
826,361	-7,98
826,58	-12
826,799	-12,23
827,018	-9,88
827,237	-7,81
827,456	-5,71
827,676	-6,45
827,895	-6,78
828,114	-4,36
828,333	-4,13
828,552	-4,58
828,771	-3,15
828,99	-6,2
829,209	-4,27
829,428	-1,41
829,647	-3,56
829,866	-0,98
830,084	-1,4
830,303	-1,91
830,522	-3,13
830,741	-2,81
830,96	-2,17
831,179	0,18
831,397	-2,75
831,616	-2,89
831,835	-3,37
832,053	-2,84
832,272	-2,51
832,491	-0,98
832,709	-2,89
832,928	-1,31
833,147	-0,44
833,365	0,97
833,584	2,86
833,802	5,19
834,021	3,71
834,239	4,15
834,458	2,73
834,676	-0,27
834,894	-1,93
835,113	-3,58
835,331	-4,41
835,55	-4,59
835,768	-4,27
835,986	-2,84
836,204	-5,28
836,423	-3,09
836,641	-5,05
836,859	-5,91
837,077	-4,06
837,296	-4,42
837,514	-4,46
837,732	-5,68
837,95	-8,35
838,168	-5,58
838,386	-5,87
838,604	-2,81
838,822	-2,1
839,04	-4,21
839,258	-4,25
839,476	-1,86
839,694	-2,53
839,912	-4,06
840,13	-5,63
840,348	-2,41
840,566	-5,44
840,783	-3
841,001	-5,69
841,219	-4,21
841,437	-2,21
841,655	-1,1
841,872	-1,95
842,09	-3,72
842,308	-3,21
842,525	-3,38
842,743	-4,29
842,961	-4,31
843,178	-6,01
843,396	-1,02
843,613	0,78
843,831	1,71
844,048	0,7
844,266	0,86
844,483	0,66
844,701	-0,31
844,918	0,41
845,136	-0,58
845,353	-1,83
845,57	-1,44
845,788	2,35
846,005	-0,44
846,222	-1,15
846,439	0,72
846,657	-0,25
846,874	1,9
847,091	-0,28
847,308	0,87
847,526	-2,15
847,743	-2,41
847,96	-4,64
848,177	-4,49
848,394	-6,34
848,611	-6,13
848,828	-6,2
849,045	-7,98
849,262	-6,91
849,479	-7,16
849,696	-8,21
849,913	-10,33
850,13	-15,06
850,347	-12,43
850,564	-13,23
850,78	-14,54
850,997	-15,74
851,214	-14,57
851,431	-13,54
851,647	-17,33
851,864	-15,94
852,081	-15,6
852,298	-17,85
852,514	-20,09
852,731	-17,34
852,948	-14,88
853,164	-13,2
853,381	-12,26
853,597	-13,59
853,814	-16,21
854,03	-19,54
854,247	-16,26
854,463	-16,01
854,68	-16,43
854,896	-15,91
855,113	-13,63
855,329	-13,51
855,545	-11,2
855,762	-11,52
855,978	-14,92
856,194	-15,84
856,411	-12,28
856,627	-10,31
856,843	-9,73
857,059	-7,06
857,275	-8,66
857,492	-7,31
857,708	-3,63
857,924	-3,54
858,14	-1,14
858,356	-1,27
858,572	-0,72
858,788	-2,46
859,004	-0,84
859,22	-3,73
859,436	-4,45
859,652	-6,39
859,868	-8,83
860,084	-9,21
860,3	-9,55
860,516	-8,95
860,731	-7,89
860,947	-11,16
861,163	-8,34
861,379	-7,78
861,595	-6,56
861,81	-6,28
862,026	-5,82
862,242	-5,18
862,457	-5,03
862,673	-3,12
862,889	-3,97
863,104	-3,97
863,32	-2,95
863,535	-2,26
863,751	-7,97
863,966	-5,88
864,182	-4,57
864,397	-6,37
864,613	-7,38
864,828	-8,99
865,044	-8,09
865,259	-6,57
865,474	-6,44
865,69	-5,45
865,905	-3,78
866,12	-4,94
866,336	-5,41
866,551	-4,21
866,766	-5,41
866,981	-5,95
867,196	-5,73
867,412	-5,27
867,627	-4,99
867,842	-7,94
868,057	-6,62
868,272	-8,32
868,487	-10,31
868,702	-11,91
868,917	-12,97
869,132	-10,87
869,347	-10,59
869,562	-11,37
869,777	-12,04
869,992	-13,2
870,207	-14,03
870,422	-14,2
870,636	-15,01
870,851	-17,11
871,066	-19,08
871,281	-18,92
871,495	-19,81
871,71	-17,18
871,925	-21,11
872,14	-22,4
872,354	-25,42
872,569	-25,77
872,783	-25,08
872,998	-24,78
873,213	-25,15
873,427	-21,72
873,642	-19,61
873,856	-20,03
874,071	-20,11
874,285	-21,01
874,5	-21,76
874,714	-23,77
874,928	-23,09
875,143	-23,91
875,357	-23,67
875,571	-23,92
875,786	-25,06
876	-22,01
876,214	-19,29
876,429	-22,83
876,643	-21,59
876,857	-19,38
877,071	-17,66
877,285	-19,01
877,499	-21,17
877,714	-18,36
877,928	-16,21
878,142	-17,59
878,356	-19,56
878,57	-17,44
878,784	-15,96
878,998	-16
879,212	-13,18
879,426	-14,28
879,639	-12,72
879,853	-14,91
880,067	-15,6
880,281	-17,41
880,495	-15,66
880,709	-12,12
880,922	-11,01
881,136	-7,09
881,35	-5,06
881,564	-6,58
881,777	-9,15
881,991	-7,58
882,205	-4,68
882,418	-4,12
882,632	-6,73
882,845	-7,78
883,059	-5,05
883,273	-5,73
883,486	-8,21
883,7	-6,55
883,913	-7,38
884,126	-4,99
884,34	-8,3
884,553	-10,74
884,767	-5,92
884,98	-6,42
885,193	-7,29
885,407	-8,17
885,62	-5,54
885,833	-6,08
886,046	-4,44
886,26	-5,65
886,473	-6,11
886,686	-7,12
886,899	-5,32
887,112	-7
887,326	-10,69
887,539	-9,71
887,752	-9,84
887,965	-12,64
888,178	-12,08
888,391	-9,15
888,604	-9,14
888,817	-10,65
889,03	-8,77
889,243	-10,87
889,455	-12,49
889,668	-12,59
889,881	-10,33
890,094	-10,71
890,307	-13,34
890,52	-11,1
890,732	-10,3
890,945	-10,13
891,158	-9,99
891,37	-13,25
891,583	-12,71
891,796	-10,19
892,008	-11,5
892,221	-12,72
892,434	-16,96
892,646	-18,94
892,859	-19,53
893,071	-18,18
893,284	-15,2
893,496	-17,14
893,709	-16,36
893,921	-14,38
894,133	-16,33
894,346	-18,33
894,558	-17,92
894,771	-17,14
894,983	-15,25
895,195	-15,18
895,407	-15,83
895,62	-19,26
895,832	-16,77
896,044	-13,63
896,256	-14,6
896,468	-15,57
896,681	-12,53
896,893	-11,42
897,105	-11,5
897,317	-12,85
897,529	-10,34
897,741	-9,57
897,953	-5,51
898,165	-7,14
898,377	-10,51
898,589	-8,55
898,801	-9,89
899,013	-6,54
899,224	-3,77
899,436	-1,95
899,648	-3,17
899,86	-4,46
900,072	0,41
900,283	1,31
900,495	2,42
900,707	4,21
900,919	1,77
901,13	3,96
901,342	1,72
901,554	0,37
901,765	1,09
901,977	-0,6
902,188	-0,44
902,4	-2,19
902,611	-4,7
902,823	-6,48
903,034	-9,4
903,246	-13,02
903,457	-14,36
903,669	-15,9
903,88	-15,33
904,091	-16,22
904,303	-14,46
904,514	-16,67
904,725	-14,44
904,936	-12,42
905,148	-13,31
905,359	-9,82
905,57	-10,14
905,781	-13,12
905,992	-14,28
906,204	-12,39
906,415	-13,85
906,626	-18,05
906,837	-15,7
907,048	-17,33
907,259	-17,76
907,47	-18,69
907,681	-21,92
907,892	-19,48
908,103	-19,64
908,314	-21,77
908,525	-20,14
908,735	-20,49
908,946	-20,22
909,157	-20,12
909,368	-18,15
909,579	-17,31
909,789	-17,05
910	-17,83
910,211	-14,3
910,421	-16,02
910,632	-15,25
910,843	-18,68
911,053	-15,3
911,264	-12,98
911,475	-14,61
911,685	-13,4
911,896	-13,81
912,106	-13,55
912,317	-13,2
912,527	-10,07
912,737	-10,32
912,948	-9,72
913,158	-8,6
913,369	-11,64
913,579	-9,04
913,789	-8,21
914	-3,36
914,21	-2,46
914,42	-1,8
914,63	-2,04
914,841	-1,31
915,051	0,35
915,261	1,31
915,471	2,95
915,681	2,56
915,891	2,79
916,101	2,26
916,311	3,12
916,521	4,12
916,731	4,27
916,941	7,73
917,151	5,87
917,361	9,73
917,571	5,43
917,781	3,51
917,991	1,32
918,201	2,24
918,411	-1,18
918,621	-2,04
918,83	-1,63
919,04	-4,42
919,25	-1,41
919,46	0,98
919,669	-2,72
919,879	-2,56
920,089	-4,22
920,298	-5,94
920,508	-6,73
920,717	-5,8
920,927	-8,03
921,136	-8,56
921,346	-10,04
921,555	-12,86
921,765	-12,46
921,974	-13,43
922,184	-16,28
922,393	-16,89
922,603	-18,43
922,812	-16,02
923,021	-16,18
923,23	-17,77
923,44	-20,8
923,649	-19,4
923,858	-21,6
924,067	-22,78
924,277	-24,9
924,486	-22,37
924,695	-24,44
924,904	-22,07
925,113	-21,3
925,322	-19,82
925,531	-19,31
925,74	-23,17
925,949	-25,84
926,158	-22,57
926,367	-22,45
926,576	-23,24
926,785	-23,58
926,994	-25,8
927,203	-23,35
927,412	-23,41
927,621	-23,43
927,83	-21,27
928,038	-21,7
928,247	-22,46
928,456	-23,69
928,665	-20,24
928,873	-17,31
929,082	-13,83
929,291	-14,4
929,499	-13,33
929,708	-14,87
929,916	-13,65
930,125	-15,86
930,333	-15,99
930,542	-12,85
930,75	-10,32
930,959	-9,82
931,167	-9,28
931,376	-9,74
931,584	-9,37
931,793	-9,39
932,001	-9,72
932,209	-11,39
932,418	-13,58
932,626	-15,72
932,834	-17,79
933,042	-20,21
933,251	-20,15
933,459	-19,34
933,667	-22,02
933,875	-20,91
934,083	-19,78
934,291	-18,42
934,499	-16,46
934,707	-17,49
934,915	-16,08
935,123	-15
935,331	-16,77
935,539	-20,67
935,747	-22
935,955	-22,55
936,163	-22,79
936,371	-23,31
936,579	-21,23
936,787	-21,49
936,995	-22,88
937,202	-25,57
937,41	-24,99
937,618	-26
937,826	-25,28
938,033	-28,7
938,241	-31
938,449	-28,8
938,656	-26,28
938,864	-25,41
939,071	-24,77
939,279	-20,5
939,486	-16,39
939,694	-16,39
939,901	-16,7
940,109	-15,52
940,316	-16,65
940,524	-17,3
940,731	-19,11
940,939	-17,58
941,146	-17,16
941,353	-18,09
941,561	-19,23
941,768	-20,59
941,975	-17,61
942,182	-18,17
942,39	-18,06
942,597	-13,96
942,804	-14,12
943,011	-13,84
943,218	-13,1
943,425	-13,26
943,632	-12,92
943,839	-14,58
944,046	-15,6
944,253	-16,36
944,46	-16,02
944,667	-11,33
944,874	-12,64
945,081	-11,14
945,288	-8,23
945,495	-4,73
945,702	-6,09
945,909	-10,02
946,115	-9,03
946,322	-10,26
946,529	-13,2
946,736	-12,58
946,942	-11,04
947,149	-11,97
947,356	-14,91
947,562	-15,74
947,769	-15,95
947,976	-16,34
948,182	-14,56
948,389	-15,67
948,595	-14,52
948,802	-14,69
949,008	-17,55
949,215	-16,61
949,421	-17,39
949,628	-18,02
949,834	-18,87
950,04	-18,66
950,247	-14,88
950,453	-12,66
950,659	-12,9
950,865	-11,01
951,072	-15,42
951,278	-13,06
951,484	-15,56
951,69	-20,65
951,896	-22,67
952,103	-23,82
952,309	-20,37
952,515	-19,05
952,721	-17,74
952,927	-15,6
953,133	-16,76
953,339	-18,39
953,545	-18,08
953,751	-17,03
953,957	-13,7
954,163	-15,05
954,369	-14,19
954,574	-17,47
954,78	-17,92
954,986	-17,41
955,192	-14,49
955,398	-15,52
955,603	-17,7
955,809	-16,75
956,015	-16,34
956,22	-14,71
956,426	-13,22
956,632	-15,75
956,837	-15,44
957,043	-15,59
957,248	-14,97
957,454	-14,45
957,66	-17,44
957,865	-15,33
958,07	-13,43
958,276	-14,23
958,481	-16,04
958,687	-17,54
958,892	-19,31
959,097	-18,93
959,303	-16,99
959,508	-16,62
959,713	-16,21
959,919	-16,59
960,124	-17,77
960,329	-18,79
960,534	-14,93
960,739	-13,98
960,945	-11,86
961,15	-12,15
961,355	-13,7
961,56	-18,31
961,765	-18,79
961,97	-18,24
962,175	-15,13
962,38	-18,53
962,585	-18,17
962,79	-20,65
962,995	-21,51
963,2	-23,88
963,404	-24,77
963,609	-28,34
963,814	-29,51
964,019	-32,11
964,224	-34,76
964,428	-31,84
964,633	-31,07
964,838	-29,15
965,042	-29,51
965,247	-29,75
965,452	-29,52
965,656	-28,92
965,861	-29,18
966,066	-30,59
966,27	-28,7
966,475	-23,61
966,679	-27,41
966,884	-27,05
967,088	-28,99
967,292	-27,54
967,497	-24,88
967,701	-24,84
967,906	-23,49
968,11	-20,8
968,314	-17,32
968,518	-21,03
968,723	-16,91
968,927	-16,41
969,131	-14,71
969,335	-12,58
969,539	-12,02
969,744	-10,24
969,948	-6,6
970,152	-4,77
970,356	-2,51
970,56	-1,71
970,764	-3,84
970,968	-1,7
971,172	-0,76
971,376	-0,45
971,58	0,4
971,784	0,24
971,988	-2,65
972,192	0,62
972,395	0,68
972,599	-2
972,803	-6,09
973,007	-3,5
973,21	-4,92
973,414	-5,1
973,618	-6,85
973,822	-8,14
974,025	-8,51
974,229	-7,89
974,432	-12,3
974,636	-14,37
974,84	-12,66
975,043	-12,11
975,247	-13,54
975,45	-15,14
975,654	-14,28
975,857	-12,25
976,06	-12,53
976,264	-13,44
976,467	-11,95
976,671	-12,58
976,874	-12,57
977,077	-14,31
977,28	-14,88
977,484	-17,57
977,687	-17,79
977,89	-15,92
978,093	-16
978,297	-15,14
978,5	-16,78
978,703	-15,46
978,906	-13,83
979,109	-13,44
979,312	-12,54
979,515	-12,37
979,718	-13,18
979,921	-12,62
980,124	-14,19
980,327	-12,92
980,53	-13,32
980,733	-9,16
980,936	-7,28
981,138	-8,9
981,341	-9,13
981,544	-9,09
981,747	-9,06
981,949	-9,37
982,152	-8,97
982,355	-10,14
982,558	-7,77
982,76	-11,34
982,963	-11,72
983,165	-11,5
983,368	-9,23
983,571	-10,83
983,773	-6,45
983,976	-5,65
984,178	-6,21
984,381	-6,19
984,583	-9,11
984,785	-9,83
984,988	-7,54
985,19	-6,11
985,392	-7,66
985,595	-10,73
985,797	-10,33
985,999	-5,95
986,202	-4,98
986,404	-5,19
986,606	-2,6
986,808	-3,52
987,01	-2,64
987,212	-4,4
987,415	-5,84
987,617	-6,23
987,819	-7,81
988,021	-6,82
988,223	-10,5
988,425	-11,82
988,627	-10,61
988,829	-14,99
989,031	-12,6
989,232	-13,69
989,434	-11,42
989,636	-11,76
989,838	-11,38
990,04	-11,31
990,242	-12,98
990,443	-15,29
990,645	-13,78
990,847	-10,64
991,048	-9,16
991,25	-9,99
991,452	-10,09
991,653	-9,88
991,855	-9,15
992,057	-11,61
992,258	-12,64
992,46	-12,41
992,661	-12,14
992,863	-14,27
993,064	-13,2
993,265	-13,86
993,467	-14,92
993,668	-13,03
993,87	-12,67
994,071	-11,48
994,272	-12,2
994,473	-8,7
994,675	-7,69
994,876	-7,05
995,077	-6,97
995,278	-6,01
995,48	-5,15
995,681	-9,09
995,882	-7,74
996,083	-8,04
996,284	-12,51
996,485	-12,42
996,686	-13,35
996,887	-15,21
997,088	-18,11
997,289	-21,09
997,49	-22,97
997,691	-24,01
997,892	-24,6
998,092	-21,37
998,293	-20,65
998,494	-21,59
998,695	-22,29
998,896	-19,52
999,096	-20,35
999,297	-20,06
999,498	-23,3
999,698	-25,22
999,899	-26,63
1000,1	-28,73
1000,3	-29,52
1000,501	-29,06
1000,701	-29,41
1000,902	-29,39
1001,102	-29,16
1001,303	-27,27
1001,503	-29,93
1001,704	-29,26
1001,904	-27,92
1002,105	-29,09
1002,305	-28,6
1002,505	-29,88
1002,706	-30,76
1002,906	-30,46
1003,106	-30,38
1003,306	-28,31
1003,507	-26,71
1003,707	-27,01
1003,907	-23,99
1004,107	-22,88
1004,307	-23,5
1004,507	-21,23
1004,707	-21,27
1004,907	-22,83
1005,107	-23,08
1005,308	-22,1
1005,507	-24,65
1005,707	-21,44
1005,907	-20,24
1006,107	-18
1006,307	-16,34
1006,507	-16,9
1006,707	-16
1006,907	-15,56
1007,106	-16,43
1007,306	-17,56
1007,506	-16,45
1007,706	-15,67
1007,905	-18,3
1008,105	-19,26
1008,305	-18,96
1008,504	-17,37
1008,704	-10,97
1008,903	-9,87
1009,103	-7,35
1009,303	-8,68
1009,502	-8,89
1009,702	-9,45
1009,901	-8,66
1010,1	-12,46
1010,3	-9,93
1010,499	-11,65
1010,699	-12,98
1010,898	-14,27
1011,097	-13,84
1011,296	-14,02
1011,496	-15,57
1011,695	-15,73
1011,894	-18,27
1012,093	-15,1
1012,293	-15,01
1012,492	-15,86
1012,691	-15,42
1012,89	-15,64
1013,089	-19,3
1013,288	-17,9
1013,487	-16,28
1013,686	-17,03
1013,885	-19,01
1014,084	-16,49
1014,283	-16,79
1014,482	-18,2
1014,681	-20,83
1014,88	-25,38
1015,078	-23,17
1015,277	-26,24
1015,476	-26,4
1015,675	-26,41
1015,873	-25,58
1016,072	-27,39
1016,271	-24,26
1016,47	-29,18
1016,668	-27,19
1016,867	-28,93
1017,065	-30,32
1017,264	-30,67
1017,463	-31,34
1017,661	-29,81
1017,86	-28
1018,058	-26,15
1018,256	-28,47
1018,455	-28,69
1018,653	-27,37
1018,852	-26,33
1019,05	-29,53
1019,248	-29,11
1019,447	-30,38
1019,645	-31,23
1019,843	-32,74
1020,041	-30,35
1020,24	-31,21
1020,438	-27
1020,636	-25,68
1020,834	-26,5
1021,032	-23,96
1021,23	-25,65
1021,428	-23,32
1021,626	-18,83
1021,824	-17,75
1022,022	-18,68
1022,22	-15,68
1022,418	-15,38
1022,616	-14,99
1022,814	-15,26
1023,012	-14,64
1023,21	-12,66
1023,408	-12,26
1023,606	-12,94
1023,803	-9,26
1024,001	-9,66
1024,199	-13,5
1024,397	-12,41
1024,594	-14,64
1024,792	-16,59
1024,99	-16,25
1025,187	-14,71
1025,385	-10,75
1025,582	-10,1
1025,78	-11,57
1025,977	-10,73
1026,175	-10,7
1026,372	-10
1026,57	-12,17
1026,767	-10,12
1026,965	-8,49
1027,162	-9,47
1027,359	-10,31
1027,557	-10,66
1027,754	-15,29
1027,951	-17,42
1028,148	-15,49
1028,346	-19,55
1028,543	-21,96
1028,74	-22,1
1028,937	-25,32
1029,134	-26,78
1029,331	-28,39
1029,528	-27,9
1029,725	-28,47
1029,923	-32,17
1030,12	-28,91
1030,317	-25,53
1030,513	-23,73
1030,71	-21,46
1030,907	-19,03
1031,104	-19,94
1031,301	-20,52
1031,498	-21,87
1031,695	-21,4
1031,892	-20,12
1032,088	-19,35
1032,285	-21,73
1032,482	-22,75
1032,678	-25,22
1032,875	-29,29
1033,072	-28,94
1033,268	-28,58
1033,465	-29,26
1033,662	-30,62
1033,858	-29,15
1034,055	-28,66
1034,251	-25,59
1034,448	-24,38
1034,644	-24,19
1034,84	-21,09
1035,037	-18,06
1035,233	-17,36
1035,43	-15,06
1035,626	-16,03
1035,822	-14,88
1036,019	-16,58
1036,215	-20
1036,411	-21,42
1036,607	-24,1
1036,803	-26,55
1037	-27,73
1037,196	-28,83
1037,392	-28,34
1037,588	-30,11
1037,784	-30,36
1037,98	-32,72
1038,176	-33,2
1038,372	-33,89
1038,568	-32,27
1038,764	-29,84
1038,96	-26,22
1039,156	-28,92
1039,352	-29,68
1039,547	-26,66
1039,743	-25,67
1039,939	-23,93
1040,135	-24,04
1040,331	-28,13
1040,526	-25,69
1040,722	-27,31
1040,918	-28,61
1041,113	-32,14
1041,309	-31,39
1041,505	-33,51
1041,7	-32,27
1041,896	-33,29
1042,091	-33,41
1042,287	-33,5
1042,482	-32,71
1042,678	-32,66
1042,873	-31,64
1043,069	-32,62
1043,264	-31,76
1043,459	-31,09
1043,655	-30,37
1043,85	-31,75
1044,045	-29,67
1044,24	-29,8
1044,436	-26,04
1044,631	-26,92
1044,826	-28,43
1045,021	-32,14
1045,216	-30,05
