Data from FLMT021711__19__18-15-39-187.txt Node

Date: Tue Nov 05 18:15:39 CET 2024
User: Etudiants TP
Spectrometer: FLMT02171
Trigger mode: 0
Integration Time (sec): 1,000000E-1
Scans to average: 5
Electric dark correction enabled: true
Nonlinearity correction enabled: false
Boxcar width: 15
XAxis mode: Wavelengths
Number of Pixels in Spectrum: 3648
>>>>>Begin Spectral Data<<<<<
194,658	-71,21
194,923	-69,1
195,188	-62,22
195,453	-62,26
195,717	-55,13
195,982	-53,62
196,247	-50,94
196,512	-53,97
196,777	-51,94
197,042	-49,78
197,307	-49,22
197,572	-45,03
197,837	-44,31
198,101	-41,91
198,366	-39,42
198,631	-38,5
198,896	-30,71
199,161	-22,6
199,425	-13,99
199,69	-4,24
199,955	-5,96
200,22	-9,31
200,484	-9,07
200,749	-8,39
201,014	-7,4
201,278	-7,36
201,543	-6,37
201,807	-7,02
202,072	-4,76
202,337	-5,69
202,601	-7,5
202,866	-7,56
203,13	-6,44
203,395	-9,79
203,659	-9,51
203,924	-11,97
204,189	-11,93
204,453	-11,14
204,717	-8,09
204,982	-7,96
205,246	-7,14
205,511	-5,43
205,775	-6,3
206,04	-1,06
206,304	-0,28
206,568	2,57
206,833	4,27
207,097	4,24
207,361	6,3
207,626	11,12
207,89	12,63
208,154	15,21
208,419	16,23
208,683	15,76
208,947	17,58
209,211	17,65
209,476	17,3
209,74	17,53
210,004	18,15
210,268	18,4
210,532	21,58
210,796	23,05
211,061	22,63
211,325	23,32
211,589	22,53
211,853	23,82
212,117	24,25
212,381	26,48
212,645	27,17
212,909	27,59
213,173	26,52
213,437	28,15
213,701	28,57
213,965	29,93
214,229	24,27
214,493	23,75
214,757	22,34
215,021	21,09
215,285	25,59
215,549	26,85
215,813	22,61
216,077	20,18
216,34	21,91
216,604	22,85
216,868	23,45
217,132	23,9
217,396	21,79
217,659	22,66
217,923	17,45
218,187	17,69
218,451	17,22
218,714	13,68
218,978	13,65
219,242	16,87
219,505	18,16
219,769	20,76
220,033	21,13
220,296	22,54
220,56	22,64
220,824	19,32
221,087	18,8
221,351	18,77
221,614	17,13
221,878	18,3
222,142	15,47
222,405	16,12
222,669	18,64
222,932	13,49
223,196	12,39
223,459	9,65
223,722	12,04
223,986	11,6
224,249	12,07
224,513	11,37
224,776	10,08
225,04	10,22
225,303	9,19
225,566	9,9
225,83	11,23
226,093	15,38
226,356	12,7
226,62	11,41
226,883	12,66
227,146	13,92
227,409	11,78
227,673	9,19
227,936	8,33
228,199	8,16
228,462	5,18
228,725	3,59
228,989	3,19
229,252	5,75
229,515	10,37
229,778	8,76
230,041	7,38
230,304	6,6
230,567	7,2
230,83	4,69
231,093	8,57
231,356	8,04
231,619	14,47
231,882	12,14
232,145	14,63
232,408	12,97
232,671	12,09
232,934	11,41
233,197	9
233,46	8,36
233,723	8,8
233,986	8,33
234,249	6,56
234,512	9
234,775	12,78
235,037	13,83
235,3	13,21
235,563	12,88
235,826	13,99
236,089	16,67
236,351	16,09
236,614	19,26
236,877	20,41
237,14	23,26
237,402	22,42
237,665	14,98
237,928	15,33
238,19	12,89
238,453	15,81
238,716	15,31
238,978	14,79
239,241	12,37
239,503	15,14
239,766	9,36
240,029	6,98
240,291	9,2
240,554	9,95
240,816	9,12
241,079	9,87
241,341	9,99
241,604	8,17
241,866	5,59
242,129	6,93
242,391	8,31
242,653	6,76
242,916	6,81
243,178	5,33
243,441	7,27
243,703	7,84
243,965	6,13
244,228	6,44
244,49	6,72
244,752	7,06
245,015	7,08
245,277	10,17
245,539	8,74
245,801	10,82
246,064	10,35
246,326	10,66
246,588	10,51
246,85	12,75
247,112	12,49
247,374	14,85
247,637	15,98
247,899	15,74
248,161	16,29
248,423	11,69
248,685	11,43
248,947	10,85
249,209	10,58
249,471	12,89
249,733	13,68
249,995	12,32
250,257	10,63
250,519	8,28
250,781	11,73
251,043	8,39
251,305	10,18
251,567	11,43
251,829	10,34
252,091	9,85
252,353	4,92
252,615	5,46
252,876	2,36
253,138	-0,28
253,4	-5,17
253,662	-4,38
253,924	-1,58
254,185	-0,55
254,447	-0,85
254,709	-1,44
254,971	-1,04
255,232	0,71
255,494	-1,29
255,756	-3,23
256,017	-2,06
256,279	-0,48
256,541	-0,07
256,802	-0,22
257,064	1,63
257,326	0,99
257,587	1,64
257,849	4,17
258,11	7,1
258,372	7,67
258,633	10,59
258,895	9,75
259,156	8,7
259,418	7,12
259,679	2,03
259,941	0,66
260,202	4,01
260,464	6,46
260,725	4,49
260,987	4,55
261,248	4,77
261,509	5,05
261,771	3,93
262,032	5,96
262,293	5,48
262,555	6,04
262,816	3,88
263,077	2
263,338	0,31
263,6	1,22
263,861	1,7
264,122	0,58
264,383	2,63
264,645	2,93
264,906	2,48
265,167	1,67
265,428	0,24
265,689	1,01
265,95	-2,14
266,211	0,45
266,473	-0,01
266,734	-3,87
266,995	-7,42
267,256	-5,92
267,517	-3
267,778	0
268,039	1,47
268,3	0,31
268,561	-1,51
268,822	1,51
269,083	-1,1
269,344	-2,59
269,604	-3,52
269,865	-3,51
270,126	-7,96
270,387	-6,59
270,648	-5,84
270,909	-5,08
271,17	-5,7
271,43	-8,64
271,691	-11,63
271,952	-12,64
272,213	-10,05
272,473	-13,16
272,734	-10,02
272,995	-8,05
273,256	-6,66
273,516	-2,15
273,777	-5,37
274,038	-2,42
274,298	-5,56
274,559	-5,85
274,82	-1,38
275,08	2,32
275,341	3,87
275,601	1,87
275,862	-0,1
276,122	-0,29
276,383	0,18
276,643	1,26
276,904	0,94
277,164	6,43
277,425	6,53
277,685	12,23
277,946	14,3
278,206	16,24
278,467	16,92
278,727	18,58
278,987	17,54
279,248	17,97
279,508	21,33
279,768	24,61
280,029	26,09
280,289	22,68
280,549	21,36
280,81	19,9
281,07	18,55
281,33	20,24
281,59	18,33
281,851	21,27
282,111	19,5
282,371	19,1
282,631	21,26
282,891	19,08
283,151	17,34
283,412	14,39
283,672	13,83
283,932	14,55
284,192	17,09
284,452	13,74
284,712	11,94
284,972	11,26
285,232	8,3
285,492	12,35
285,752	8,31
286,012	13,43
286,272	15,36
286,532	13,25
286,792	11,83
287,052	13,66
287,312	13,32
287,571	11,58
287,831	10,66
288,091	7,65
288,351	7,3
288,611	11,83
288,871	10,66
289,13	9,45
289,39	5,12
289,65	5,84
289,91	3,37
290,17	6,59
290,429	8,14
290,689	4,31
290,949	1,89
291,208	2,42
291,468	7,03
291,728	8,19
291,987	10,68
292,247	8,27
292,506	11,07
292,766	14,24
293,026	12,11
293,285	12,27
293,545	14,16
293,804	14,25
294,064	9,94
294,323	6,76
294,583	8,53
294,842	8,1
295,102	8,18
295,361	8,01
295,621	8,63
295,88	9,32
296,139	9,27
296,399	10,63
296,658	5,1
296,917	5,35
297,177	2,29
297,436	4,09
297,695	2,36
297,955	4,14
298,214	1,61
298,473	3,69
298,732	8
298,992	11,5
299,251	11,4
299,51	7,05
299,769	6,7
300,028	5,91
300,287	5,42
300,547	5,27
300,806	2,76
301,065	7,97
301,324	10,2
301,583	6,39
301,842	3,23
302,101	1,47
302,36	1,57
302,619	0,57
302,878	1,64
303,137	-0,59
303,396	1,82
303,655	2,42
303,914	0,53
304,173	0,93
304,432	0,69
304,691	4,35
304,95	1,89
305,208	8,35
305,467	8,26
305,726	7,59
305,985	8,13
306,244	10,57
306,503	10,48
306,761	7,55
307,02	4,72
307,279	5,15
307,537	5,94
307,796	4,22
308,055	2,22
308,314	3,81
308,572	2,12
308,831	4,27
309,09	2,91
309,348	3,32
309,607	2,68
309,865	7,71
310,124	6,55
310,382	7,98
310,641	8,34
310,9	6,62
311,158	8,24
311,417	7,4
311,675	8,37
311,933	8,99
312,192	10,26
312,45	9,61
312,709	9,65
312,967	10,49
313,226	9,96
313,484	9,05
313,742	8,18
314,001	5,66
314,259	2,9
314,517	2,59
314,776	5,5
315,034	8,31
315,292	5,77
315,55	3,83
315,809	2,97
316,067	3,12
316,325	1,65
316,583	3,15
316,841	0,87
317,1	-1,84
317,358	-5,4
317,616	-6,13
317,874	-8,09
318,132	-8,31
318,39	-8,99
318,648	-9,41
318,906	-9,31
319,164	-10,58
319,422	-11,34
319,68	-13,37
319,938	-12,22
320,196	-12,62
320,454	-10,45
320,712	-11,31
320,97	-12,48
321,228	-15,66
321,486	-13,8
321,744	-13,03
322,002	-9,95
322,26	-10,14
322,517	-11,73
322,775	-14,79
323,033	-16,64
323,291	-14,15
323,549	-11,22
323,806	-9,91
324,064	-9,04
324,322	-7,27
324,58	-8,48
324,837	-5,95
325,095	-7,28
325,353	-5,53
325,61	-2,93
325,868	-3,51
326,126	-0,34
326,383	-0,27
326,641	-1,12
326,898	1,36
327,156	2,26
327,413	3,23
327,671	4,57
327,928	6,34
328,186	7,3
328,443	5,74
328,701	9,45
328,958	10,8
329,216	12,28
329,473	11,1
329,731	11
329,988	10,97
330,245	12,83
330,503	14,86
330,76	14,65
331,017	17,69
331,275	14,88
331,532	13,47
331,789	12,39
332,047	12,53
332,304	9,95
332,561	10,21
332,818	7,81
333,076	9,62
333,333	10,91
333,59	10,64
333,847	11,34
334,104	10,6
334,361	10,35
334,618	9,92
334,876	7,11
335,133	7,15
335,39	5,12
335,647	6,25
335,904	2,03
336,161	0,24
336,418	1,27
336,675	-3,2
336,932	-0,93
337,189	-2,29
337,446	-1,83
337,703	-1,97
337,96	-7,14
338,216	-6,8
338,473	-9,99
338,73	-8,65
338,987	-9,52
339,244	-6,27
339,501	-8,3
339,757	-6,25
340,014	-6,19
340,271	-5,24
340,528	-4,15
340,785	0,87
341,041	0,76
341,298	-1,56
341,555	-1,89
341,811	-0,91
342,068	-4,43
342,325	-4,25
342,581	-2,14
342,838	-1,59
343,094	-1,93
343,351	-2,31
343,608	-4,86
343,864	-1,71
344,121	-0,17
344,377	-1,74
344,634	-1,32
344,89	-2,97
345,147	-4,06
345,403	-5,24
345,66	-4,92
345,916	-2,43
346,172	-3,69
346,429	-4
346,685	-6,45
346,942	-7,66
347,198	-11,56
347,454	-10,29
347,711	-10,23
347,967	-13,13
348,223	-12,31
348,48	-13,27
348,736	-10,94
348,992	-9,9
349,248	-8,36
349,504	-7,94
349,761	-8,27
350,017	-8,01
350,273	-7,31
350,529	-8,01
350,785	-7,77
351,041	-8,42
351,297	-7,58
351,554	-9,57
351,81	-11,57
352,066	-13,86
352,322	-14,24
352,578	-13,68
352,834	-13,85
353,09	-11,86
353,346	-10,8
353,602	-12,59
353,858	-14,28
354,114	-15,51
354,369	-13,51
354,625	-10,62
354,881	-10,97
355,137	-7,45
355,393	-7,26
355,649	-7,41
355,905	-6,38
356,16	-6,48
356,416	-5,44
356,672	-12,78
356,928	-13,73
357,183	-13,18
357,439	-14,4
357,695	-15,33
357,951	-10,01
358,206	-11,9
358,462	-13,11
358,718	-15,26
358,973	-14,28
359,229	-13,13
359,484	-11,09
359,74	-8,98
359,996	-8,63
360,251	-5,17
360,507	-6,53
360,762	-6,1
361,018	-3,77
361,273	-5,46
361,529	-2,82
361,784	-0,46
362,04	1,56
362,295	1,22
362,55	2,3
362,806	4,26
363,061	4,9
363,316	6,03
363,572	6,63
363,827	9,25
364,082	6,61
364,338	6,88
364,593	7,65
364,848	8,8
365,104	7,34
365,359	10,89
365,614	9,71
365,869	6,42
366,124	7,39
366,38	6,34
366,635	8,87
366,89	10,52
367,145	9,87
367,4	13,26
367,655	13,68
367,91	14,41
368,165	12,02
368,42	8,8
368,675	9
368,93	8,42
369,185	5,75
369,44	4,71
369,695	5,9
369,95	3,65
370,205	1,62
370,46	-0,5
370,715	-1,25
370,97	-0,88
371,225	-0,43
371,48	0,68
371,734	0,1
371,989	1,9
372,244	1,44
372,499	4,9
372,754	4,05
373,008	1
373,263	-3,68
373,518	-0,44
373,773	-1,65
374,027	-3,18
374,282	0,25
374,537	1,29
374,791	2,94
375,046	0,99
375,301	-0,76
375,555	-1,99
375,81	-0,3
376,064	1,26
376,319	6,1
376,573	5,35
376,828	1,77
377,082	7,03
377,337	5,83
377,591	2,92
377,846	4,97
378,1	8,1
378,355	7,18
378,609	5,69
378,863	1,97
379,118	2,62
379,372	0,57
379,627	-1,58
379,881	-3,7
380,135	-4,03
380,389	-5,1
380,644	-4,67
380,898	-2,63
381,152	-1,29
381,407	-1,06
381,661	1,27
381,915	3,02
382,169	2,4
382,423	-0,19
382,677	-4,3
382,932	-3,03
383,186	-2,24
383,44	-1,85
383,694	0,58
383,948	-2,6
384,202	-3,35
384,456	-0,95
384,71	1,42
384,964	-1,12
385,218	0,95
385,472	2,83
385,726	2,29
385,98	2,03
386,234	2,2
386,488	0,35
386,742	2,3
386,996	-0,33
387,249	1,14
387,503	3,38
387,757	5,43
388,011	6,78
388,265	6,3
388,518	7,31
388,772	9,02
389,026	10,25
389,28	6,19
389,533	5,23
389,787	7,13
390,041	5,26
390,295	5,9
390,548	5,99
390,802	9,6
391,055	7,3
391,309	6,19
391,563	3,54
391,816	5,18
392,07	2,25
392,323	2,47
392,577	3,14
392,83	5,03
393,084	10,32
393,337	13,52
393,591	13,78
393,844	13,53
394,098	18,38
394,351	22,86
394,604	24,75
394,858	26,92
395,111	27,57
395,364	25,46
395,618	27,74
395,871	24,84
396,124	24,04
396,378	22,66
396,631	22,79
396,884	19,92
397,137	20,97
397,391	22,39
397,644	19,37
397,897	20,74
398,15	22,51
398,403	26,35
398,657	24,37
398,91	24,33
399,163	26,05
399,416	26,52
399,669	25,18
399,922	26,39
400,175	30,02
400,428	37,64
400,681	46,61
400,934	54,14
401,187	66,27
401,44	78,25
401,693	85,75
401,946	88,54
402,199	87,68
402,452	89,03
402,704	86,83
402,957	84,87
403,21	87,91
403,463	86,58
403,716	89
403,969	90,03
404,221	89,92
404,474	92,84
404,727	97,18
404,98	99,48
405,232	99,83
405,485	101,27
405,738	102,41
405,99	102,76
406,243	101,75
406,496	103,87
406,748	104,5
407,001	103,52
407,253	102,35
407,506	102,76
407,759	103,86
408,011	95,97
408,264	88,4
408,516	79,68
408,769	64,75
409,021	51,23
409,274	39,68
409,526	32,96
409,778	25,74
410,031	25,02
410,283	21,84
410,536	26,87
410,788	25,05
411,04	22,6
411,293	23,34
411,545	22,51
411,797	21,42
412,049	20,94
412,302	21,07
412,554	21,14
412,806	19,58
413,058	16,36
413,311	17,86
413,563	17,06
413,815	16,01
414,067	14,79
414,319	12,73
414,571	13
414,823	10,22
415,075	10,28
415,328	11,55
415,58	14,14
415,832	16,31
416,084	16,63
416,336	14,47
416,588	19,36
416,84	17,04
417,091	20,36
417,343	17,49
417,595	19,71
417,847	21,56
418,099	23,05
418,351	20,83
418,603	25,01
418,855	27,02
419,106	27,47
419,358	27,42
419,61	28,32
419,862	29,91
420,114	26,84
420,365	25,66
420,617	24,7
420,869	23,51
421,12	21,51
421,372	22,33
421,624	22,6
421,875	21,62
422,127	19,03
422,379	18,92
422,63	21,73
422,882	20,38
423,133	19,62
423,385	19,12
423,636	19,84
423,888	22,62
424,139	25,67
424,391	21,87
424,642	20,54
424,894	17,05
425,145	16,55
425,396	13,73
425,648	14,74
425,899	12,39
426,151	13,69
426,402	11,52
426,653	11,4
426,905	10,98
427,156	9,02
427,407	8,22
427,658	6,35
427,91	4,24
428,161	3,25
428,412	6,85
428,663	8,49
428,914	10,09
429,166	10,39
429,417	9,43
429,668	8,93
429,919	7,58
430,17	6,9
430,421	8,13
430,672	12,9
430,923	14,17
431,174	16,88
431,425	33,88
431,676	56,56
431,927	83,45
432,178	122,76
432,429	163,63
432,68	193,92
432,931	221,16
433,182	241,03
433,433	251,14
433,683	260,88
433,934	263,88
434,185	264,93
434,436	263,07
434,687	263,64
434,937	267,19
435,188	266,31
435,439	266,27
435,69	268,19
435,94	267,55
436,191	266,95
436,442	266,36
436,692	264,31
436,943	261,25
437,194	261,06
437,444	263,52
437,695	266,27
437,945	267,98
438,196	266,14
438,447	262,46
438,697	260,76
438,948	255,24
439,198	234,68
439,449	205,5
439,699	176,43
439,949	139,06
440,2	98,15
440,45	68,18
440,701	42,14
440,951	22,96
441,201	10,52
441,452	1,63
441,702	-3,51
441,952	-4,33
442,203	-4,33
442,453	-7,47
442,703	-8,09
442,953	-7,3
443,204	-5,38
443,454	-8,53
443,704	-8,4
443,954	-13,16
444,204	-11,34
444,455	-9,33
444,705	-6,96
444,955	-6,76
445,205	-8,33
445,455	-10,45
445,705	-11,47
445,955	-11,93
446,205	-12,6
446,455	-11,47
446,705	-9,46
446,955	-7,65
447,205	-6,21
447,455	-5,64
447,705	-7,61
447,955	-8,01
448,205	-8,3
448,454	-9,21
448,704	-7,76
448,954	-10,37
449,204	-10,02
449,454	-10,62
449,704	-12,87
449,953	-13,44
450,203	-11,34
450,453	-12,74
450,703	-10,92
450,952	-12,89
451,202	-11,02
451,452	-11,57
451,701	-7,96
451,951	-6,45
452,201	-6,98
452,45	-8,35
452,7	-7,79
452,949	-8,34
453,199	-8,04
453,448	-6,89
453,698	-5,78
453,947	-6,37
454,197	-7,24
454,446	-8,54
454,696	-4,66
454,945	-4,54
455,195	-5,37
455,444	-4,05
455,693	-0,46
455,943	-0,77
456,192	1,64
456,442	1,64
456,691	3,26
456,94	2,24
457,189	1,69
457,439	5,21
457,688	6,36
457,937	6,25
458,186	5,83
458,436	4,93
458,685	6,94
458,934	5,98
459,183	5,93
459,432	8,87
459,681	9,36
459,93	8,33
460,179	8,02
460,429	6,76
460,678	9,78
460,927	13,62
461,176	13,22
461,425	12,07
461,674	14,84
461,923	15,37
462,172	15,34
462,42	12,39
462,669	16,39
462,918	15,93
463,167	15
463,416	11,58
463,665	12,3
463,914	12,72
464,162	10,6
464,411	11,28
464,66	12,63
464,909	11,21
465,158	10,83
465,406	10,75
465,655	11,96
465,904	14,53
466,152	15
466,401	14,11
466,65	16,4
466,898	15,26
467,147	10,69
467,395	9,01
467,644	10,67
467,893	11,34
468,141	11,07
468,39	7,85
468,638	4,58
468,887	3,23
469,135	3,59
469,384	2,97
469,632	3,33
469,88	2,63
470,129	4,71
470,377	-0,56
470,626	2,88
470,874	5,41
471,122	7,24
471,371	5,44
471,619	4,14
471,867	8,24
472,115	7,01
472,364	5,4
472,612	8,62
472,86	7,3
473,108	8,71
473,356	8
473,605	6,22
473,853	3,29
474,101	2,82
474,349	1,6
474,597	4,63
474,845	4,02
475,093	2,84
475,341	1,87
475,589	1,36
475,837	2,76
476,085	5,43
476,333	4,53
476,581	6,75
476,829	6,12
477,077	10,75
477,325	12,9
477,573	15,1
477,821	13,45
478,069	16,63
478,317	16,57
478,564	19,02
478,812	20,58
479,06	22,51
479,308	23,61
479,555	26,91
479,803	30,49
480,051	36,46
480,299	41,73
480,546	46,55
480,794	50,08
481,042	58,08
481,289	65,23
481,537	75,3
481,784	83,64
482,032	96,54
482,28	106,07
482,527	115,45
482,775	128,26
483,022	140,45
483,27	154,05
483,517	170,01
483,765	180,31
484,012	193,36
484,259	202,81
484,507	216,91
484,754	226,4
485,002	235,01
485,249	244,28
485,496	257,62
485,744	267,13
485,991	275,11
486,238	280,8
486,486	290,27
486,733	297,42
486,98	306,79
487,227	309,23
487,474	316,75
487,722	323,62
487,969	325,11
488,216	329,48
488,463	332,1
488,71	331,37
488,957	331,97
489,204	330,75
489,451	330,32
489,699	327,36
489,946	320,87
490,193	315,65
490,44	310,35
490,687	304,91
490,934	296,61
491,18	285,72
491,427	280,75
491,674	276,2
491,921	269,72
492,168	261,93
492,415	252,41
492,662	247,13
492,909	243,24
493,155	234,9
493,402	226,87
493,649	220,05
493,896	216,94
494,142	207,43
494,389	201,62
494,636	194,67
494,883	188,16
495,129	180,09
495,376	171,48
495,623	167,31
495,869	163,14
496,116	158,95
496,362	155,59
496,609	151,92
496,855	151,8
497,102	145,84
497,348	139,12
497,595	135,51
497,841	136,91
498,088	131,21
498,334	124,62
498,581	118,67
498,827	115,76
499,074	113,07
499,32	110,17
499,566	110,05
499,813	105,83
500,059	100,53
500,305	95,64
500,552	90,14
500,798	86,27
501,044	87
501,29	81,31
501,537	74,93
501,783	75,29
502,029	75,99
502,275	69,25
502,521	64,78
502,767	62,6
503,013	63,06
503,26	57,07
503,506	48,91
503,752	48,3
503,998	44,08
504,244	42,2
504,49	36,92
504,736	37,35
504,982	34,41
505,228	34,62
505,474	31,73
505,72	30,47
505,966	30,48
506,211	32,32
506,457	29,51
506,703	23,82
506,949	19,79
507,195	15,69
507,441	13,17
507,686	15,46
507,932	15,17
508,178	15,45
508,424	12,93
508,669	9,04
508,915	10
509,161	9,8
509,406	8,94
509,652	7,03
509,898	10,5
510,143	12,32
510,389	10,74
510,634	5,51
510,88	10,06
511,125	14,03
511,371	13,51
511,616	13,69
511,862	10,08
512,107	7,41
512,353	7,01
512,598	7,34
512,844	5,08
513,089	3,38
513,335	4,89
513,58	3,63
513,825	3,72
514,071	2,58
514,316	2,8
514,561	3,45
514,806	2,75
515,052	4,52
515,297	1,97
515,542	1,89
515,787	3,15
516,033	4,31
516,278	4,91
516,523	3,5
516,768	2,73
517,013	0,51
517,258	-0,44
517,503	-1,16
517,748	-1,8
517,993	-2,06
518,238	-2,6
518,483	-5,45
518,728	-5,62
518,973	-9,75
519,218	-10,05
519,463	-9,34
519,708	-9,68
519,953	-11,31
520,198	-10,42
520,443	-6,52
520,688	-3,34
520,933	-4,23
521,177	-4,33
521,422	-5,76
521,667	-2,59
521,912	-1,37
522,157	-5,25
522,401	-1,68
522,646	-1,97
522,891	0,7
523,135	1,88
523,38	1,91
523,625	1,17
523,869	2,59
524,114	4,4
524,358	3,98
524,603	4,01
524,848	2,3
525,092	2,13
525,337	3,69
525,581	6,17
525,826	10,05
526,07	10,74
526,315	11,94
526,559	13,27
526,803	11,09
527,048	15,31
527,292	15,46
527,537	14,88
527,781	14,14
528,025	10,83
528,269	11,57
528,514	12,87
528,758	11,8
529,002	12,16
529,247	16,42
529,491	16,45
529,735	23,52
529,979	23,86
530,223	27,99
530,467	25,5
530,712	26,34
530,956	25,96
531,2	29,76
531,444	29,68
531,688	32,54
531,932	34,88
532,176	38,39
532,42	42
532,664	45,99
532,908	47,62
533,152	49,43
533,396	52,94
533,64	57,2
533,884	58,98
534,128	64,47
534,371	73,99
534,615	83,86
534,859	92,7
535,103	101,79
535,347	111,43
535,59	122,81
535,834	132,53
536,078	148,48
536,322	168,81
536,565	191,06
536,809	211,43
537,053	240,45
537,296	271,74
537,54	309,63
537,784	353,06
538,027	405,92
538,271	457,22
538,514	511,2
538,758	565,13
539,001	617,27
539,245	670,17
539,488	720,94
539,732	771,91
539,975	819,76
540,219	867,33
540,462	912,27
540,706	958,35
540,949	999,43
541,192	1041,16
541,436	1090,11
541,679	1146,64
541,922	1211,33
542,166	1277,3
542,409	1357,75
542,652	1442,66
542,895	1527,61
543,139	1599,74
543,382	1665,01
543,625	1714,97
543,868	1758,15
544,111	1791,61
544,354	1815,26
544,598	1828,89
544,841	1833,08
545,084	1826,32
545,327	1808,37
545,57	1786,02
545,813	1759,78
546,056	1727,02
546,299	1694,17
546,542	1662,1
546,785	1629,06
547,028	1596,27
547,271	1559,71
547,514	1523,76
547,756	1486,03
547,999	1451,36
548,242	1416,62
548,485	1379,95
548,728	1346,21
548,971	1302,55
549,213	1254,48
549,456	1189,65
549,699	1118,43
549,942	1036,33
550,184	949,54
550,427	861,73
550,67	785,97
550,912	712,18
551,155	652,2
551,398	595,27
551,64	544,09
551,883	499,2
552,125	459,34
552,368	424,62
552,61	390,73
552,853	365,68
553,095	337,45
553,338	312,78
553,58	291,87
553,823	268,6
554,065	251,81
554,308	230,45
554,55	211,7
554,792	195,14
555,035	181,63
555,277	167,99
555,519	156,62
555,762	144,26
556,004	135,12
556,246	120,88
556,488	113,54
556,731	101,27
556,973	96,05
557,215	86,9
557,457	82,91
557,699	79,17
557,941	71,52
558,183	65,56
558,426	63,43
558,668	55,94
558,91	52,07
559,152	48,69
559,394	45,42
559,636	43,2
559,878	42,1
560,12	40,11
560,362	38,75
560,604	37,45
560,845	34,77
561,087	32,21
561,329	33,53
561,571	28,76
561,813	27,91
562,055	25,69
562,297	25,72
562,538	25,27
562,78	27,43
563,022	24,21
563,264	24,02
563,505	22,97
563,747	22,28
563,989	19,75
564,23	19,15
564,472	16,53
564,714	19,82
564,955	19,44
565,197	15,21
565,438	16,69
565,68	18,93
565,921	15,92
566,163	15,98
566,404	15,43
566,646	17,37
566,887	19,61
567,129	20,07
567,37	16,44
567,612	18,41
567,853	15,71
568,094	16,72
568,336	15,81
568,577	15,84
568,818	14,78
569,06	13,75
569,301	11,25
569,542	11,16
569,783	11,09
570,025	10,63
570,266	11,29
570,507	12,82
570,748	11,1
570,989	13,64
571,23	17,23
571,472	16,35
571,713	14,59
571,954	15,16
572,195	13,55
572,436	15,73
572,677	20,89
572,918	26,57
573,159	29,8
573,4	36,31
573,641	44,31
573,882	50,94
574,123	54,51
574,364	53,56
574,604	59,29
574,845	64,61
575,086	72,24
575,327	79,89
575,568	86,94
575,809	95,19
576,049	102,01
576,29	106,96
576,531	119,3
576,771	130,46
577,012	139,39
577,253	147,15
577,494	152,41
577,734	157,03
577,975	163,79
578,215	168,48
578,456	170,76
578,697	175,25
578,937	182,32
579,178	188,79
579,418	193,35
579,659	198,41
579,899	199,66
580,14	201,92
580,38	203,08
580,62	204,12
580,861	206,67
581,101	204,43
581,342	203,31
581,582	198,24
581,822	201,73
582,063	200,67
582,303	200,89
582,543	198,76
582,783	199,18
583,024	199,53
583,264	201,23
583,504	201,41
583,744	206,55
583,984	205,44
584,224	207,97
584,465	208,93
584,705	210,27
584,945	213,05
585,185	213,84
585,425	214,94
585,665	215,6
585,905	214,71
586,145	214,21
586,385	211,23
586,625	212,19
586,865	209,62
587,105	207,77
587,345	206,03
587,585	204,11
587,824	199,32
588,064	196,87
588,304	193,16
588,544	190,92
588,784	188,22
589,024	192,07
589,263	191,96
589,503	191,71
589,743	195,48
589,982	196,16
590,222	196,09
590,462	193,66
590,701	190,8
590,941	190,57
591,181	184,14
591,42	178,8
591,66	175,62
591,899	173,58
592,139	168,19
592,378	163,52
592,618	157,55
592,857	153,12
593,097	150,88
593,336	148,48
593,576	144,1
593,815	144,71
594,055	141,17
594,294	141,18
594,533	139,1
594,773	138,12
595,012	138,16
595,251	138,66
595,491	140,47
595,73	142,6
595,969	143,45
596,208	144,06
596,447	146,17
596,687	144,83
596,926	142,85
597,165	136,2
597,404	135,41
597,643	128,83
597,882	123,08
598,121	120,5
598,36	117,37
598,599	115,88
598,838	113
599,077	106,5
599,316	104,5
599,555	102,24
599,794	100,77
600,033	101,17
600,272	101,41
600,511	97,97
600,75	97,92
600,989	99,84
601,228	99,06
601,466	98,11
601,705	97,62
601,944	98,17
602,183	99,01
602,422	96,89
602,66	93,5
602,899	90,96
603,138	88,39
603,376	86,49
603,615	85,44
603,854	81,42
604,092	80,07
604,331	82,01
604,569	83,07
604,808	81,66
605,047	86,14
605,285	88,62
605,524	89,44
605,762	90,71
606	97,03
606,239	104,49
606,477	114,82
606,716	124,27
606,954	143,6
607,193	168,76
607,431	201,9
607,669	244,02
607,908	291,87
608,146	345,2
608,384	395,04
608,622	441,58
608,861	486,13
609,099	526,46
609,337	562,56
609,575	594,88
609,813	625,17
610,052	653,9
610,29	674,12
610,528	692,8
610,766	710,52
611,004	726,75
611,242	741,59
611,48	754,31
611,718	762,24
611,956	772,94
612,194	780,09
612,432	786,04
612,67	791,48
612,908	799,37
613,146	800,1
613,384	799,43
613,621	796,28
613,859	791,8
614,097	781,1
614,335	763,8
614,573	741,35
614,811	709,47
615,048	666,87
615,286	621,99
615,524	571,58
615,761	520,17
615,999	473,53
616,237	430,68
616,474	391,64
616,712	358,12
616,95	324,4
617,187	295,3
617,425	269,57
617,662	247,29
617,9	226,83
618,137	207,46
618,375	190,15
618,612	172,85
618,85	162,99
619,087	155,04
619,325	143,29
619,562	132,96
619,799	123,79
620,037	116,66
620,274	108,56
620,511	105,95
620,749	99,13
620,986	94,73
621,223	90,08
621,461	90,08
621,698	91,15
621,935	89,39
622,172	88,14
622,409	90,35
622,647	91,07
622,884	89,62
623,121	93,2
623,358	93,22
623,595	93,53
623,832	94,96
624,069	93,29
624,306	95,1
624,543	97,84
624,78	100,27
625,017	101,13
625,254	104,11
625,491	105,97
625,728	108,56
625,965	109,12
626,202	107,59
626,438	106,19
626,675	106,58
626,912	109,98
627,149	112,25
627,386	115,26
627,622	116,48
627,859	119,06
628,096	122,46
628,333	123,87
628,569	125,89
628,806	128,18
629,043	127,97
629,279	128,92
629,516	131,01
629,752	126,99
629,989	126,1
630,225	123,45
630,462	119,96
630,699	119,03
630,935	115,78
631,171	111,37
631,408	107,73
631,644	103,82
631,881	98,14
632,117	92,88
632,354	91,35
632,59	87,79
632,826	85,6
633,063	81,69
633,299	80,11
633,535	75,32
633,771	71,61
634,008	71,58
634,244	67,03
634,48	62,71
634,716	58,84
634,953	52,64
635,189	46,97
635,425	43,77
635,661	42,86
635,897	37,55
636,133	32,47
636,369	28,14
636,605	21,49
636,841	18,32
637,077	18,3
637,313	17,31
637,549	16,66
637,785	14,13
638,021	13,58
638,257	12,54
638,493	14,09
638,729	11,86
638,965	15,33
639,2	16,86
639,436	15,76
639,672	15,13
639,908	11,9
640,144	16,09
640,379	18,61
640,615	17,58
640,851	19,98
641,086	21,59
641,322	20,44
641,558	21,31
641,793	21,3
642,029	19,29
642,264	18,67
642,5	18,5
642,736	14,95
642,971	15,8
643,207	13,9
643,442	13,96
643,678	13,71
643,913	15,8
644,148	14,68
644,384	16,69
644,619	14,77
644,855	15,64
645,09	18,35
645,325	19,04
645,561	20,55
645,796	17,47
646,031	23,38
646,266	21,13
646,502	20,84
646,737	24,66
646,972	25,73
647,207	27,44
647,442	25,79
647,678	23,8
647,913	27,34
648,148	28,49
648,383	28,1
648,618	28,14
648,853	29,67
649,088	31,03
649,323	34,59
649,558	36,88
649,793	37,85
650,028	39,75
650,263	36,04
650,498	38,95
650,733	37,68
650,968	37,75
651,202	39,34
651,437	37,26
651,672	33,29
651,907	33,1
652,142	34,64
652,376	35,16
652,611	35,85
652,846	36,42
653,081	37,78
653,315	34,91
653,55	34,94
653,785	33,1
654,019	31,91
654,254	29,34
654,488	29,19
654,723	25,02
654,958	21,62
655,192	18,83
655,427	14,12
655,661	14,11
655,896	15,24
656,13	15,49
656,364	13,5
656,599	10,51
656,833	13,08
657,068	14,71
657,302	13,99
657,536	12,35
657,771	12,84
658,005	13,78
658,239	14,1
658,474	12,41
658,708	14,18
658,942	16,32
659,176	15,22
659,41	11,69
659,645	11,21
659,879	10,15
660,113	6,7
660,347	6,27
660,581	4,86
660,815	3,74
661,049	4,02
661,283	1,57
661,517	0,21
661,751	0,73
661,985	-0,1
662,219	2,46
662,453	1,64
662,687	5,15
662,921	0,67
663,155	0,7
663,389	-5,85
663,622	-7,38
663,856	-6,05
664,09	-9,84
664,324	-10,59
664,558	-9,68
664,791	-10,44
665,025	-10,27
665,259	-10,53
665,492	-11,21
665,726	-8,42
665,96	-8,8
666,193	-12,48
666,427	-11,36
666,661	-10,52
666,894	-13,56
667,128	-14,19
667,361	-11,8
667,595	-12,09
667,828	-12,35
668,062	-12,06
668,295	-12,27
668,529	-9,59
668,762	-8,43
668,995	-10,42
669,229	-6,8
669,462	-6,58
669,695	-6,28
669,929	-8,63
670,162	-6,4
670,395	-9,11
670,629	-5,34
670,862	-3,64
671,095	-7,23
671,328	-6,15
671,561	-8,39
671,795	-8,19
672,028	-5,68
672,261	-5,72
672,494	-5,92
672,727	-7,78
672,96	-6,9
673,193	-7,27
673,426	-2,42
673,659	-1,76
673,892	-1,37
674,125	0,36
674,358	0,83
674,591	1,03
674,824	1,25
675,057	1,27
675,29	-0,27
675,523	1,31
675,755	-1,91
675,988	-1,38
676,221	2,58
676,454	0,79
676,687	1,27
676,919	1,33
677,152	1,02
677,385	1,25
677,617	2,19
677,85	2,36
678,083	1,77
678,315	4,48
678,548	2,83
678,78	2,08
679,013	0,97
679,246	1,54
679,478	2,8
679,711	1,65
679,943	4,75
680,175	1,67
680,408	5,99
680,64	2,26
680,873	3,38
681,105	3,44
681,338	5,66
681,57	5,44
681,802	6,16
682,034	5,69
682,267	8,51
682,499	10,05
682,731	7,83
682,964	9,05
683,196	6,79
683,428	4,81
683,66	3,74
683,892	8,15
684,124	10,95
684,356	15,96
684,589	16,51
684,821	16,66
685,053	15,86
685,285	17,43
685,517	20,11
685,749	20,8
685,981	22,56
686,213	24,2
686,445	24,85
686,676	21,45
686,908	23,4
687,14	22,26
687,372	23,09
687,604	19,3
687,836	21,31
688,068	20,89
688,299	20,46
688,531	18,37
688,763	21,61
688,995	19,35
689,226	22,21
689,458	19,89
689,69	19,61
689,921	18,96
690,153	18,74
690,384	21,42
690,616	19,54
690,848	21,14
691,079	16,45
691,311	12,9
691,542	9,01
691,774	6,84
692,005	8,2
692,237	11,71
692,468	9,47
692,699	8,08
692,931	7,49
693,162	5,01
693,393	2,26
693,625	-0,25
693,856	0,5
694,087	0,02
694,319	1,29
694,55	-0,07
694,781	-0,91
695,012	-2,93
695,243	-4,7
695,475	-5,23
695,706	-5,19
695,937	-6,38
696,168	-6,39
696,399	-8,54
696,63	-8,94
696,861	-10,16
697,092	-5,62
697,323	-2,95
697,554	-2,68
697,785	-2,05
698,016	-1,8
698,247	-2,94
698,478	-1,08
698,709	-1,15
698,94	3,23
699,171	3,24
699,401	-2,1
699,632	-0,7
699,863	-4,13
700,094	-3,86
700,325	-0,7
700,555	2,46
700,786	4,64
701,017	6,79
701,247	6,26
701,478	6,09
701,709	7,18
701,939	6,87
702,17	10,57
702,401	14
702,631	15,76
702,862	14,08
703,092	11,45
703,323	16,46
703,553	19,77
703,784	22,55
704,014	25,58
704,244	22,49
704,475	24,28
704,705	25,97
704,936	29,2
705,166	30,06
705,396	33,47
705,627	34,74
705,857	38,1
706,087	39,31
706,317	38,54
706,548	40,28
706,778	40,89
707,008	42,05
707,238	43,09
707,468	42,53
707,698	40,24
707,928	40,08
708,158	38,84
708,389	38,99
708,619	38,55
708,849	39,34
709,079	42,86
709,309	41,56
709,539	39,84
709,768	41,01
709,998	45
710,228	44,93
710,458	42,28
710,688	37,96
710,918	36,12
711,148	34,06
711,378	33,13
711,607	29,23
711,837	28,97
712,067	27,09
712,297	25,62
712,526	23,73
712,756	22,4
712,986	16,7
713,215	11,72
713,445	11,54
713,674	11,03
713,904	9,19
714,134	13,1
714,363	11,81
714,593	9,82
714,822	9,17
715,052	8,44
715,281	8,8
715,511	8,02
715,74	7,47
715,969	3,86
716,199	0,51
716,428	-0,82
716,657	-3,58
716,887	-2,35
717,116	-6,61
717,345	-5,8
717,575	-7,36
717,804	-5,68
718,033	-6,18
718,262	-7,39
718,492	-5,59
718,721	-6,14
718,95	-7,94
719,179	-10,95
719,408	-11,07
719,637	-14,34
719,866	-16,4
720,095	-13,89
720,324	-14,73
720,553	-18,9
720,782	-20,16
721,011	-20,56
721,24	-24,57
721,469	-26,06
721,698	-26,43
721,927	-25,76
722,156	-26,73
722,385	-28,01
722,613	-25,31
722,842	-24,82
723,071	-20,65
723,3	-19,01
723,529	-19,41
723,757	-17,52
723,986	-21,8
724,215	-21,47
724,443	-19,01
724,672	-16,06
724,901	-16
725,129	-14,74
725,358	-12,33
725,586	-15,42
725,815	-16,09
726,043	-17,34
726,272	-17,77
726,5	-18,38
726,729	-17,5
726,957	-20,31
727,186	-21,95
727,414	-21,31
727,642	-19,21
727,871	-16,35
728,099	-15,08
728,327	-14,58
728,556	-11,24
728,784	-9,89
729,012	-12,36
729,241	-10,11
729,469	-10,33
729,697	-12,32
729,925	-11,58
730,153	-14,24
730,381	-14,68
730,61	-14,15
730,838	-17,18
731,066	-15,96
731,294	-16,09
731,522	-20,13
731,75	-25,79
731,978	-26,56
732,206	-27,71
732,434	-28,54
732,662	-27,59
732,89	-28,16
733,118	-29,56
733,346	-29,13
733,573	-28,48
733,801	-26,87
734,029	-18,94
734,257	-18,44
734,485	-13,2
734,712	-11,15
734,94	-13,87
735,168	-11,99
735,396	-10,8
735,623	-12,09
735,851	-11,31
736,078	-8,56
736,306	-8,11
736,534	-8,14
736,761	-8,09
736,989	-10,93
737,216	-11,24
737,444	-12,86
737,671	-12,75
737,899	-6,7
738,126	-7,9
738,354	-7,94
738,581	-7,96
738,809	-6,36
739,036	-7,21
739,263	-5,62
739,491	-7,58
739,718	-7,47
739,945	-2,24
740,173	0,9
740,4	0,76
740,627	-0,89
740,854	-1,24
741,081	-3,96
741,309	-5,59
741,536	-10,52
741,763	-12,06
741,99	-9,92
742,217	-11,06
742,444	-12,08
742,671	-10,33
742,898	-10,86
743,125	-13,34
743,352	-16,8
743,579	-17,58
743,806	-17,87
744,033	-15,19
744,26	-13,72
744,487	-14,23
744,714	-14,29
744,941	-15,03
745,167	-11,03
745,394	-11,93
745,621	-11,8
745,848	-10,21
746,075	-9,45
746,301	-7,11
746,528	-2,49
746,755	-3,96
746,981	-5,26
747,208	-2,69
747,435	-0,29
747,661	0,48
747,888	1,83
748,114	-0,64
748,341	2,94
748,567	5,05
748,794	1,62
749,02	-0,07
749,247	-2,48
749,473	-3,96
749,7	-5,23
749,926	-5
750,152	-0,1
750,379	0,57
750,605	0,7
750,831	-0,11
751,058	-0,61
751,284	-1,94
751,51	0,13
751,737	1,35
751,963	-0,99
752,189	-3,17
752,415	-3,14
752,641	-3,38
752,867	-3,64
753,094	-4,17
753,32	-5,99
753,546	-8,28
753,772	-5,56
753,998	-7,31
754,224	-9,31
754,45	-10,35
754,676	-10,29
754,902	-12,66
755,128	-11,14
755,354	-13,1
755,579	-11,83
755,805	-7,86
756,031	-8,53
756,257	-8,55
756,483	-8,74
756,709	-10,44
756,934	-11,77
757,16	-14,08
757,386	-14,22
757,612	-16,44
757,837	-17,4
758,063	-15,92
758,289	-12,73
758,514	-13,98
758,74	-17,34
758,965	-20,77
759,191	-18,75
759,416	-17,46
759,642	-14,87
759,868	-15,2
760,093	-13,21
760,318	-15,75
760,544	-15,46
760,769	-16,9
760,995	-17,26
761,22	-18,49
761,445	-14,62
761,671	-12,25
761,896	-9,5
762,121	-10,27
762,347	-9,14
762,572	-12,84
762,797	-13,07
763,022	-12,42
763,248	-8,03
763,473	-7,69
763,698	-8,21
763,923	-6,53
764,148	-7,14
764,373	-6,58
764,598	-3,84
764,823	-0,87
765,048	-3,61
765,273	-8,17
765,498	-9,02
765,723	-7,24
765,948	-4,84
766,173	-6,91
766,398	-5,75
766,623	-9,49
766,848	-9,23
767,073	-12,58
767,298	-11,57
767,522	-12,46
767,747	-11,26
767,972	-11,06
768,197	-10,1
768,421	-14,13
768,646	-18,26
768,871	-20,69
769,095	-19,72
769,32	-20,07
769,545	-19,63
769,769	-18,94
769,994	-17,91
770,218	-19,93
770,443	-17,31
770,667	-16,1
770,892	-16,38
771,116	-16,74
771,341	-14,96
771,565	-15,17
771,79	-16,12
772,014	-15,95
772,238	-15
772,463	-12,57
772,687	-12,55
772,911	-11,93
773,136	-14,23
773,36	-13,98
773,584	-11,13
773,808	-13,87
774,033	-12,1
774,257	-12,69
774,481	-12,49
774,705	-13,97
774,929	-14,22
775,153	-14,13
775,377	-11,56
775,602	-10,93
775,826	-8,51
776,05	-7,42
776,274	-7,82
776,498	-8,09
776,722	-8,74
776,945	-8,08
777,169	-8,88
777,393	-10,57
777,617	-11,39
777,841	-10,74
778,065	-9,74
778,289	-10,26
778,512	-11,01
778,736	-10,05
778,96	-9,89
779,184	-8,23
779,407	-9,21
779,631	-8,27
779,855	-10,15
780,078	-7,93
780,302	-8,97
780,526	-12,21
780,749	-11,37
780,973	-9,8
781,196	-8,86
781,42	-10,71
781,643	-9,33
781,867	-8,2
782,09	-10,45
782,314	-12,25
782,537	-12,41
782,76	-13,78
782,984	-11,62
783,207	-11,4
783,431	-10,5
783,654	-10,87
783,877	-14,38
784,1	-15,17
784,324	-16,38
784,547	-16,64
784,77	-19,76
784,993	-20,15
785,216	-23,1
785,44	-21,81
785,663	-23,6
785,886	-21,53
786,109	-21,11
786,332	-21,25
786,555	-20,74
786,778	-17,81
787,001	-18,68
787,224	-17,31
787,447	-14,66
787,67	-13,37
787,893	-13,91
788,116	-13,88
788,339	-12,17
788,561	-13,39
788,784	-16,87
789,007	-17,46
789,23	-18,16
789,453	-18,67
789,675	-21,07
789,898	-24,88
790,121	-27,77
790,344	-29,11
790,566	-29,59
790,789	-27,66
791,012	-26,68
791,234	-22,24
791,457	-17,47
791,679	-16,7
791,902	-18,29
792,124	-16,23
792,347	-17,92
792,569	-18,43
792,792	-22,02
793,014	-21,05
793,237	-18,83
793,459	-19,59
793,681	-20,54
793,904	-19,88
794,126	-21,05
794,348	-20,81
794,571	-19,92
794,793	-20,88
795,015	-20,44
795,237	-21,33
795,46	-19,26
795,682	-18,71
795,904	-15,56
796,126	-17,28
796,348	-17,86
796,57	-13,78
796,792	-11,89
797,014	-6,32
797,237	-3,32
797,459	-0,18
797,681	0,76
797,903	-1,37
798,124	-2,63
798,346	6,88
798,568	8,88
798,79	13,66
799,012	15,06
799,234	16,15
799,456	17,92
799,678	20,36
799,899	18,87
800,121	15
800,343	13,74
800,565	14,93
800,786	16,11
801,008	17,1
801,23	15,4
801,451	16,69
801,673	15
801,895	14,67
802,116	16,27
802,338	16,65
802,559	17,49
802,781	15,9
803,002	17,98
803,224	21,44
803,445	18,24
803,667	18,99
803,888	16,01
804,109	14,46
804,331	12,73
804,552	12,22
804,773	15,04
804,995	11,81
805,216	-2,07
805,437	-4,2
805,658	-7,92
805,88	-9,38
806,101	-8,69
806,322	-8,56
806,543	-9,83
806,764	-12,12
806,985	-10,24
807,207	-9,6
807,428	-10,97
807,649	-15,67
807,87	-17,08
808,091	-15,8
808,312	-15,31
808,533	-9,79
808,754	-8,89
808,975	-11,52
809,195	-10,33
809,416	-9,94
809,637	-12,32
809,858	-12,61
810,079	-14,47
810,3	-11,65
810,52	-12,22
810,741	-13,73
810,962	-13,84
811,183	-13,41
811,403	-13,03
811,624	-13,38
811,845	-11,61
812,065	-8,98
812,286	-8,5
812,506	-7,85
812,727	-9,4
812,948	-8,2
813,168	-6,42
813,389	-6,96
813,609	-5,03
813,83	-5,8
814,05	-6,04
814,27	-5,53
814,491	-0,24
814,711	-1,11
814,931	-3,37
815,152	-5,51
815,372	-9,04
815,592	-8,22
815,813	-9,04
816,033	-11,48
816,253	-10,41
816,473	-11,04
816,694	-10,83
816,914	-9,19
817,134	-10,32
817,354	-12,92
817,574	-11,39
817,794	-11,99
818,014	-14,07
818,234	-14,44
818,454	-16,74
818,674	-18,23
818,894	-22,32
819,114	-20,68
819,334	-21,29
819,554	-18,55
819,774	-16,75
819,994	-20,07
820,214	-20,1
820,433	-19,49
820,653	-19,35
820,873	-16,49
821,093	-15,49
821,312	-20,01
821,532	-18,42
821,752	-15,2
821,972	-15,93
822,191	-14,4
822,411	-17,73
822,63	-15,39
822,85	-14,1
823,07	-16,6
823,289	-13,8
823,509	-15,58
823,728	-13,9
823,948	-15,79
824,167	-15,6
824,387	-17,25
824,606	-15,46
824,825	-16,79
825,045	-17,64
825,264	-17,47
825,483	-15,57
825,703	-13,13
825,922	-13,87
826,141	-15,42
826,361	-16,27
826,58	-20,33
826,799	-21,03
827,018	-19,7
827,237	-19,95
827,456	-17,54
827,676	-18,27
827,895	-19,48
828,114	-16,56
828,333	-15,74
828,552	-16,92
828,771	-15,91
828,99	-18,42
829,209	-17,9
829,428	-15,92
829,647	-16,53
829,866	-15,18
830,084	-15,85
830,303	-15,95
830,522	-17,74
830,741	-16,86
830,96	-16,01
831,179	-14,47
831,397	-17,8
831,616	-17,42
831,835	-17,25
832,053	-15,84
832,272	-16,08
832,491	-15,2
832,709	-16,89
832,928	-14,8
833,147	-14,53
833,365	-13,78
833,584	-11,29
833,802	-10,51
834,021	-10,09
834,239	-10,62
834,458	-12,21
834,676	-14,84
834,894	-15,52
835,113	-17,61
835,331	-18,12
835,55	-19,11
835,768	-17,75
835,986	-15,22
836,204	-18,2
836,423	-17,55
836,641	-19,44
836,859	-20,31
837,077	-19,22
837,296	-18,86
837,514	-20,67
837,732	-20,87
837,95	-22,54
838,168	-18,56
838,386	-19,37
838,604	-15,71
838,822	-15,68
839,04	-16,42
839,258	-16,04
839,476	-13,94
839,694	-13,61
839,912	-15,16
840,13	-15,52
840,348	-12,46
840,566	-14,82
840,783	-13,81
841,001	-13,96
841,219	-13,01
841,437	-11,46
841,655	-10,77
841,872	-9,89
842,09	-10,8
842,308	-9,57
842,525	-10,77
842,743	-10,12
842,961	-10,61
843,178	-13,65
843,396	-9,99
843,613	-8,65
843,831	-6,32
844,048	-5,19
844,266	-4,27
844,483	-6,11
844,701	-6,7
844,918	-6,36
845,136	-6,24
845,353	-9,84
845,57	-8,77
845,788	-5,87
846,005	-8,62
846,222	-10,77
846,439	-10,54
846,657	-9,57
846,874	-8,96
847,091	-11,49
847,308	-7,96
847,526	-11,15
847,743	-12,01
847,96	-12,75
848,177	-11,63
848,394	-12,46
848,611	-14,05
848,828	-13,64
849,045	-14,04
849,262	-13,13
849,479	-14,47
849,696	-15,27
849,913	-15,88
850,13	-20
850,347	-17,21
850,564	-19,15
850,78	-22,29
850,997	-23,93
851,214	-23,36
851,431	-22,65
851,647	-26,36
851,864	-24,75
852,081	-22,24
852,298	-26,41
852,514	-28,51
852,731	-26,44
852,948	-23,74
853,164	-24,02
853,381	-24,31
853,597	-25,5
853,814	-27,74
854,03	-31,83
854,247	-28,63
854,463	-28
854,68	-28,36
854,896	-27,37
855,113	-27,12
855,329	-25,83
855,545	-24,05
855,762	-24,96
855,978	-27,08
856,194	-29,14
856,411	-24,56
856,627	-22,39
856,843	-20,82
857,059	-18,92
857,275	-20
857,492	-18,9
857,708	-14,21
857,924	-13,25
858,14	-11,02
858,356	-11,43
858,572	-11,41
858,788	-13,67
859,004	-12,36
859,22	-14,42
859,436	-13,76
859,652	-15,09
859,868	-16,68
860,084	-17,54
860,3	-17,16
860,516	-16,48
860,731	-15,53
860,947	-17,87
861,163	-16,64
861,379	-15,08
861,595	-14,93
861,81	-13,68
862,026	-13,81
862,242	-13,27
862,457	-13,24
862,673	-12,18
862,889	-10,46
863,104	-12,13
863,32	-10,29
863,535	-10,2
863,751	-15,28
863,966	-11,36
864,182	-9,71
864,397	-11,21
864,613	-12,03
864,828	-12,72
865,044	-10,64
865,259	-8,93
865,474	-8,38
865,69	-6,3
865,905	-5,02
866,12	-7,99
866,336	-10,11
866,551	-7,62
866,766	-6,95
866,981	-8,18
867,196	-9,02
867,412	-9,3
867,627	-8,98
867,842	-10,86
868,057	-13,29
868,272	-13,9
868,487	-16,03
868,702	-17,72
868,917	-20,12
869,132	-19,59
869,347	-18,54
869,562	-20,66
869,777	-21,63
869,992	-23,6
870,207	-23,29
870,422	-23,96
870,636	-26,87
870,851	-29,27
871,066	-32,03
871,281	-31,95
871,495	-34,35
871,71	-32,19
871,925	-35,74
872,14	-36,7
872,354	-37,98
872,569	-38,09
872,783	-35,72
872,998	-34,52
873,213	-35,31
873,427	-32,82
873,642	-31,33
873,856	-31,08
874,071	-29,92
874,285	-30,84
874,5	-32,33
874,714	-32,66
874,928	-33,82
875,143	-32,76
875,357	-32,93
875,571	-33,71
875,786	-33,23
876	-30,65
876,214	-29,11
876,429	-30,55
876,643	-28,75
876,857	-27,22
877,071	-25,48
877,285	-26,59
877,499	-28,68
877,714	-25,23
877,928	-23,1
878,142	-23,19
878,356	-25,84
878,57	-24,12
878,784	-23,67
878,998	-25,9
879,212	-24,43
879,426	-26,29
879,639	-24,49
879,853	-25,25
880,067	-26,81
880,281	-27,98
880,495	-26,91
880,709	-25,16
880,922	-24,4
881,136	-22,25
881,35	-20,97
881,564	-21,35
881,777	-23,28
881,991	-21,14
882,205	-16,85
882,418	-15,79
882,632	-18,83
882,845	-19,4
883,059	-17,65
883,273	-18,8
883,486	-20,59
883,7	-18,32
883,913	-17,98
884,126	-16,72
884,34	-20,27
884,553	-23,16
884,767	-20,82
884,98	-21,11
885,193	-21,89
885,407	-21,07
885,62	-17,44
885,833	-16,95
886,046	-15,57
886,26	-16,16
886,473	-17,73
886,686	-17,64
886,899	-16,4
887,112	-18,06
887,326	-20,24
887,539	-20,23
887,752	-19,3
887,965	-21,54
888,178	-19,92
888,391	-19,4
888,604	-19,9
888,817	-21,81
889,03	-20,4
889,243	-21,11
889,455	-22,51
889,668	-23,51
889,881	-20
890,094	-20,86
890,307	-22,4
890,52	-21,14
890,732	-19,53
890,945	-19,93
891,158	-19,63
891,37	-21,51
891,583	-20,59
891,796	-19,22
892,008	-20,95
892,221	-21,97
892,434	-26,04
892,646	-27,44
892,859	-28,75
893,071	-26,35
893,284	-24,61
893,496	-25,13
893,709	-23,35
893,921	-23,29
894,133	-23,67
894,346	-24,49
894,558	-24,01
894,771	-25,16
894,983	-22,6
895,195	-22,64
895,407	-21,83
895,62	-26,63
895,832	-26,38
896,044	-24,2
896,256	-24,37
896,468	-28,26
896,681	-26,21
896,893	-27,85
897,105	-27,62
897,317	-28,54
897,529	-25,76
897,741	-23,84
897,953	-21,04
898,165	-22,49
898,377	-24,38
898,589	-23,67
898,801	-24,7
899,013	-21,44
899,224	-17,37
899,436	-15,43
899,648	-16,12
899,86	-18,2
900,072	-14,62
900,283	-14,77
900,495	-13
900,707	-12,55
900,919	-16,06
901,13	-13,53
901,342	-15,59
901,554	-17,22
901,765	-16,6
901,977	-18,96
902,188	-18,79
902,4	-18,55
902,611	-20,92
902,823	-22,28
903,034	-23,65
903,246	-26
903,457	-25,74
903,669	-28,17
903,88	-28,63
904,091	-28,84
904,303	-29,55
904,514	-30,77
904,725	-28,85
904,936	-27,46
905,148	-27,18
905,359	-25,65
905,57	-26,68
905,781	-29,88
905,992	-29,97
906,204	-29,8
906,415	-30,49
906,626	-32,9
906,837	-30,06
907,048	-31,53
907,259	-32,62
907,47	-32,63
907,681	-35,23
907,892	-31,19
908,103	-32,2
908,314	-33,56
908,525	-30,94
908,735	-28,71
908,946	-29,3
909,157	-28,93
909,368	-27,28
909,579	-26,15
909,789	-27,88
910	-27,93
910,211	-23,66
910,421	-23,7
910,632	-23,69
910,843	-26,09
911,053	-21,43
911,264	-19,58
911,475	-20,08
911,685	-20,14
911,896	-19,67
912,106	-18,95
912,317	-19,9
912,527	-18,55
912,737	-17,97
912,948	-16,47
913,158	-16,4
913,369	-19,64
913,579	-17,65
913,789	-16,61
914	-11,44
914,21	-11,03
914,42	-10,8
914,63	-9,37
914,841	-9,59
915,051	-10,03
915,261	-11,1
915,471	-9,2
915,681	-7,97
915,891	-6,07
916,101	-7,02
916,311	-4,82
916,521	-4,09
916,731	-4,84
916,941	-3,38
917,151	-2,66
917,361	1,71
917,571	-3,77
917,781	-5,34
917,991	-7,01
918,201	-5,66
918,411	-8,53
918,621	-8,7
918,83	-8,38
919,04	-10,44
919,25	-8,56
919,46	-6,46
919,669	-9,3
919,879	-8,72
920,089	-11,3
920,298	-11,7
920,508	-13,28
920,717	-12,38
920,927	-15,17
921,136	-15,26
921,346	-15,28
921,555	-17,37
921,765	-16,73
921,974	-19,95
922,184	-22,06
922,393	-24,02
922,603	-25,2
922,812	-23,45
923,021	-24,17
923,23	-25,76
923,44	-27,62
923,649	-28,59
923,858	-30,64
924,067	-30,86
924,277	-33,79
924,486	-31,41
924,695	-32,86
924,904	-30,59
925,113	-31,15
925,322	-30,38
925,531	-30,2
925,74	-32,48
925,949	-33,93
926,158	-31,52
926,367	-32,79
926,576	-30,82
926,785	-32,8
926,994	-33,87
927,203	-32,67
927,412	-33,45
927,621	-34,52
927,83	-32,04
928,038	-32,33
928,247	-32,14
928,456	-31,1
928,665	-29,99
928,873	-27,42
929,082	-24,51
929,291	-24,19
929,499	-23,07
929,708	-24,04
929,916	-23,34
930,125	-25,17
930,333	-25,57
930,542	-22,76
930,75	-18,84
930,959	-19,11
931,167	-19,76
931,376	-20,4
931,584	-19,66
931,793	-19,19
932,001	-19,48
932,209	-21,94
932,418	-25,95
932,626	-27,28
932,834	-27,27
933,042	-31,49
933,251	-30,06
933,459	-29,16
933,667	-30,45
933,875	-29,09
934,083	-27,98
934,291	-26,6
934,499	-25,78
934,707	-26,04
934,915	-25,13
935,123	-22,77
935,331	-23,76
935,539	-25,83
935,747	-27,57
935,955	-28,01
936,163	-28,11
936,371	-26,89
936,579	-24,34
936,787	-24
936,995	-26,59
937,202	-29,02
937,41	-29,27
937,618	-29,4
937,826	-29,42
938,033	-31,96
938,241	-32,74
938,449	-30,98
938,656	-27,7
938,864	-25,95
939,071	-26,02
939,279	-23,52
939,486	-20,09
939,694	-20,57
939,901	-22,11
940,109	-21,81
940,316	-22,72
940,524	-23,33
940,731	-26,13
940,939	-24,12
941,146	-24,31
941,353	-26,22
941,561	-27,68
941,768	-29,21
941,975	-26,95
942,182	-27,46
942,39	-27,07
942,597	-22,72
942,804	-23,5
943,011	-24,21
943,218	-23,11
943,425	-22,15
943,632	-22,92
943,839	-24,11
944,046	-23,89
944,253	-22,9
944,46	-23,25
944,667	-20,12
944,874	-20,12
945,081	-19,8
945,288	-18,96
945,495	-17,04
945,702	-17,39
945,909	-19,5
946,115	-17,03
946,322	-18,02
946,529	-20,36
946,736	-19,69
946,942	-18,43
947,149	-18,92
947,356	-21,29
947,562	-22,8
947,769	-21,14
947,976	-21,44
948,182	-19,37
948,389	-21,11
948,595	-20,73
948,802	-20,23
949,008	-21,81
949,215	-21,31
949,421	-21
949,628	-23,41
949,834	-22,99
950,04	-23,01
950,247	-18,41
950,453	-17,04
950,659	-19,85
950,865	-17,76
951,072	-22,33
951,278	-20,13
951,484	-22,11
951,69	-24,55
951,896	-24,62
952,103	-26,29
952,309	-24,52
952,515	-26,08
952,721	-24,9
952,927	-22,03
953,133	-23,02
953,339	-24,62
953,545	-25,66
953,751	-24,21
953,957	-21,2
954,163	-22,48
954,369	-22,26
954,574	-25,39
954,78	-26,04
954,986	-24,19
955,192	-22,75
955,398	-25,85
955,603	-26,93
955,809	-26,56
956,015	-24,51
956,22	-24,82
956,426	-23,14
956,632	-26,11
956,837	-26,26
957,043	-24,63
957,248	-23,23
957,454	-22,08
957,66	-25,16
957,865	-24,4
958,07	-23,09
958,276	-24,9
958,481	-25,7
958,687	-25,99
958,892	-26,09
959,097	-25,66
959,303	-24,11
959,508	-24,89
959,713	-23,57
959,919	-23,48
960,124	-24,71
960,329	-26,03
960,534	-22,95
960,739	-20,88
960,945	-18,14
961,15	-17,6
961,355	-19,18
961,56	-23,71
961,765	-23,43
961,97	-23,41
962,175	-21,35
962,38	-26,04
962,585	-25,69
962,79	-27,01
962,995	-27,25
963,2	-27,79
963,404	-27,91
963,609	-30,71
963,814	-32,83
964,019	-34,28
964,224	-36,31
964,428	-34,24
964,633	-32,58
964,838	-32,09
965,042	-32,31
965,247	-32,63
965,452	-31,79
965,656	-32,44
965,861	-31,46
966,066	-34,13
966,27	-30,69
966,475	-25,23
966,679	-28,39
966,884	-28,18
967,088	-30,93
967,292	-30,84
967,497	-29,06
967,701	-29,88
967,906	-27,49
968,11	-23,93
968,314	-20,84
968,518	-22,71
968,723	-17,98
968,927	-16,58
969,131	-14,96
969,335	-12,73
969,539	-12,9
969,744	-11,92
969,948	-10,27
970,152	-7,79
970,356	-7,3
970,56	-5,87
970,764	-7,33
970,968	-6,14
971,172	-4,21
971,376	-4,46
971,58	-3,37
971,784	-3,45
971,988	-4,41
972,192	-0,42
972,395	-0,09
972,599	-2,56
972,803	-5,51
973,007	-3,29
973,21	-3,57
973,414	-4,59
973,618	-5,87
973,822	-7,1
974,025	-6,13
974,229	-5,97
974,432	-10,62
974,636	-11,78
974,84	-10,12
975,043	-10,87
975,247	-12,21
975,45	-13,17
975,654	-13,43
975,857	-13,12
976,06	-14,97
976,264	-15,37
976,467	-13,6
976,671	-14,56
976,874	-14,22
977,077	-14,84
977,28	-15,18
977,484	-18,36
977,687	-18,78
977,89	-18,16
978,093	-18,92
978,297	-18,49
978,5	-21,4
978,703	-20,04
978,906	-19,06
979,109	-20,74
979,312	-19,02
979,515	-20,64
979,718	-20,45
979,921	-20,83
980,124	-22,99
980,327	-23,43
980,53	-24,52
980,733	-21,59
980,936	-20,23
981,138	-22,04
981,341	-21,56
981,544	-21,63
981,747	-22,46
981,949	-25,23
982,152	-23,44
982,355	-23,95
982,558	-20,69
982,76	-24,46
982,963	-24,61
983,165	-25,6
983,368	-26,67
983,571	-29,02
983,773	-25,64
983,976	-25,6
984,178	-24,4
984,381	-25,12
984,583	-27,45
984,785	-27,39
984,988	-25,57
985,19	-24,23
985,392	-24,36
985,595	-27,55
985,797	-26,41
985,999	-23,6
986,202	-22
986,404	-22,08
986,606	-19,73
986,808	-20,59
987,01	-20,56
987,212	-21,81
987,415	-24,01
987,617	-23,69
987,819	-24,61
988,021	-24,14
988,223	-25,67
988,425	-27,08
988,627	-25,73
988,829	-30,84
989,031	-28,52
989,232	-29,21
989,434	-26,7
989,636	-25,86
989,838	-23,76
990,04	-22,37
990,242	-23,53
990,443	-25,47
990,645	-23,03
990,847	-20,09
991,048	-20,34
991,25	-21,69
991,452	-23,25
991,653	-24,41
991,855	-24,53
992,057	-25,58
992,258	-25,42
992,46	-24,96
992,661	-23,59
992,863	-25,29
993,064	-23,83
993,265	-24,74
993,467	-26,89
993,668	-24,14
993,87	-24,21
994,071	-24,09
994,272	-23,55
994,473	-20,62
994,675	-19,69
994,876	-19,29
995,077	-19,4
995,278	-18,51
995,48	-17,75
995,681	-20,24
995,882	-17,57
996,083	-18,94
996,284	-22,95
996,485	-22,49
996,686	-23,7
996,887	-24,93
997,088	-29,19
997,289	-30,28
997,49	-31,2
997,691	-31,18
997,892	-29,89
998,092	-24,26
998,293	-24,81
998,494	-25,05
998,695	-26,52
998,896	-24,92
999,096	-24,58
999,297	-25,24
999,498	-26,25
999,698	-28,67
999,899	-30,93
1000,1	-33,33
1000,3	-33,59
1000,501	-34,29
1000,701	-34,19
1000,902	-34,02
1001,102	-34,38
1001,303	-31,03
1001,503	-33,22
1001,704	-31,62
1001,904	-32,56
1002,105	-33,31
1002,305	-32,72
1002,505	-32,79
1002,706	-32,73
1002,906	-33,33
1003,106	-32,54
1003,306	-30,84
1003,507	-28,86
1003,707	-29,2
1003,907	-26,17
1004,107	-26,08
1004,307	-28,2
1004,507	-26,36
1004,707	-27,53
1004,907	-29,34
1005,107	-30,32
1005,308	-30,55
1005,507	-31,7
1005,707	-28,75
1005,907	-27,39
1006,107	-25,12
1006,307	-23,14
1006,507	-23,33
1006,707	-22,46
1006,907	-22,72
1007,106	-24,49
1007,306	-25,21
1007,506	-25,77
1007,706	-25,42
1007,905	-27,34
1008,105	-26,21
1008,305	-26,91
1008,504	-27,27
1008,704	-22,2
1008,903	-21,42
1009,103	-18,62
1009,303	-22,36
1009,502	-20,91
1009,702	-22,3
1009,901	-22,89
1010,1	-26,17
1010,3	-24,79
1010,499	-27,47
1010,699	-29,64
1010,898	-29,99
1011,097	-28,79
1011,296	-27,66
1011,496	-28,09
1011,695	-27,59
1011,894	-29,42
1012,093	-26,32
1012,293	-26,8
1012,492	-27,16
1012,691	-26,99
1012,89	-27,84
1013,089	-29,77
1013,288	-27,83
1013,487	-25,93
1013,686	-26,04
1013,885	-28,41
1014,084	-27,16
1014,283	-27,93
1014,482	-29,4
1014,681	-29,17
1014,88	-34,25
1015,078	-33,14
1015,277	-36,11
1015,476	-36,06
1015,675	-37,01
1015,873	-35,14
1016,072	-35,53
1016,271	-33,25
1016,47	-36,49
1016,668	-34,82
1016,867	-35,02
1017,065	-36,84
1017,264	-38,17
1017,463	-38,6
1017,661	-39,37
1017,86	-40,02
1018,058	-39,38
1018,256	-41,31
1018,455	-42,39
1018,653	-41,08
1018,852	-40,55
1019,05	-41,49
1019,248	-42,11
1019,447	-43,88
1019,645	-44,69
1019,843	-46,02
1020,041	-42,59
1020,24	-42,79
1020,438	-37,08
1020,636	-36,93
1020,834	-39,34
1021,032	-36,95
1021,23	-38,31
1021,428	-36,4
1021,626	-31,16
1021,824	-29,52
1022,022	-31,5
1022,22	-28,57
1022,418	-28,86
1022,616	-29,83
1022,814	-30,03
1023,012	-30,09
1023,21	-27,98
1023,408	-27,51
1023,606	-28,7
1023,803	-23,08
1024,001	-21,87
1024,199	-23,96
1024,397	-23,89
1024,594	-23,89
1024,792	-26,37
1024,99	-25,21
1025,187	-24,9
1025,385	-20,33
1025,582	-20,68
1025,78	-19,89
1025,977	-18,69
1026,175	-19,06
1026,372	-19,11
1026,57	-22,5
1026,767	-20,18
1026,965	-18,95
1027,162	-18,14
1027,359	-18,5
1027,557	-17,99
1027,754	-22,06
1027,951	-25,04
1028,148	-22,8
1028,346	-25,4
1028,543	-26,69
1028,74	-26,59
1028,937	-29,18
1029,134	-29,61
1029,331	-30,57
1029,528	-29,65
1029,725	-29,01
1029,923	-32,86
1030,12	-29,27
1030,317	-28,61
1030,513	-25,69
1030,71	-23,75
1030,907	-21,71
1031,104	-23,45
1031,301	-24,62
1031,498	-25
1031,695	-24,47
1031,892	-24,99
1032,088	-25,56
1032,285	-27,4
1032,482	-28,59
1032,678	-31,6
1032,875	-33,67
1033,072	-31,92
1033,268	-33,33
1033,465	-32,54
1033,662	-35,64
1033,858	-35,75
1034,055	-34,88
1034,251	-32,67
1034,448	-32,88
1034,644	-32,64
1034,84	-28,88
1035,037	-25,7
1035,233	-25,16
1035,43	-23,46
1035,626	-24,97
1035,822	-25,47
1036,019	-26,34
1036,215	-31,55
1036,411	-31,15
1036,607	-33,02
1036,803	-36,5
1037	-36,7
1037,196	-36,95
1037,392	-36,75
1037,588	-39,86
1037,784	-38,74
1037,98	-41,44
1038,176	-41,36
1038,372	-41,44
1038,568	-39,44
1038,764	-35,59
1038,96	-32,99
1039,156	-35,67
1039,352	-36,45
1039,547	-34,88
1039,743	-32,03
1039,939	-28,97
1040,135	-29,59
1040,331	-32,13
1040,526	-29,46
1040,722	-31,29
1040,918	-33,68
1041,113	-37,57
1041,309	-36,8
1041,505	-38,48
1041,7	-35,8
1041,896	-35,24
1042,091	-35,25
1042,287	-33,52
1042,482	-33,26
1042,678	-34,07
1042,873	-32,21
1043,069	-33,33
1043,264	-32,66
1043,459	-30,71
1043,655	-29,14
1043,85	-30,5
1044,045	-27,03
1044,24	-26,82
1044,436	-24,35
1044,631	-25,23
1044,826	-28,31
1045,021	-31,63
1045,216	-29,16
