Data from FLMT021711__5__18-14-20-688.txt Node

Date: Tue Nov 05 18:14:20 CET 2024
User: Etudiants TP
Spectrometer: FLMT02171
Trigger mode: 0
Integration Time (sec): 1,000000E-1
Scans to average: 5
Electric dark correction enabled: true
Nonlinearity correction enabled: false
Boxcar width: 15
XAxis mode: Wavelengths
Number of Pixels in Spectrum: 3648
>>>>>Begin Spectral Data<<<<<
194,658	-69,73
194,923	-65,66
195,188	-59,02
195,453	-58,49
195,717	-51,37
195,982	-49,82
196,247	-48,62
196,512	-50,74
196,777	-49,67
197,042	-47,05
197,307	-47,73
197,572	-42,82
197,837	-43,53
198,101	-40,87
198,366	-38,2
198,631	-36,69
198,896	-31,2
199,161	-23,37
199,425	-15,95
199,69	-4,54
199,955	-4,59
200,22	-7,98
200,484	-8,88
200,749	-9,18
201,014	-8,89
201,278	-9,12
201,543	-8,19
201,807	-8,3
202,072	-7
202,337	-6,42
202,601	-6,26
202,866	-7,46
203,13	-7,35
203,395	-9,64
203,659	-9,85
203,924	-12,75
204,189	-12,96
204,453	-11,21
204,717	-9,25
204,982	-7,02
205,246	-5,89
205,511	-3,01
205,775	-3,79
206,04	2,12
206,304	2,74
206,568	4,41
206,833	5,58
207,097	7,27
207,361	8,16
207,626	11,19
207,89	10,82
208,154	10,38
208,419	13,64
208,683	14,26
208,947	16,15
209,211	15,99
209,476	16,39
209,74	17,7
210,004	18,75
210,268	17,64
210,532	20,41
210,796	21,05
211,061	20,86
211,325	21,17
211,589	20,72
211,853	22,06
212,117	23,8
212,381	24,77
212,645	24,84
212,909	24,86
213,173	21,69
213,437	21,99
213,701	22,46
213,965	22,21
214,229	17,78
214,493	17,21
214,757	16,38
215,021	15,97
215,285	20,45
215,549	22,34
215,813	20,02
216,077	19,6
216,34	21,92
216,604	20,32
216,868	21,6
217,132	22,72
217,396	23,58
217,659	23,05
217,923	17,53
218,187	17,3
218,451	17,69
218,714	15,18
218,978	15,88
219,242	18,3
219,505	19,2
219,769	19,7
220,033	20,43
220,296	20,58
220,56	21,87
220,824	19,45
221,087	19,86
221,351	19,67
221,614	18,46
221,878	19,22
222,142	17,09
222,405	16,09
222,669	18,97
222,932	14,6
223,196	11,87
223,459	7,71
223,722	8,96
223,986	8,29
224,249	6,8
224,513	7,1
224,776	7,35
225,04	5,6
225,303	6,55
225,566	6,26
225,83	8,95
226,093	12,55
226,356	9,97
226,62	8,16
226,883	9,86
227,146	9,87
227,409	8,86
227,673	7,2
227,936	6,92
228,199	7,13
228,462	4,45
228,725	2,46
228,989	2,24
229,252	3,94
229,515	9,81
229,778	8,78
230,041	7,64
230,304	6,88
230,567	8,38
230,83	4,9
231,093	8,41
231,356	8,98
231,619	16,04
231,882	14,54
232,145	16,92
232,408	16,15
232,671	17,26
232,934	16,45
233,197	14,54
233,46	12,7
233,723	13,51
233,986	10,8
234,249	8,51
234,512	10,33
234,775	13,21
235,037	12,59
235,3	12,46
235,563	13,03
235,826	14,01
236,089	15,66
236,351	14,59
236,614	17,6
236,877	17,93
237,14	21,23
237,402	21,04
237,665	14,14
237,928	13,71
238,19	11,24
238,453	14,57
238,716	14,24
238,978	14,77
239,241	13,54
239,503	15,67
239,766	9,96
240,029	8,48
240,291	11,61
240,554	11,11
240,816	9,5
241,079	9,29
241,341	8,68
241,604	8,07
241,866	5,43
242,129	6,49
242,391	9,01
242,653	7,73
242,916	7,81
243,178	7,21
243,441	8,38
243,703	8,08
243,965	5,31
244,228	5,94
244,49	5,86
244,752	5,56
245,015	7,27
245,277	8,81
245,539	7,72
245,801	9,85
246,064	9,21
246,326	9,07
246,588	6,96
246,85	9,42
247,112	9,58
247,374	10,51
247,637	12,97
247,899	13,77
248,161	14,76
248,423	9,8
248,685	11,57
248,947	10,98
249,209	11,11
249,471	13,39
249,733	13,57
249,995	13,04
250,257	12,64
250,519	10,65
250,781	14,06
251,043	12,51
251,305	13,81
251,567	14,57
251,829	14,14
252,091	14,1
252,353	11
252,615	11,49
252,876	10,25
253,138	8,27
253,4	3,09
253,662	4,19
253,924	6,97
254,185	9,09
254,447	9,35
254,709	9,61
254,971	9,47
255,232	11,11
255,494	10,68
255,756	7,87
256,017	8,25
256,279	8,03
256,541	6,94
256,802	5,74
257,064	6,23
257,326	6,93
257,587	9
257,849	10,56
258,11	12,06
258,372	12,78
258,633	15,56
258,895	14,94
259,156	12,71
259,418	11,24
259,679	7,95
259,941	5,81
260,202	8,21
260,464	10,32
260,725	9,43
260,987	8,89
261,248	8,01
261,509	10,02
261,771	8,24
262,032	8,72
262,293	7,91
262,555	8
262,816	7,92
263,077	6,52
263,338	3,25
263,6	3,44
263,861	3,59
264,122	2,73
264,383	3,98
264,645	6,24
264,906	6,67
265,167	7,21
265,428	6,17
265,689	7,17
265,95	4,11
266,211	4,95
266,473	3,5
266,734	-1,18
266,995	-4,78
267,256	-2,93
267,517	-0,61
267,778	2,35
268,039	4,81
268,3	4,03
268,561	1,49
268,822	4,35
269,083	1,17
269,344	-0,01
269,604	-1,56
269,865	-0,69
270,126	-3,62
270,387	-2,16
270,648	-0,32
270,909	-0,87
271,17	-1,46
271,43	-2,59
271,691	-5,1
271,952	-5,19
272,213	-1,8
272,473	-4,35
272,734	-2,59
272,995	-1,5
273,256	-1,24
273,516	1,58
273,777	-2,52
274,038	-0,41
274,298	-2,7
274,559	-3,57
274,82	0,73
275,08	4,25
275,341	5,51
275,601	5,22
275,862	3,44
276,122	4,26
276,383	4,79
276,643	6,25
276,904	5,29
277,164	10,24
277,425	10,4
277,685	15,38
277,946	15,56
278,206	16,04
278,467	17,12
278,727	16,94
278,987	15,57
279,248	15,58
279,508	17,01
279,768	18,7
280,029	18,46
280,289	12,97
280,549	12,25
280,81	10,27
281,07	9,44
281,33	10,53
281,59	7,79
281,851	11,61
282,111	11,28
282,371	10,61
282,631	12,81
282,891	11,42
283,151	9,03
283,412	6,89
283,672	6,1
283,932	4,47
284,192	4,99
284,452	2,98
284,712	0,89
284,972	-1,14
285,232	-4,35
285,492	-1,82
285,752	-5,19
286,012	1,84
286,272	1,94
286,532	-1
286,792	0,29
287,052	3,68
287,312	2,52
287,571	1,58
287,831	2,09
288,091	0,14
288,351	1,73
288,611	6,58
288,871	7,47
289,13	7,45
289,39	2,96
289,65	4,57
289,91	1,15
290,17	3,82
290,429	7,2
290,689	4,63
290,949	2,46
291,208	4,85
291,468	7,73
291,728	8,1
291,987	10,56
292,247	8,75
292,506	12,22
292,766	14,72
293,026	14,26
293,285	15,56
293,545	17,56
293,804	17,64
294,064	13,68
294,323	12,77
294,583	14,41
294,842	14,12
295,102	13,75
295,361	15,27
295,621	15,96
295,88	16,1
296,139	15,43
296,399	15,74
296,658	9,79
296,917	8,77
297,177	5,76
297,436	8,08
297,695	6,61
297,955	8,84
298,214	6,55
298,473	7,48
298,732	10,55
298,992	13,94
299,251	12,49
299,51	10,23
299,769	10,61
300,028	10,72
300,287	10,36
300,547	9,76
300,806	7,11
301,065	10,08
301,324	12,05
301,583	9
301,842	6,01
302,101	2,36
302,36	3,66
302,619	2,57
302,878	3,52
303,137	1,27
303,396	2,45
303,655	3,61
303,914	1,47
304,173	3,71
304,432	3,58
304,691	7,13
304,95	5,66
305,208	10,88
305,467	11,45
305,726	10,37
305,985	10,53
306,244	12,88
306,503	12,45
306,761	10,7
307,02	7,45
307,279	8,9
307,537	10,18
307,796	8,65
308,055	5,63
308,314	6,85
308,572	5,07
308,831	8,06
309,09	8,76
309,348	9,5
309,607	9,81
309,865	13,77
310,124	14,69
310,382	16,15
310,641	18,14
310,9	14,85
311,158	15,81
311,417	15,47
311,675	16,39
311,933	17,62
312,192	17,26
312,45	16,79
312,709	17,37
312,967	16,78
313,226	15,76
313,484	14,27
313,742	13,26
314,001	11,53
314,259	9,18
314,517	8,69
314,776	9,89
315,034	11,39
315,292	8,63
315,55	5,1
315,809	3,87
316,067	5,24
316,325	3,7
316,583	3,91
316,841	1,46
317,1	-2,13
317,358	-5,35
317,616	-6,3
317,874	-8,49
318,132	-10,01
318,39	-12
318,648	-14,92
318,906	-14,25
319,164	-14,4
319,422	-15,93
319,68	-17,93
319,938	-17,75
320,196	-17,21
320,454	-15,99
320,712	-17,87
320,97	-17,84
321,228	-19,08
321,486	-17
321,744	-15,59
322,002	-13,28
322,26	-14,64
322,517	-13,65
322,775	-16,84
323,033	-16,98
323,291	-14,26
323,549	-11,82
323,806	-9,31
324,064	-8,49
324,322	-6,8
324,58	-7,31
324,837	-3,88
325,095	-3,68
325,353	-2,08
325,61	-1,05
325,868	-1,24
326,126	1,23
326,383	0,5
326,641	0,63
326,898	0,73
327,156	-0,06
327,413	0,59
327,671	1,43
327,928	4,01
328,186	3,19
328,443	1,11
328,701	5,75
328,958	8,09
329,216	8,16
329,473	6,37
329,731	7,39
329,988	6,15
330,245	8,44
330,503	9,25
330,76	10,46
331,017	12,66
331,275	9,38
331,532	9,13
331,789	5,36
332,047	4,1
332,304	1,97
332,561	1,67
332,818	0,47
333,076	1,36
333,333	2,16
333,59	2,93
333,847	5,24
334,104	4,27
334,361	4,41
334,618	4,39
334,876	3,87
335,133	4,39
335,39	3,52
335,647	4,31
335,904	-0,47
336,161	-1,82
336,418	0,03
336,675	-4,61
336,932	-2,97
337,189	-3,28
337,446	-1,68
337,703	-3,28
337,96	-6,65
338,216	-8,24
338,473	-11,42
338,73	-10,64
338,987	-11,82
339,244	-7,29
339,501	-8,73
339,757	-6,05
340,014	-4,65
340,271	-4,16
340,528	-1,9
340,785	0,41
341,041	0,98
341,298	-2,24
341,555	-1,27
341,811	-1,46
342,068	-4,09
342,325	-4,53
342,581	-3,15
342,838	-2
343,094	-2,3
343,351	-2,58
343,608	-5,12
343,864	-2,56
344,121	-0,69
344,377	-1,15
344,634	-1,09
344,89	-4,86
345,147	-5,36
345,403	-5,87
345,66	-6,12
345,916	-3,79
346,172	-4,07
346,429	-4,88
346,685	-6,57
346,942	-7,23
347,198	-11,97
347,454	-11,97
347,711	-12,02
347,967	-14,26
348,223	-14,01
348,48	-15,97
348,736	-11,88
348,992	-12,53
349,248	-8,13
349,504	-10,16
349,761	-10,27
350,017	-9,93
350,273	-8,15
350,529	-8,55
350,785	-9,49
351,041	-10,44
351,297	-8,73
351,554	-10,04
351,81	-12,4
352,066	-12,99
352,322	-13,31
352,578	-12,42
352,834	-12,05
353,09	-11,58
353,346	-12,2
353,602	-12,8
353,858	-13,05
354,114	-13,96
354,369	-10,9
354,625	-7,26
354,881	-8,26
355,137	-5,3
355,393	-3,83
355,649	-3,8
355,905	-3,68
356,16	-2,11
356,416	-0,38
356,672	-7,18
356,928	-6,19
357,183	-7,85
357,439	-8,14
357,695	-9,96
357,951	-5,02
358,206	-6,73
358,462	-7,15
358,718	-8,55
358,973	-6,88
359,229	-6,33
359,484	-4,58
359,74	-0,83
359,996	-1,43
360,251	1,87
360,507	0,94
360,762	2,22
361,018	4,55
361,273	3,45
361,529	5,86
361,784	6,98
362,04	10,51
362,295	10,05
362,55	9,43
362,806	13,19
363,061	13,54
363,316	14,32
363,572	15,79
363,827	17,27
364,082	13,72
364,338	12,66
364,593	12,31
364,848	13,07
365,104	11,41
365,359	15,18
365,614	15,71
365,869	13,28
366,124	14,06
366,38	12,74
366,635	14,03
366,89	14,68
367,145	14,25
367,4	18,79
367,655	18,96
367,91	18,84
368,165	15,76
368,42	14,36
368,675	14,72
368,93	14,97
369,185	12,26
369,44	10,38
369,695	12,4
369,95	9,38
370,205	7,51
370,46	6,54
370,715	5,21
370,97	6,36
371,225	6,09
371,48	6,05
371,734	6,75
371,989	7,94
372,244	8,56
372,499	10,93
372,754	8,99
373,008	6,85
373,263	2,89
373,518	5,4
373,773	3,22
374,027	2,03
374,282	4,43
374,537	5,65
374,791	6,78
375,046	4,95
375,301	2,67
375,555	0,33
375,81	2,21
376,064	3,45
376,319	6,91
376,573	5,8
376,828	0,85
377,082	6,96
377,337	6,62
377,591	2,29
377,846	3,68
378,1	5,6
378,355	5,71
378,609	4,89
378,863	1,61
379,118	2,81
379,372	1,79
379,627	-0,84
379,881	-1,77
380,135	-1,47
380,389	-1,89
380,644	-0,14
380,898	0,66
381,152	2,57
381,407	2,14
381,661	4,82
381,915	5,77
382,169	5,68
382,423	3,88
382,677	1,47
382,932	2,76
383,186	3,08
383,44	3,61
383,694	5,83
383,948	3,77
384,202	1,66
384,456	3,47
384,71	5,79
384,964	2,93
385,218	4,28
385,472	4,94
385,726	4,68
385,98	3,25
386,234	1,87
386,488	-0,84
386,742	0,51
386,996	-1,91
387,249	-1,86
387,503	2,13
387,757	3,69
388,011	3,9
388,265	3,23
388,518	3,23
388,772	5,91
389,026	6,63
389,28	2,29
389,533	1,43
389,787	4,17
390,041	2,36
390,295	3,86
390,548	3,44
390,802	5,9
391,055	3,76
391,309	2,96
391,563	2,52
391,816	4,28
392,07	2,01
392,323	3,64
392,577	3,98
392,83	4,41
393,084	9,8
393,337	12,77
393,591	13,45
393,844	14,96
394,098	20,94
394,351	26,08
394,604	27,5
394,858	28,74
395,111	30,11
395,364	26,85
395,618	28,91
395,871	27,25
396,124	25,99
396,378	25,62
396,631	25,46
396,884	22,23
397,137	23,33
397,391	23,78
397,644	20,65
397,897	20,84
398,15	21,57
398,403	23,96
398,657	22,43
398,91	21,21
399,163	23,47
399,416	20,74
399,669	18,43
399,922	19,31
400,175	17,28
400,428	18,98
400,681	23,21
400,934	23,81
401,187	29,17
401,44	34,24
401,693	36,36
401,946	35,12
402,199	30,52
402,452	29,85
402,704	28,07
402,957	26,68
403,21	29,1
403,463	28,35
403,716	29,47
403,969	32,03
404,221	31,9
404,474	34,16
404,727	36,68
404,98	39,31
405,232	38,74
405,485	40,63
405,738	43,46
405,99	42,9
406,243	44,24
406,496	47
406,748	47,84
407,001	45,87
407,253	47,77
407,506	48,69
407,759	49,22
408,011	45,6
408,264	43,95
408,516	39,63
408,769	32,35
409,021	27,42
409,274	21,4
409,526	19,87
409,778	15,74
410,031	18,17
410,283	17,74
410,536	21,89
410,788	19,46
411,04	18,97
411,293	19,28
411,545	20,23
411,797	18,51
412,049	16,3
412,302	15,17
412,554	16,83
412,806	15,76
413,058	14,76
413,311	14,57
413,563	12,87
413,815	13,99
414,067	10,74
414,319	7,52
414,571	8,83
414,823	7,22
415,075	5,71
415,328	6,08
415,58	10,19
415,832	13
416,084	15,46
416,336	15,11
416,588	19,59
416,84	17,62
417,091	20,63
417,343	16,29
417,595	18,77
417,847	18,34
418,099	19,69
418,351	18,79
418,603	22,35
418,855	22,6
419,106	22,8
419,358	21,58
419,61	21,72
419,862	24,22
420,114	22,35
420,365	22,68
420,617	23,14
420,869	20,87
421,12	19,2
421,372	20,78
421,624	18,79
421,875	19,71
422,127	17,55
422,379	17,65
422,63	19,91
422,882	18,23
423,133	18,19
423,385	17,21
423,636	17,38
423,888	17,54
424,139	20,2
424,391	17,16
424,642	15,78
424,894	13,95
425,145	14,81
425,396	11,79
425,648	14,45
425,899	11,63
426,151	11,57
426,402	10,12
426,653	10,98
426,905	9,8
427,156	6,65
427,407	6,39
427,658	5,25
427,91	3,41
428,161	1,29
428,412	2,05
428,663	5,68
428,914	7,94
429,166	7,34
429,417	7,29
429,668	5,56
429,919	3,41
430,17	3,66
430,421	4
430,672	7,54
430,923	6,69
431,174	6,19
431,425	9,8
431,676	16,69
431,927	23,63
432,178	38,28
432,429	53,37
432,68	66,85
432,931	81,39
433,182	91,75
433,433	94,47
433,683	100,69
433,934	101,45
434,185	101,56
434,436	99,86
434,687	102,01
434,937	106,39
435,188	106,03
435,439	104,66
435,69	106,49
435,94	105,67
436,191	106,38
436,442	104,88
436,692	103,04
436,943	99,9
437,194	98,74
437,444	101,43
437,695	105,2
437,945	104,36
438,196	102,16
438,447	100,74
438,697	100,76
438,948	99,64
439,198	94,74
439,449	81,74
439,699	71,96
439,949	58,41
440,2	42,29
440,45	29,47
440,701	16,18
440,951	7,94
441,201	3,83
441,452	-1,37
441,702	-3,29
441,952	-3,1
442,203	-3,13
442,453	-6,78
442,703	-6,91
442,953	-6,22
443,204	-4,5
443,454	-6,41
443,704	-5,97
443,954	-9,43
444,204	-9,06
444,455	-7,26
444,705	-3,92
444,955	-3,37
445,205	-4,44
445,455	-5,43
445,705	-4,77
445,955	-4,37
446,205	-4,67
446,455	-4,71
446,705	-4,35
446,955	-4,86
447,205	-2,56
447,455	-0,37
447,705	-3,15
447,955	-3,21
448,205	-4,09
448,454	-3,84
448,704	-3,49
448,954	-6,23
449,204	-6,68
449,454	-7,5
449,704	-8,79
449,953	-10,12
450,203	-7,44
450,453	-11,76
450,703	-10,56
450,952	-11,51
451,202	-9,6
451,452	-11,21
451,701	-8,14
451,951	-5,07
452,201	-5,82
452,45	-7,44
452,7	-5,6
452,949	-5,69
453,199	-7,42
453,448	-5,52
453,698	-5,02
453,947	-6,45
454,197	-6,4
454,446	-8,98
454,696	-6,06
454,945	-4,94
455,195	-6,32
455,444	-4,6
455,693	-0,22
455,943	-1,47
456,192	-0,4
456,442	-0,66
456,691	-0,2
456,94	0,05
457,189	-0,48
457,439	1,68
457,688	3,41
457,937	1,73
458,186	4,14
458,436	3,25
458,685	4,04
458,934	2,36
459,183	2,76
459,432	4,88
459,681	4,74
459,93	2,93
460,179	2,23
460,429	-0,4
460,678	3,33
460,927	7,79
461,176	6
461,425	6,02
461,674	8,33
461,923	8,35
462,172	8,68
462,42	7,14
462,669	8,37
462,918	7,37
463,167	6,14
463,416	2,32
463,665	3,57
463,914	4,38
464,162	2,87
464,411	3,93
464,66	5,66
464,909	4,93
465,158	4,89
465,406	4,89
465,655	7,73
465,904	9,62
466,152	10,48
466,401	10,53
466,65	12,8
466,898	10,92
467,147	7,44
467,395	6,26
467,644	8,78
467,893	9,39
468,141	10,37
468,39	5,83
468,638	3,17
468,887	0,92
469,135	1,08
469,384	1,27
469,632	3,43
469,88	3,88
470,129	5,05
470,377	2,46
470,626	5,23
470,874	7,46
471,122	8,61
471,371	8,16
471,619	5,65
471,867	8,47
472,115	7,88
472,364	4,48
472,612	7,9
472,86	6,26
473,108	6,5
473,356	5,77
473,605	5,28
473,853	2,99
474,101	2,93
474,349	2,58
474,597	7,1
474,845	5,79
475,093	5,9
475,341	3,52
475,589	3,05
475,837	3,41
476,085	4,89
476,333	4,3
476,581	5,9
476,829	5,25
477,077	6,98
477,325	5,98
477,573	6,82
477,821	6,09
478,069	7,32
478,317	6,18
478,564	9
478,812	7,32
479,06	6,16
479,308	6,6
479,555	7,18
479,803	6,87
480,051	10,57
480,299	9,99
480,546	11,93
480,794	11,15
481,042	13,28
481,289	14,2
481,537	17,13
481,784	17,99
482,032	22,1
482,28	23,21
482,527	25,78
482,775	28,15
483,022	31,83
483,27	36,75
483,517	42,73
483,765	45,61
484,012	48,52
484,259	49,53
484,507	54,62
484,754	59,12
485,002	61,1
485,249	63,79
485,496	69,07
485,744	70,58
485,991	73,3
486,238	73,09
486,486	80,3
486,733	83,03
486,98	87,64
487,227	87,64
487,474	90,39
487,722	93,46
487,969	92,48
488,216	93,17
488,463	94,22
488,71	92,34
488,957	91,14
489,204	90,87
489,451	92,07
489,699	91,08
489,946	87,72
490,193	85,61
490,44	84,39
490,687	83,91
490,934	80,68
491,18	76,21
491,427	76,07
491,674	77,09
491,921	76,13
492,168	72,72
492,415	66,23
492,662	65,38
492,909	64,95
493,155	62,04
493,402	59,38
493,649	55,26
493,896	54,86
494,142	47,94
494,389	46,03
494,636	42,72
494,883	39,25
495,129	37,16
495,376	33,21
495,623	34,2
495,869	33,8
496,116	33,52
496,362	33,98
496,609	35,55
496,855	38,72
497,102	37,25
497,348	34,87
497,595	34,61
497,841	38,87
498,088	35,45
498,334	34,24
498,581	30,74
498,827	29,07
499,074	28,46
499,32	28,99
499,566	32,25
499,813	33,46
500,059	31,34
500,305	30,88
500,552	28,89
500,798	27,19
501,044	30,67
501,29	29,81
501,537	26,37
501,783	28,54
502,029	31,68
502,275	28,19
502,521	26,43
502,767	26,13
503,013	28,76
503,26	24,6
503,506	20,32
503,752	21,8
503,998	18,43
504,244	18,82
504,49	15,66
504,736	16,05
504,982	14,28
505,228	16,4
505,474	14,79
505,72	16,21
505,966	13,64
506,211	16,86
506,457	16,98
506,703	13,63
506,949	9,33
507,195	6,35
507,441	2,12
507,686	5,41
507,932	4,93
508,178	6,34
508,424	4,57
508,669	1,19
508,915	0,55
509,161	2,19
509,406	2,13
509,652	0,28
509,898	3,66
510,143	4,42
510,389	4,3
510,634	-0,92
510,88	2,88
511,125	7,08
511,371	6,26
511,616	7,92
511,862	3,98
512,107	1,88
512,353	2,91
512,598	3,58
512,844	0,07
513,089	-2,54
513,335	-0,84
513,58	-0,18
513,825	-0,39
514,071	-1,75
514,316	-2,2
514,561	-1,04
514,806	-2,89
515,052	0,29
515,297	-1,41
515,542	-1,12
515,787	-0,12
516,033	1,16
516,278	2,3
516,523	2,13
516,768	1,5
517,013	-1,98
517,258	-2,95
517,503	-3,62
517,748	-2,42
517,993	-3,59
518,238	-3,04
518,483	-4,69
518,728	-6,9
518,973	-8,61
519,218	-9,6
519,463	-8,06
519,708	-10,02
519,953	-11,94
520,198	-11,13
520,443	-7,23
520,688	-3,64
520,933	-5,5
521,177	-5,14
521,422	-7,12
521,667	-3,27
521,912	-2,76
522,157	-6,25
522,401	-2,16
522,646	-2,62
522,891	-0,96
523,135	-0,25
523,38	-0,99
523,625	-2,35
523,869	-0,29
524,114	0,9
524,358	-0,1
524,603	1,64
524,848	-0,2
525,092	-0,95
525,337	1,32
525,581	3,87
525,826	6,63
526,07	7,87
526,315	9,95
526,559	8,95
526,803	7,37
527,048	10,28
527,292	12,34
527,537	12,95
527,781	12,8
528,025	9,29
528,269	10,02
528,514	10,75
528,758	10,15
529,002	12,25
529,247	13,91
529,491	12,45
529,735	17,43
529,979	16,12
530,223	17,34
530,467	12,63
530,712	12,22
530,956	11,15
531,2	12,51
531,444	10,25
531,688	12,63
531,932	12,47
532,176	14,72
532,42	16,5
532,664	17,5
532,908	16,34
533,152	15,03
533,396	15,48
533,64	13,83
533,884	11,5
534,128	12,73
534,371	15,93
534,615	18,85
534,859	19,22
535,103	19,95
535,347	21,34
535,59	25,59
535,834	23,96
536,078	29,34
536,322	34,9
536,565	40,67
536,809	44,05
537,053	52,14
537,296	58,02
537,54	65,9
537,784	74,46
538,027	89,44
538,271	101,09
538,514	114,34
538,758	129,25
539,001	141,2
539,245	155,32
539,488	170,74
539,732	184,05
539,975	196,52
540,219	210,79
540,462	222,65
540,706	237,21
540,949	248,11
541,192	261,63
541,436	278,22
541,679	296,1
541,922	313,12
542,166	326,89
542,409	349,27
542,652	372,66
542,895	398,31
543,139	419,56
543,382	442,89
543,625	457,66
543,868	470,85
544,111	479,79
544,354	485,55
544,598	490,65
544,841	494,1
545,084	495,63
545,327	493,3
545,57	490,52
545,813	486,11
546,056	477,84
546,299	469,7
546,542	464,1
546,785	456,04
547,028	447,34
547,271	437,89
547,514	429,97
547,756	419,61
547,999	411,73
548,242	403,43
548,485	391,41
548,728	383,06
548,971	369,55
549,213	357,52
549,456	343,21
549,699	325,4
549,942	303,9
550,184	280,53
550,427	255,17
550,67	233,32
550,912	208,66
551,155	191,31
551,398	174,28
551,64	159,93
551,883	149,36
552,125	137,72
552,368	129,66
552,61	116,49
552,853	111,26
553,095	102,2
553,338	94,47
553,58	89,26
553,823	81,89
554,065	78,24
554,308	69,67
554,55	62,81
554,792	56,11
555,035	50,7
555,277	46,35
555,519	43,01
555,762	36,52
556,004	35,47
556,246	28,73
556,488	28,21
556,731	22,26
556,973	20,46
557,215	17,93
557,457	17,95
557,699	18,37
557,941	14,57
558,183	12,72
558,426	14,01
558,668	9,29
558,91	9,59
559,152	8,65
559,394	7,12
559,636	8,27
559,878	6,37
560,12	6,94
560,362	6,96
560,604	6,18
560,845	5,72
561,087	3,36
561,329	5,1
561,571	2,12
561,813	3,12
562,055	2,1
562,297	2,83
562,538	3,74
562,78	4,71
563,022	1,75
563,264	2,52
563,505	2,87
563,747	2,67
563,989	-0,28
564,23	-0,15
564,472	-3,04
564,714	-0,46
564,955	-1,09
565,197	-4,79
565,438	-1,77
565,68	1,49
565,921	-1,13
566,163	1,42
566,404	-2,16
566,646	-0,26
566,887	2,16
567,129	3,05
567,37	2,52
567,612	5,21
567,853	1,11
568,094	2,4
568,336	1,76
568,577	4,04
568,818	4,21
569,06	3,25
569,301	1,09
569,542	1,04
569,783	2,81
570,025	2,55
570,266	3,13
570,507	4,44
570,748	4,95
570,989	6,01
571,23	9,16
571,472	9,81
571,713	8,23
571,954	9,01
572,195	7,03
572,436	8,77
572,677	11,32
572,918	12,83
573,159	11,75
573,4	12,66
573,641	14,26
573,882	19,65
574,123	20,13
574,364	16,51
574,604	19,51
574,845	18,55
575,086	20,66
575,327	25,17
575,568	26,74
575,809	30,54
576,049	33,32
576,29	33,43
576,531	41,17
576,771	47,38
577,012	52,02
577,253	55,96
577,494	58,04
577,734	59,57
577,975	62,11
578,215	63,09
578,456	62,35
578,697	63,68
578,937	67,61
579,178	69,82
579,418	71,5
579,659	73,3
579,899	72,81
580,14	73,99
580,38	73,52
580,62	75,05
580,861	80,01
581,101	78,43
581,342	78,25
581,582	74,45
581,822	78,66
582,063	76,45
582,303	78,89
582,543	78,74
582,783	80,08
583,024	82
583,264	83,37
583,504	81,31
583,744	84,97
583,984	83,16
584,224	83,73
584,465	83,23
584,705	83,75
584,945	85,18
585,185	86,14
585,425	87,52
585,665	87,34
585,905	87
586,145	86,84
586,385	83,83
586,625	87,06
586,865	85,81
587,105	85,23
587,345	83,57
587,585	83,76
587,824	81,01
588,064	79,65
588,304	76,24
588,544	76,56
588,784	73,62
589,024	75,97
589,263	73,58
589,503	73,29
589,743	76,23
589,982	76,07
590,222	77,18
590,462	74,88
590,701	72,1
590,941	73,82
591,181	70,64
591,42	66,54
591,66	67,52
591,899	68,91
592,139	66,03
592,378	64,3
592,618	61,81
592,857	59,92
593,097	60,2
593,336	60,58
593,576	59,31
593,815	59,85
594,055	57,5
594,294	57,67
594,533	56,6
594,773	57,34
595,012	57,55
595,251	59,37
595,491	63,31
595,73	65,49
595,969	66,85
596,208	68,77
596,447	73,93
596,687	75,95
596,926	76,01
597,165	71,06
597,404	71,47
597,643	67,83
597,882	65,04
598,121	64,73
598,36	63,39
598,599	63,84
598,838	64,01
599,077	59,27
599,316	58,71
599,555	56,21
599,794	56,8
600,033	58,17
600,272	58,88
600,511	56,35
600,75	57,39
600,989	58,99
601,228	58,34
601,466	56,69
601,705	57,65
601,944	59,46
602,183	61,52
602,422	60,91
602,66	60,21
602,899	56,89
603,138	55,66
603,376	53,38
603,615	53,11
603,854	50,07
604,092	47,31
604,331	47,99
604,569	48,36
604,808	47,64
605,047	49,62
605,285	52,02
605,524	53,6
605,762	55,09
606	58,45
606,239	63,07
606,477	67,95
606,716	70,28
606,954	80,1
607,193	90,86
607,431	104,21
607,669	126,17
607,908	152,49
608,146	182,41
608,384	211,59
608,622	241,14
608,861	269,64
609,099	294,12
609,337	315,09
609,575	335
609,813	355,7
610,052	372,4
610,29	383,69
610,528	395,58
610,766	406,69
611,004	417,38
611,242	425,88
611,48	435,52
611,718	439,17
611,956	447,4
612,194	452,47
612,432	456,24
612,67	459,8
612,908	463,7
613,146	463,12
613,384	463,77
613,621	462,25
613,859	461,22
614,097	457,47
614,335	451,1
614,573	440,98
614,811	428,32
615,048	405,49
615,286	381,44
615,524	351,9
615,761	320,39
615,999	293,55
616,237	267,19
616,474	245,36
616,712	225,44
616,95	204,15
617,187	184,89
617,425	170,05
617,662	157,79
617,9	143,41
618,137	131,39
618,375	120,45
618,612	108,51
618,85	102,3
619,087	99,26
619,325	92,22
619,562	85,71
619,799	79,59
620,037	74,06
620,274	68,95
620,511	68,35
620,749	62,33
620,986	58,5
621,223	54,46
621,461	54,06
621,698	53,83
621,935	52,13
622,172	48,96
622,409	52,02
622,647	51,04
622,884	50,78
623,121	52,72
623,358	49,56
623,595	50,22
623,832	50,06
624,069	48,54
624,306	49,78
624,543	52,17
624,78	53,46
625,017	53,77
625,254	57,53
625,491	61,03
625,728	63,39
625,965	63,53
626,202	62,54
626,438	61,59
626,675	61,96
626,912	64,97
627,149	66,91
627,386	68,93
627,622	69,6
627,859	71,11
628,096	73,84
628,333	76,86
628,569	79,18
628,806	81,57
629,043	81,06
629,279	82,7
629,516	85,63
629,752	80,92
629,989	80,34
630,225	77,44
630,462	76,58
630,699	77,53
630,935	76,7
631,171	72,37
631,408	71,1
631,644	68,27
631,881	63,34
632,117	57,93
632,354	57,47
632,59	55,41
632,826	52,16
633,063	50,09
633,299	51,45
633,535	47,94
633,771	46,01
634,008	45,74
634,244	42,64
634,48	38,68
634,716	37,93
634,953	34,39
635,189	32
635,425	30,72
635,661	29,75
635,897	25,4
636,133	21,91
636,369	18,41
636,605	12,37
636,841	9,55
637,077	9,7
637,313	9,68
637,549	9,78
637,785	8,92
638,021	8,25
638,257	5,76
638,493	8,03
638,729	6,14
638,965	9,01
639,2	9,78
639,436	9,98
639,672	8,43
639,908	4,99
640,144	8,74
640,379	10,88
640,615	8,06
640,851	9,63
641,086	10,84
641,322	9,12
641,558	8,98
641,793	10,11
642,029	8,09
642,264	7,41
642,5	6,37
642,736	2,46
642,971	3,67
643,207	2,46
643,442	1,75
643,678	4,1
643,913	6,59
644,148	5,48
644,384	7,83
644,619	7,91
644,855	10,46
645,09	10,64
645,325	9,77
645,561	11,26
645,796	8,2
646,031	12,29
646,266	10,14
646,502	10,02
646,737	13,23
646,972	13,65
647,207	14,4
647,442	11,94
647,678	8,34
647,913	11,62
648,148	13,83
648,383	12,87
648,618	13,58
648,853	15,29
649,088	18,65
649,323	22,15
649,558	24,61
649,793	25,6
650,028	27,33
650,263	23,75
650,498	27,06
650,733	26,14
650,968	24,57
651,202	27,05
651,437	25,35
651,672	21,7
651,907	20,82
652,142	20,34
652,376	22,5
652,611	24,61
652,846	25,01
653,081	26,16
653,315	25,94
653,55	25,54
653,785	24,04
654,019	24,67
654,254	22,52
654,488	23,36
654,723	19,79
654,958	18,05
655,192	15,72
655,427	11,01
655,661	11,84
655,896	13,9
656,13	15,54
656,364	11,5
656,599	7,14
656,833	8,92
657,068	11,04
657,302	11,7
657,536	10,47
657,771	10,59
658,005	12,38
658,239	13,46
658,474	9,96
658,708	12,36
658,942	12,94
659,176	12,03
659,41	8,51
659,645	6,8
659,879	6,27
660,113	3,92
660,347	3,62
660,581	-0,03
660,815	-0,38
661,049	-1,15
661,283	-4,44
661,517	-4,69
661,751	-5,27
661,985	-5,31
662,219	-3,59
662,453	-4,93
662,687	-2,69
662,921	-6,85
663,155	-8,38
663,389	-15,42
663,622	-16,75
663,856	-15,17
664,09	-18,31
664,324	-19,48
664,558	-19,15
664,791	-20,46
665,025	-21,29
665,259	-21,93
665,492	-23,35
665,726	-19,59
665,96	-19,81
666,193	-21,19
666,427	-20,46
666,661	-18,94
666,894	-19,88
667,128	-21,49
667,361	-19,5
667,595	-21,37
667,828	-21,82
668,062	-21,28
668,295	-20,72
668,529	-20,07
668,762	-19,48
668,995	-19,54
669,229	-15,42
669,462	-14,52
669,695	-12,75
669,929	-13,86
670,162	-11,25
670,395	-12,57
670,629	-10,65
670,862	-8,38
671,095	-9,9
671,328	-9,21
671,561	-12,74
671,795	-11,79
672,028	-10,39
672,261	-9,12
672,494	-8,36
672,727	-9,4
672,96	-8,93
673,193	-9,32
673,426	-4,11
673,659	-3,5
673,892	-3,55
674,125	-4,27
674,358	-4,18
674,591	-5,17
674,824	-4,53
675,057	-5,08
675,29	-7,12
675,523	-6,57
675,755	-6,51
675,988	-5,53
676,221	-2,97
676,454	-6,43
676,687	-5,68
676,919	-5,77
677,152	-5,54
677,385	-6,14
677,617	-4,7
677,85	-3,11
678,083	-4,96
678,315	-3,1
678,548	-4,77
678,78	-4,94
679,013	-6,8
679,246	-6
679,478	-4,99
679,711	-6,56
679,943	-4,25
680,175	-6,74
680,408	-3,32
680,64	-9,01
680,873	-7,92
681,105	-8,01
681,338	-5,19
681,57	-5,52
681,802	-3,53
682,034	-2,51
682,267	1,88
682,499	4,46
682,731	3,5
682,964	3,38
683,196	0,51
683,428	-1,41
683,66	-0,9
683,892	1,4
684,124	2,58
684,356	5,93
684,589	6,53
684,821	5,68
685,053	4,69
685,285	7,06
685,517	8,82
685,749	10,03
685,981	12,46
686,213	13,21
686,445	13,19
686,676	10,04
686,908	10,58
687,14	8,6
687,372	8,66
687,604	5,24
687,836	8,76
688,068	7,78
688,299	7,9
688,531	5,97
688,763	11,53
688,995	8,32
689,226	10,59
689,458	8,39
689,69	6,17
689,921	6,24
690,153	5,26
690,384	8,33
690,616	7,77
690,848	9,34
691,079	6,86
691,311	4,31
691,542	0,71
691,774	-1,64
692,005	0,33
692,237	4,62
692,468	2,3
692,699	1,53
692,931	1,37
693,162	-1,32
693,393	-1,49
693,625	-1,67
693,856	-0,19
694,087	0,28
694,319	3,19
694,55	2,93
694,781	1,94
695,012	-0,15
695,243	-1,39
695,475	-2,35
695,706	-2,08
695,937	-3,58
696,168	-3,51
696,399	-5,27
696,63	-5,99
696,861	-5,47
697,092	-0,1
697,323	3,43
697,554	3
697,785	3,77
698,016	4,6
698,247	3,57
698,478	6,84
698,709	9,01
698,94	11,87
699,171	10,88
699,401	7,23
699,632	9,86
699,863	7,31
700,094	7,41
700,325	9,84
700,555	10,68
700,786	12,14
701,017	11,71
701,247	11,79
701,478	11,8
701,709	11,77
701,939	11,02
702,17	13,83
702,401	17,07
702,631	18,92
702,862	18,28
703,092	14,58
703,323	18,68
703,553	20,96
703,784	22,37
704,014	24,07
704,244	19,96
704,475	20,05
704,705	21,67
704,936	22,34
705,166	22,89
705,396	24,77
705,627	25,88
705,857	26,97
706,087	28,64
706,317	27,53
706,548	25,25
706,778	23,99
707,008	26,26
707,238	27,97
707,468	28,26
707,698	26,17
707,928	26
708,158	25,13
708,389	25,26
708,619	22,81
708,849	22,93
709,079	25,72
709,309	23,98
709,539	21,03
709,768	22,3
709,998	24,34
710,228	24,62
710,458	22,26
710,688	18,51
710,918	18,59
711,148	17,01
711,378	14,14
711,607	11,51
711,837	10,01
712,067	8,21
712,297	6,41
712,526	4,96
712,756	3,95
712,986	-0,69
713,215	-4,49
713,445	-4,14
713,674	-3,09
713,904	-3,55
714,134	-3,3
714,363	-5,16
714,593	-7,95
714,822	-7,81
715,052	-8,52
715,281	-6,68
715,511	-9,01
715,74	-8,82
715,969	-10,5
716,199	-12,48
716,428	-12,83
716,657	-12,18
716,887	-10,5
717,116	-12,45
717,345	-11,36
717,575	-10,87
717,804	-8,83
718,033	-10,65
718,262	-11,56
718,492	-8,48
718,721	-7,77
718,95	-7,85
719,179	-8,97
719,408	-9,03
719,637	-12,58
719,866	-14,77
720,095	-13,51
720,324	-13,7
720,553	-18,45
720,782	-19,03
721,011	-18,33
721,24	-20,01
721,469	-20,83
721,698	-19,05
721,927	-19,09
722,156	-22,1
722,385	-23,24
722,613	-19,25
722,842	-17,86
723,071	-13,63
723,3	-11,9
723,529	-12,44
723,757	-13,26
723,986	-17,7
724,215	-19,89
724,443	-17,78
724,672	-16,48
724,901	-17,74
725,129	-14,74
725,358	-10,72
725,586	-13,69
725,815	-14,76
726,043	-16,49
726,272	-17,34
726,5	-15,97
726,729	-14,08
726,957	-17,35
727,186	-17,99
727,414	-15,98
727,642	-12,57
727,871	-11,6
728,099	-13,05
728,327	-14,01
728,556	-10,95
728,784	-11,36
729,012	-13,35
729,241	-9,26
729,469	-9,13
729,697	-12,16
729,925	-12,86
730,153	-14,91
730,381	-15,43
730,61	-14,44
730,838	-16,57
731,066	-14,72
731,294	-12,62
731,522	-15,68
731,75	-20,32
731,978	-19,71
732,206	-21,53
732,434	-24,85
732,662	-22,99
732,89	-23,34
733,118	-22,35
733,346	-21,14
733,573	-22
733,801	-20,78
734,029	-13,14
734,257	-13,17
734,485	-10,61
734,712	-8,57
734,94	-10,64
735,168	-7,19
735,396	-5,54
735,623	-7,5
735,851	-6,08
736,078	-2,73
736,306	-2,44
736,534	-2,98
736,761	-2,24
736,989	-4,92
737,216	-5,86
737,444	-8,44
737,671	-7,79
737,899	-2,54
738,126	-4,3
738,354	-5,43
738,581	-5,85
738,809	-2,73
739,036	-6,17
739,263	-6,22
739,491	-8,93
739,718	-9,67
739,945	-5,5
740,173	-4,01
740,4	-4,51
740,627	-6,3
740,854	-7,59
741,081	-11,21
741,309	-11,54
741,536	-16,1
741,763	-17,3
741,99	-15
742,217	-15,46
742,444	-16,3
742,671	-14,29
742,898	-14,16
743,125	-17,3
743,352	-20,52
743,579	-20,55
743,806	-21,93
744,033	-18,59
744,26	-17,76
744,487	-17,57
744,714	-16,81
744,941	-17,25
745,167	-13,23
745,394	-14,56
745,621	-14,43
745,848	-15,4
746,075	-11,55
746,301	-7,76
746,528	-1,32
746,755	-2,16
746,981	-3,99
747,208	-2,43
747,435	0,2
747,661	2,06
747,888	4,39
748,114	3,05
748,341	6,11
748,567	8,83
748,794	6,62
749,02	5,96
749,247	2,54
749,473	2,98
749,7	0,95
749,926	0,18
750,152	5,43
750,379	6,5
750,605	6,48
750,831	7,29
751,058	7,17
751,284	5,94
751,51	9,75
751,737	10,18
751,963	8,08
752,189	6,46
752,415	6,92
752,641	8,1
752,867	8,47
753,094	6,94
753,32	3,59
753,546	0,67
753,772	2,69
753,998	1,55
754,224	1,49
754,45	0,22
754,676	-0,6
754,902	-1,43
755,128	-0,52
755,354	-2,68
755,579	-1
755,805	0,92
756,031	-0,4
756,257	-0,04
756,483	-0,34
756,709	-0,89
756,934	-1,13
757,16	-4,8
757,386	-3,97
757,612	-6,77
757,837	-8,21
758,063	-5,98
758,289	-4,36
758,514	-6,17
758,74	-10,76
758,965	-12,86
759,191	-11,46
759,416	-10,01
759,642	-10,51
759,868	-10,87
760,093	-8,84
760,318	-9,44
760,544	-8,49
760,769	-9,27
760,995	-10,02
761,22	-11,08
761,445	-8,19
761,671	-7,33
761,896	-5,35
762,121	-5,97
762,347	-6,73
762,572	-10,31
762,797	-10,9
763,022	-10,67
763,248	-5,4
763,473	-5,05
763,698	-5,33
763,923	-3,82
764,148	-4,41
764,373	-5,55
764,598	-1,64
764,823	0,72
765,048	-3,14
765,273	-5,48
765,498	-7,45
765,723	-5,73
765,948	-5
766,173	-6,88
766,398	-5,44
766,623	-7,29
766,848	-6,49
767,073	-8
767,298	-7,74
767,522	-9,07
767,747	-8,74
767,972	-8,49
768,197	-8,86
768,421	-12,15
768,646	-14,11
768,871	-17,45
769,095	-16,61
769,32	-13,65
769,545	-13,48
769,769	-12,33
769,994	-10,2
770,218	-14,67
770,443	-14,63
770,667	-14,14
770,892	-14,37
771,116	-14,07
771,341	-11,98
771,565	-13,03
771,79	-13,09
772,014	-13,83
772,238	-14,86
772,463	-11,66
772,687	-10,71
772,911	-9,32
773,136	-11,45
773,36	-11,49
773,584	-9,17
773,808	-11,66
774,033	-11,77
774,257	-11,46
774,481	-11,83
774,705	-12,39
774,929	-11,4
775,153	-10,2
775,377	-7,33
775,602	-8,11
775,826	-5,11
776,05	-3,37
776,274	-4,54
776,498	-5,19
776,722	-4,82
776,945	-4,62
777,169	-4,67
777,393	-5,48
777,617	-5,35
777,841	-5,44
778,065	-4,43
778,289	-5,83
778,512	-7,15
778,736	-6,81
778,96	-7,03
779,184	-3,97
779,407	-4,7
779,631	-4,9
779,855	-8,1
780,078	-6,46
780,302	-8,78
780,526	-10,79
780,749	-10,78
780,973	-8,76
781,196	-7,92
781,42	-9,7
781,643	-8,61
781,867	-8,57
782,09	-12,75
782,314	-14,8
782,537	-14,78
782,76	-17,14
782,984	-16,56
783,207	-17,53
783,431	-17,08
783,654	-18,52
783,877	-20,74
784,1	-22,33
784,324	-22,86
784,547	-23,73
784,77	-27,69
784,993	-29,87
785,216	-30,39
785,44	-29,97
785,663	-32,37
785,886	-29,28
786,109	-30,01
786,332	-30,02
786,555	-29,2
786,778	-25,94
787,001	-25,7
787,224	-23,89
787,447	-22,9
787,67	-19,79
787,893	-20,46
788,116	-21,04
788,339	-19,07
788,561	-20,61
788,784	-24,44
789,007	-24,72
789,23	-25,33
789,453	-25,39
789,675	-27,16
789,898	-29,96
790,121	-32,19
790,344	-33,1
790,566	-31,47
790,789	-30,47
791,012	-28,68
791,234	-25,07
791,457	-21,24
791,679	-19,15
791,902	-16,93
792,124	-16,79
792,347	-17,26
792,569	-16,63
792,792	-19,07
793,014	-16,23
793,237	-15,9
793,459	-16,65
793,681	-16,55
793,904	-17,33
794,126	-18,94
794,348	-18,72
794,571	-18,88
794,793	-20,61
795,015	-19,43
795,237	-19,75
795,46	-18,43
795,682	-16,19
795,904	-12,01
796,126	-13,61
796,348	-14,21
796,57	-9,65
796,792	-8,91
797,014	-3,56
797,237	-1,17
797,459	1,09
797,681	1,35
797,903	0
798,124	-0,51
798,346	10,61
798,568	11,24
798,79	14,54
799,012	15,02
799,234	16,1
799,456	17,25
799,678	19,09
799,899	16,07
800,121	13,69
800,343	13,04
800,565	13,11
800,786	13,91
801,008	16,06
801,23	15,46
801,451	16,45
801,673	15,01
801,895	13,97
802,116	15,05
802,338	16,29
802,559	15,99
802,781	13,52
803,002	16,41
803,224	18,73
803,445	14,98
803,667	16,31
803,888	13,52
804,109	13,52
804,331	10,1
804,552	10,38
804,773	12,72
804,995	8,68
805,216	-6,97
805,437	-9,04
805,658	-12,85
805,88	-13,62
806,101	-12,68
806,322	-11,2
806,543	-11,45
806,764	-13,83
806,985	-10,01
807,207	-8,12
807,428	-7,85
807,649	-11,13
807,87	-13,23
808,091	-12,84
808,312	-12,58
808,533	-6,24
808,754	-3,81
808,975	-6,04
809,195	-4,64
809,416	-3,22
809,637	-4,32
809,858	-6,76
810,079	-8,66
810,3	-4,88
810,52	-5,54
810,741	-6,75
810,962	-8,65
811,183	-7,79
811,403	-6,09
811,624	-6,95
811,845	-4
812,065	-0,35
812,286	1,32
812,506	1,16
812,727	0,56
812,948	0,95
813,168	1,98
813,389	-0,71
813,609	1,85
813,83	1,01
814,05	-0,55
814,27	-1,12
814,491	3,52
814,711	2,21
814,931	-0,65
815,152	-2,9
815,372	-5,33
815,592	-6,54
815,813	-7,24
816,033	-9,03
816,253	-9,19
816,473	-8,86
816,694	-8,05
816,914	-5,71
817,134	-6,69
817,354	-8,76
817,574	-8,9
817,794	-8,4
818,014	-11,9
818,234	-13,99
818,454	-16,09
818,674	-18,79
818,894	-22,79
819,114	-19,6
819,334	-18,86
819,554	-15,71
819,774	-12,85
819,994	-16,23
820,214	-16,68
820,433	-17,23
820,653	-18,64
820,873	-17,04
821,093	-16,67
821,312	-19,12
821,532	-15,42
821,752	-12,09
821,972	-13,53
822,191	-12,49
822,411	-14,22
822,63	-12,99
822,85	-12,35
823,07	-14,67
823,289	-13,91
823,509	-14,37
823,728	-13,49
823,948	-16,56
824,167	-17,21
824,387	-17,23
824,606	-15,68
824,825	-13,77
825,045	-14,17
825,264	-12,99
825,483	-10,97
825,703	-9,55
825,922	-13,82
826,141	-15,28
826,361	-16,72
826,58	-21,58
826,799	-22,07
827,018	-19,82
827,237	-18,83
827,456	-18,27
827,676	-18,63
827,895	-17,66
828,114	-16,59
828,333	-18,25
828,552	-17,95
828,771	-15,01
828,99	-18,42
829,209	-17,88
829,428	-15,26
829,647	-16,96
829,866	-16,1
830,084	-15,92
830,303	-15,29
830,522	-14,55
830,741	-13,22
830,96	-12,53
831,179	-12,34
831,397	-14,31
831,616	-13,47
831,835	-12,59
832,053	-11,9
832,272	-11,91
832,491	-10,56
832,709	-11,32
832,928	-10,05
833,147	-8,81
833,365	-6,59
833,584	-4,47
833,802	-2,44
834,021	-2,81
834,239	-1,57
834,458	-2,58
834,676	-5,98
834,894	-6,84
835,113	-6,83
835,331	-7,62
835,55	-8,74
835,768	-7,57
835,986	-6,6
836,204	-8,95
836,423	-7,51
836,641	-6,66
836,859	-7,87
837,077	-6,91
837,296	-9
837,514	-10,41
837,732	-11,93
837,95	-11,83
838,168	-9,22
838,386	-11,46
838,604	-10,54
838,822	-10,17
839,04	-10,94
839,258	-9,99
839,476	-7,25
839,694	-7,02
839,912	-10,03
840,13	-11,67
840,348	-8,61
840,566	-11,6
840,783	-8,22
841,001	-9,78
841,219	-7,87
841,437	-6,67
841,655	-6,22
841,872	-6,83
842,09	-7,21
842,308	-7,27
842,525	-7,68
842,743	-6
842,961	-6,99
843,178	-9,44
843,396	-8,11
843,613	-7,27
843,831	-6,57
844,048	-5,95
844,266	-5,01
844,483	-4,71
844,701	-5,87
844,918	-5,25
845,136	-5,89
845,353	-7,35
845,57	-6,97
845,788	-3,67
846,005	-6,68
846,222	-8,89
846,439	-8,05
846,657	-7,79
846,874	-5,96
847,091	-9,09
847,308	-7,31
847,526	-9,73
847,743	-9,7
847,96	-11,68
848,177	-11,44
848,394	-11,72
848,611	-11,84
848,828	-12,31
849,045	-12,25
849,262	-11,91
849,479	-13,91
849,696	-14,84
849,913	-16,59
850,13	-20,91
850,347	-18,11
850,564	-19,72
850,78	-20,81
850,997	-22,59
851,214	-21,86
851,431	-20,06
851,647	-23,73
851,864	-21,21
852,081	-19,37
852,298	-23,24
852,514	-25,44
852,731	-23,37
852,948	-20,23
853,164	-19,38
853,381	-18,81
853,597	-21,63
853,814	-23,48
854,03	-26,85
854,247	-26,19
854,463	-26,25
854,68	-26,6
854,896	-25,22
855,113	-24,41
855,329	-24,29
855,545	-22,05
855,762	-23,29
855,978	-25,61
856,194	-27,9
856,411	-23,55
856,627	-20,59
856,843	-17,13
857,059	-14,47
857,275	-15,4
857,492	-15,08
857,708	-12,48
857,924	-10,19
858,14	-7,87
858,356	-8,36
858,572	-9,61
858,788	-11,53
859,004	-9,48
859,22	-11,37
859,436	-11,73
859,652	-12,77
859,868	-14,24
860,084	-14,04
860,3	-14,13
860,516	-13,39
860,731	-12,35
860,947	-14,39
861,163	-13,19
861,379	-11,73
861,595	-11,75
861,81	-11,99
862,026	-10,31
862,242	-10,29
862,457	-10,28
862,673	-8,9
862,889	-7,37
863,104	-8,11
863,32	-8,35
863,535	-8,87
863,751	-15,11
863,966	-12,49
864,182	-10,6
864,397	-10,88
864,613	-12,45
864,828	-15,55
865,044	-13,86
865,259	-11,24
865,474	-11,2
865,69	-9,46
865,905	-8,18
866,12	-9,52
866,336	-9,75
866,551	-9,53
866,766	-10,5
866,981	-11,11
867,196	-11,9
867,412	-11,65
867,627	-11,21
867,842	-11,73
868,057	-11,79
868,272	-12,48
868,487	-13,12
868,702	-14,49
868,917	-16,18
869,132	-13,77
869,347	-12,94
869,562	-14,08
869,777	-14,75
869,992	-14,23
870,207	-15,25
870,422	-14,52
870,636	-16,15
870,851	-18,38
871,066	-19,92
871,281	-20,62
871,495	-21,64
871,71	-18,77
871,925	-22,1
872,14	-23,52
872,354	-26,88
872,569	-28,17
872,783	-25,49
872,998	-26,87
873,213	-25,91
873,427	-22,35
873,642	-20,52
873,856	-19,28
874,071	-19,21
874,285	-20,09
874,5	-22,22
874,714	-25,19
874,928	-24,48
875,143	-24,2
875,357	-25,51
875,571	-26,4
875,786	-27,44
876	-24,28
876,214	-23,2
876,429	-25,62
876,643	-26,11
876,857	-23,72
877,071	-23,15
877,285	-24,76
877,499	-28,07
877,714	-25,84
877,928	-22,12
878,142	-22,85
878,356	-26,09
878,57	-23,18
878,784	-20,85
878,998	-20,8
879,212	-18,59
879,426	-22,06
879,639	-20,06
879,853	-22,69
880,067	-24,7
880,281	-25,65
880,495	-25,52
880,709	-23,55
880,922	-23,39
881,136	-21,61
881,35	-18,74
881,564	-20,55
881,777	-23,44
881,991	-22,04
882,205	-19,08
882,418	-19,76
882,632	-22,77
882,845	-23,05
883,059	-21,71
883,273	-21,66
883,486	-23,42
883,7	-20,27
883,913	-18,93
884,126	-16,36
884,34	-20,28
884,553	-24,93
884,767	-20,38
884,98	-19,99
885,193	-22,34
885,407	-22,76
885,62	-19,86
885,833	-18,97
886,046	-15,66
886,26	-16,52
886,473	-17
886,686	-17,26
886,899	-14,6
887,112	-15,23
887,326	-17,87
887,539	-16,52
887,752	-15,64
887,965	-18,07
888,178	-16,35
888,391	-14,68
888,604	-14,15
888,817	-16,07
889,03	-13,82
889,243	-16,15
889,455	-18,83
889,668	-16,91
889,881	-14,77
890,094	-15,44
890,307	-18,73
890,52	-17,82
890,732	-17,3
890,945	-15,8
891,158	-14,13
891,37	-16,66
891,583	-16,97
891,796	-15,23
892,008	-16,44
892,221	-17,51
892,434	-22,78
892,646	-24,32
892,859	-25,25
893,071	-22,65
893,284	-21,35
893,496	-24,04
893,709	-23,45
893,921	-22,06
894,133	-22,23
894,346	-22,74
894,558	-21,53
894,771	-21,23
894,983	-20,11
895,195	-19,39
895,407	-18,65
895,62	-22,04
895,832	-20,46
896,044	-15,53
896,256	-17,44
896,468	-18,87
896,681	-17,48
896,893	-16,98
897,105	-17,39
897,317	-18,05
897,529	-15,6
897,741	-13,99
897,953	-11,08
898,165	-11,65
898,377	-13,62
898,589	-12,28
898,801	-12,57
899,013	-9,16
899,224	-6,02
899,436	-4,26
899,648	-5,55
899,86	-6,97
900,072	-4,31
900,283	-3,63
900,495	-1,99
900,707	-1,64
900,919	-3,79
901,13	-3,19
901,342	-5,73
901,554	-4,75
901,765	-4,91
901,977	-7,42
902,188	-7,2
902,4	-8,47
902,611	-11,82
902,823	-13,62
903,034	-16,99
903,246	-18,65
903,457	-19,46
903,669	-21,01
903,88	-20,46
904,091	-21,75
904,303	-22,42
904,514	-25,28
904,725	-23,07
904,936	-21,5
905,148	-21,48
905,359	-19,45
905,57	-19,6
905,781	-22,34
905,992	-23,07
906,204	-22,87
906,415	-22,52
906,626	-24,21
906,837	-22,29
907,048	-23,64
907,259	-25,07
907,47	-26,43
907,681	-28,33
907,892	-24,2
908,103	-25,56
908,314	-27,94
908,525	-25,44
908,735	-24,59
908,946	-26,36
909,157	-26,48
909,368	-23,5
909,579	-20,75
909,789	-22,98
910	-24,31
910,211	-21,87
910,421	-22,68
910,632	-21,64
910,843	-24,68
911,053	-19,97
911,264	-16,99
911,475	-19,33
911,685	-18,91
911,896	-18,86
912,106	-16,84
912,317	-19,81
912,527	-16,63
912,737	-16,67
912,948	-16,32
913,158	-15,71
913,369	-19,03
913,579	-17
913,789	-15,85
914	-12,15
914,21	-10,71
914,42	-12
914,63	-12,57
914,841	-11,04
915,051	-9,62
915,261	-9,13
915,471	-5,2
915,681	-4,69
915,891	-5,2
916,101	-6,33
916,311	-4,5
916,521	-1,87
916,731	-2,11
916,941	0,61
917,151	-1,35
917,361	2,24
917,571	-3,13
917,781	-6,51
917,991	-7,57
918,201	-8,24
918,411	-11,77
918,621	-14,29
918,83	-11,32
919,04	-15,21
919,25	-13,53
919,46	-11,83
919,669	-14,54
919,879	-14,01
920,089	-16,41
920,298	-17,25
920,508	-16,72
920,717	-15,6
920,927	-18,08
921,136	-17,39
921,346	-18,8
921,555	-22,46
921,765	-22,77
921,974	-25,02
922,184	-27,81
922,393	-28,81
922,603	-30,57
922,812	-28,56
923,021	-30,05
923,23	-31,08
923,44	-34,95
923,649	-34,09
923,858	-35,36
924,067	-35,27
924,277	-37,93
924,486	-34,12
924,695	-33,83
924,904	-30,85
925,113	-29,96
925,322	-30,17
925,531	-29,64
925,74	-31,86
925,949	-33,03
926,158	-30,59
926,367	-30,53
926,576	-30,38
926,785	-31,34
926,994	-33,05
927,203	-33,59
927,412	-33,8
927,621	-33,92
927,83	-30,59
928,038	-30,31
928,247	-30,45
928,456	-29,32
928,665	-26,74
928,873	-24,31
929,082	-20,85
929,291	-19,79
929,499	-18,27
929,708	-19,9
929,916	-17,38
930,125	-18,76
930,333	-19,33
930,542	-15,79
930,75	-11,82
930,959	-11,31
931,167	-12,65
931,376	-14,74
931,584	-13,09
931,793	-11,59
932,001	-11,48
932,209	-13,96
932,418	-15,54
932,626	-16,99
932,834	-19,2
933,042	-20,96
933,251	-20,91
933,459	-20,66
933,667	-21,52
933,875	-21,29
934,083	-20,42
934,291	-22,64
934,499	-20,79
934,707	-21,13
934,915	-20,03
935,123	-18,34
935,331	-20,02
935,539	-22,22
935,747	-25,22
935,955	-26,05
936,163	-25,05
936,371	-24,64
936,579	-21,37
936,787	-21,02
936,995	-23,76
937,202	-26,77
937,41	-28,28
937,618	-27,9
937,826	-26,08
938,033	-31,74
938,241	-33,69
938,449	-31,78
938,656	-28,06
938,864	-27,74
939,071	-27,66
939,279	-23,89
939,486	-21,35
939,694	-21,31
939,901	-23,68
940,109	-21,65
940,316	-20,4
940,524	-21,45
940,731	-20,96
940,939	-19,93
941,146	-20,06
941,353	-21,12
941,561	-22,55
941,768	-24,19
941,975	-22,12
942,182	-21,75
942,39	-20,84
942,597	-17,02
942,804	-18,16
943,011	-19,92
943,218	-19,4
943,425	-18,68
943,632	-18,04
943,839	-18,07
944,046	-19,12
944,253	-19,03
944,46	-18,3
944,667	-14,43
944,874	-14,64
945,081	-14,18
945,288	-13,17
945,495	-11,02
945,702	-11,74
945,909	-13,95
946,115	-12,06
946,322	-11,74
946,529	-14,04
946,736	-14,58
946,942	-13,31
947,149	-13,54
947,356	-15,62
947,562	-18,05
947,769	-18,27
947,976	-18,16
948,182	-15,37
948,389	-17,11
948,595	-16,38
948,802	-16,36
949,008	-19,28
949,215	-17,07
949,421	-17,39
949,628	-18,65
949,834	-18,18
950,04	-18,04
950,247	-14,72
950,453	-12,44
950,659	-14,26
950,865	-12,02
951,072	-17,48
951,278	-14,93
951,484	-16,15
951,69	-19,54
951,896	-20,19
952,103	-20,5
952,309	-18,63
952,515	-20,12
952,721	-17,83
952,927	-17,34
953,133	-18,48
953,339	-20,25
953,545	-20,81
953,751	-21,18
953,957	-16,99
954,163	-18,48
954,369	-19,85
954,574	-21,66
954,78	-21,71
954,986	-20,59
955,192	-18,34
955,398	-18,7
955,603	-22,85
955,809	-21,36
956,015	-20,23
956,22	-19,83
956,426	-18,26
956,632	-22,95
956,837	-23,88
957,043	-23,5
957,248	-20,78
957,454	-20,64
957,66	-23,76
957,865	-23,72
958,07	-22,51
958,276	-24,76
958,481	-26,37
958,687	-27,59
958,892	-27,2
959,097	-28,15
959,303	-28,17
959,508	-28,06
959,713	-26,8
959,919	-27,8
960,124	-27,43
960,329	-27,69
960,534	-24,82
960,739	-22,81
960,945	-20,83
961,15	-20,81
961,355	-23,29
961,56	-27,97
961,765	-29,27
961,97	-28,14
962,175	-26,47
962,38	-29,38
962,585	-29,14
962,79	-31,97
962,995	-31,3
963,2	-32,36
963,404	-31,63
963,609	-35,48
963,814	-35,32
964,019	-39,52
964,224	-41,88
964,428	-38,94
964,633	-36,02
964,838	-35,16
965,042	-35,79
965,247	-37,45
965,452	-36,52
965,656	-33,7
965,861	-32,04
966,066	-32,69
966,27	-30,12
966,475	-25,74
966,679	-29,33
966,884	-29,7
967,088	-31,77
967,292	-31,78
967,497	-30,06
967,701	-30,19
967,906	-28,66
968,11	-23,89
968,314	-19,63
968,518	-22,44
968,723	-19,94
968,927	-21,1
969,131	-19,19
969,335	-16,62
969,539	-16,73
969,744	-16,55
969,948	-14,56
970,152	-12,96
970,356	-10,64
970,56	-9,81
970,764	-11,06
970,968	-10,52
971,172	-9,07
971,376	-7,35
971,58	-6,45
971,784	-6,03
971,988	-9,17
972,192	-7,03
972,395	-7,97
972,599	-9,61
972,803	-13,25
973,007	-11,45
973,21	-10,34
973,414	-9,4
973,618	-10,73
973,822	-10,91
974,025	-10,71
974,229	-11,22
974,432	-17,07
974,636	-20,63
974,84	-20,03
975,043	-19,54
975,247	-20,06
975,45	-20,95
975,654	-20,72
975,857	-19,67
976,06	-19,58
976,264	-20,61
976,467	-18,85
976,671	-18,52
976,874	-16,01
977,077	-17,49
977,28	-18,8
977,484	-21,99
977,687	-23,07
977,89	-20,58
978,093	-20,95
978,297	-19,05
978,5	-21,8
978,703	-19,34
978,906	-19,08
979,109	-18,48
979,312	-16,42
979,515	-18,07
979,718	-18,01
979,921	-17,53
980,124	-19,57
980,327	-18,72
980,53	-18,33
980,733	-15,17
980,936	-11,4
981,138	-13,06
981,341	-14
981,544	-14,76
981,747	-15,68
981,949	-17,38
982,152	-15,7
982,355	-16,31
982,558	-14,08
982,76	-17,33
982,963	-17,57
983,165	-18,02
983,368	-16,88
983,571	-16,92
983,773	-13,11
983,976	-11,5
984,178	-11,23
984,381	-11,77
984,583	-16,36
984,785	-16,81
984,988	-15,69
985,19	-13,17
985,392	-14,66
985,595	-19,19
985,797	-17,81
985,999	-15,86
986,202	-13,87
986,404	-14,2
986,606	-10,97
986,808	-11,21
987,01	-11,11
987,212	-13,68
987,415	-14,07
987,617	-12,16
987,819	-11,03
988,021	-9,52
988,223	-12,05
988,425	-13,69
988,627	-14,5
988,829	-17,61
989,031	-15,5
989,232	-16,95
989,434	-15,28
989,636	-15,92
989,838	-16,55
990,04	-15,99
990,242	-17,7
990,443	-20,67
990,645	-18,72
990,847	-14,64
991,048	-14,22
991,25	-16,42
991,452	-19,48
991,653	-20,63
991,855	-19,43
992,057	-20,72
992,258	-20,24
992,46	-21,93
992,661	-21,26
992,863	-23,37
993,064	-22,07
993,265	-22,84
993,467	-25,01
993,668	-22,16
993,87	-23,13
994,071	-24,48
994,272	-24,46
994,473	-21,22
994,675	-19,22
994,876	-18,11
995,077	-17,35
995,278	-17,53
995,48	-16,53
995,681	-19,8
995,882	-18,34
996,083	-17,38
996,284	-21,14
996,485	-20,83
996,686	-22,01
996,887	-23,35
997,088	-26,09
997,289	-27,26
997,49	-27,57
997,691	-26,71
997,892	-25,34
998,092	-20,96
998,293	-21,66
998,494	-21,63
998,695	-23,24
998,896	-21,58
999,096	-23,05
999,297	-23,94
999,498	-24,29
999,698	-24,98
999,899	-28,41
1000,1	-29,58
1000,3	-28,1
1000,501	-29,59
1000,701	-30,41
1000,902	-30,33
1001,102	-30,56
1001,303	-28,83
1001,503	-31,56
1001,704	-30,24
1001,904	-30,59
1002,105	-31,65
1002,305	-32,07
1002,505	-33,48
1002,706	-33,11
1002,906	-31,17
1003,106	-32,26
1003,306	-31,16
1003,507	-29,22
1003,707	-30,49
1003,907	-28,12
1004,107	-27,98
1004,307	-30,5
1004,507	-28,5
1004,707	-30,44
1004,907	-30,05
1005,107	-29,41
1005,308	-28,24
1005,507	-29,44
1005,707	-27,43
1005,907	-27,44
1006,107	-24,36
1006,307	-23,9
1006,507	-25,83
1006,707	-23,7
1006,907	-22,04
1007,106	-24,01
1007,306	-23,72
1007,506	-23,8
1007,706	-22,51
1007,905	-24,79
1008,105	-25,45
1008,305	-25,92
1008,504	-25,26
1008,704	-18,66
1008,903	-18,35
1009,103	-17,61
1009,303	-19,02
1009,502	-17,87
1009,702	-18,1
1009,901	-16,78
1010,1	-20,27
1010,3	-18,2
1010,499	-19,91
1010,699	-21,3
1010,898	-21,79
1011,097	-22,41
1011,296	-23,35
1011,496	-23,58
1011,695	-24,2
1011,894	-27,12
1012,093	-23,59
1012,293	-23,45
1012,492	-23,9
1012,691	-23,01
1012,89	-23,88
1013,089	-27,75
1013,288	-26
1013,487	-25,49
1013,686	-26,06
1013,885	-28,14
1014,084	-26,68
1014,283	-25,28
1014,482	-25,28
1014,681	-25,66
1014,88	-29,82
1015,078	-29,37
1015,277	-30,61
1015,476	-31,83
1015,675	-33,31
1015,873	-32,84
1016,072	-35,01
1016,271	-31,07
1016,47	-35,21
1016,668	-33,2
1016,867	-34,99
1017,065	-35,84
1017,264	-35,74
1017,463	-35,08
1017,661	-36,33
1017,86	-35,76
1018,058	-32,79
1018,256	-34,14
1018,455	-36,09
1018,653	-34,89
1018,852	-33,68
1019,05	-36,15
1019,248	-36,36
1019,447	-37,72
1019,645	-38,5
1019,843	-40,67
1020,041	-38,23
1020,24	-38,92
1020,438	-34,57
1020,636	-35,33
1020,834	-38,49
1021,032	-37,19
1021,23	-38,87
1021,428	-37,96
1021,626	-32,48
1021,824	-31,44
1022,022	-33,31
1022,22	-29,61
1022,418	-30,05
1022,616	-29,82
1022,814	-30,55
1023,012	-30,94
1023,21	-29,46
1023,408	-28,33
1023,606	-29,85
1023,803	-24,46
1024,001	-24,06
1024,199	-28,15
1024,397	-28,64
1024,594	-28,33
1024,792	-30,95
1024,99	-30,6
1025,187	-29,24
1025,385	-25,3
1025,582	-25,2
1025,78	-26,27
1025,977	-24,47
1026,175	-24,53
1026,372	-24,12
1026,57	-27,39
1026,767	-24,23
1026,965	-22,3
1027,162	-22,08
1027,359	-22,2
1027,557	-21,19
1027,754	-24,47
1027,951	-26,03
1028,148	-23,34
1028,346	-26,54
1028,543	-29,26
1028,74	-29,02
1028,937	-30,45
1029,134	-29,54
1029,331	-30,07
1029,528	-30,86
1029,725	-31,69
1029,923	-35,43
1030,12	-32,79
1030,317	-31,29
1030,513	-29,58
1030,71	-28,84
1030,907	-25,24
1031,104	-26,28
1031,301	-27,58
1031,498	-28,62
1031,695	-29,36
1031,892	-27,84
1032,088	-26,65
1032,285	-27,83
1032,482	-29,15
1032,678	-31,93
1032,875	-35,89
1033,072	-35,63
1033,268	-35,67
1033,465	-35,09
1033,662	-38,83
1033,858	-38,34
1034,055	-38,02
1034,251	-36,24
1034,448	-36,67
1034,644	-36,38
1034,84	-34,3
1035,037	-32,15
1035,233	-31,97
1035,43	-30,62
1035,626	-31,36
1035,822	-30,79
1036,019	-31,53
1036,215	-35,14
1036,411	-35,83
1036,607	-36,52
1036,803	-38,32
1037	-39,18
1037,196	-41,19
1037,392	-40,78
1037,588	-42,86
1037,784	-42,64
1037,98	-45,37
1038,176	-46,35
1038,372	-47,27
1038,568	-44,94
1038,764	-42,05
1038,96	-38,74
1039,156	-39,05
1039,352	-40,46
1039,547	-39,79
1039,743	-39,39
1039,939	-37,87
1040,135	-37,96
1040,331	-40,56
1040,526	-36,96
1040,722	-37,7
1040,918	-38,51
1041,113	-42,58
1041,309	-42,44
1041,505	-45,14
1041,7	-44,11
1041,896	-43,85
1042,091	-44,29
1042,287	-43,16
1042,482	-41,84
1042,678	-42,94
1042,873	-42,01
1043,069	-43,35
1043,264	-41,68
1043,459	-40,77
1043,655	-39,3
1043,85	-39,76
1044,045	-36,84
1044,24	-37,56
1044,436	-34,57
1044,631	-36,07
1044,826	-38,11
1045,021	-41,13
1045,216	-41,4
