Data from FLMT021711__2__18-14-06-688.txt Node

Date: Tue Nov 05 18:14:06 CET 2024
User: Etudiants TP
Spectrometer: FLMT02171
Trigger mode: 0
Integration Time (sec): 1,000000E-1
Scans to average: 5
Electric dark correction enabled: true
Nonlinearity correction enabled: false
Boxcar width: 15
XAxis mode: Wavelengths
Number of Pixels in Spectrum: 3648
>>>>>Begin Spectral Data<<<<<
194,658	-71,65
194,923	-69,42
195,188	-61,98
195,453	-60,81
195,717	-55,48
195,982	-54,21
196,247	-51,98
196,512	-53,48
196,777	-52,55
197,042	-50,47
197,307	-51,56
197,572	-45,43
197,837	-45,78
198,101	-44,47
198,366	-42
198,631	-39,95
198,896	-32,55
199,161	-25
199,425	-16,22
199,69	-5,89
199,955	-7,02
200,22	-10,23
200,484	-10,71
200,749	-10,09
201,014	-8,25
201,278	-7,5
201,543	-7,1
201,807	-8,52
202,072	-6,44
202,337	-6,9
202,601	-7,68
202,866	-9,75
203,13	-8,28
203,395	-10,87
203,659	-10,78
203,924	-12,2
204,189	-10,81
204,453	-9,86
204,717	-7,59
204,982	-5,38
205,246	-4,9
205,511	-1,47
205,775	-3,36
206,04	1,75
206,304	3,42
206,568	5,27
206,833	6,3
207,097	7,16
207,361	9,45
207,626	13,44
207,89	14,28
208,154	14,58
208,419	16,04
208,683	16,17
208,947	18,03
209,211	16,81
209,476	15,94
209,74	15,88
210,004	16,47
210,268	17,4
210,532	21,33
210,796	21,09
211,061	21,43
211,325	22,64
211,589	22,22
211,853	22,76
212,117	23,08
212,381	22,57
212,645	23,26
212,909	23,34
213,173	21,64
213,437	23,07
213,701	23,75
213,965	24,87
214,229	20,32
214,493	19,13
214,757	18,56
215,021	17,13
215,285	21,88
215,549	24,32
215,813	20,32
216,077	19,29
216,34	21,69
216,604	21,95
216,868	22,85
217,132	23,49
217,396	23,37
217,659	24,26
217,923	20,85
218,187	21,8
218,451	20,64
218,714	19,29
218,978	20,59
219,242	24,95
219,505	24,55
219,769	24,7
220,033	25,56
220,296	26,99
220,56	28,73
220,824	26,34
221,087	27,1
221,351	26,28
221,614	25,18
221,878	25,51
222,142	22,03
222,405	21,61
222,669	25,38
222,932	21,44
223,196	19,41
223,459	15,45
223,722	15,22
223,986	15,08
224,249	14,71
224,513	15,73
224,776	14,31
225,04	13,22
225,303	11,84
225,566	11,82
225,83	12,58
226,093	15,48
226,356	12,58
226,62	9,63
226,883	9,83
227,146	9,48
227,409	7,96
227,673	6,7
227,936	6,72
228,199	6,83
228,462	4,82
228,725	3,08
228,989	3,03
229,252	3,97
229,515	9,23
229,778	7,97
230,041	7,26
230,304	6,07
230,567	7,49
230,83	4,58
231,093	6,3
231,356	5,95
231,619	12,7
231,882	11,93
232,145	13,77
232,408	12,34
232,671	11,3
232,934	11,18
233,197	9,31
233,46	9,02
233,723	10,57
233,986	9,21
234,249	6,4
234,512	8,89
234,775	14,07
235,037	12,12
235,3	12,4
235,563	11,64
235,826	11,19
236,089	13,43
236,351	11,91
236,614	14,11
236,877	14,59
237,14	17,01
237,402	15,41
237,665	9,19
237,928	9,36
238,19	5,52
238,453	9,62
238,716	9,97
238,978	10,59
239,241	10,45
239,503	13,48
239,766	7,21
240,029	5,51
240,291	9,19
240,554	10,02
240,816	7,75
241,079	7,9
241,341	9,36
241,604	7,35
241,866	4,26
242,129	6,11
242,391	9
242,653	8,07
242,916	7,16
243,178	8,5
243,441	9,03
243,703	8,47
243,965	7,24
244,228	7,13
244,49	7,24
244,752	7,4
245,015	8,8
245,277	11,12
245,539	10,58
245,801	11,78
246,064	11,06
246,326	11,32
246,588	9,98
246,85	10,86
247,112	10,78
247,374	12,48
247,637	14,4
247,899	13,45
248,161	14,66
248,423	9,93
248,685	9,67
248,947	10,94
249,209	11,41
249,471	11,65
249,733	14,15
249,995	13,19
250,257	10,74
250,519	8,14
250,781	10,84
251,043	8,68
251,305	10,6
251,567	11,64
251,829	12,32
252,091	12,92
252,353	8,7
252,615	9,09
252,876	7,06
253,138	4,31
253,4	-0,96
253,662	0,93
253,924	2,75
254,185	3,97
254,447	5,02
254,709	4,44
254,971	6,71
255,232	8,31
255,494	6,97
255,756	5,4
256,017	6,64
256,279	5,6
256,541	5,09
256,802	4,68
257,064	5,35
257,326	3,72
257,587	4,59
257,849	4,47
258,11	7,44
258,372	9,83
258,633	11,79
258,895	10,07
259,156	9,13
259,418	6,22
259,679	3,03
259,941	0,79
260,202	2,37
260,464	5,09
260,725	3,98
260,987	3,38
261,248	3,09
261,509	3,75
261,771	1,27
262,032	2,75
262,293	2,57
262,555	2,52
262,816	1,81
263,077	-1,14
263,338	-4,39
263,6	-4,41
263,861	-5,85
264,122	-6,64
264,383	-4,13
264,645	-3,26
264,906	-3,78
265,167	-3,44
265,428	-2,51
265,689	-1,82
265,95	-4,3
266,211	-2,9
266,473	-2,42
266,734	-5,87
266,995	-9,09
267,256	-8,31
267,517	-4,47
267,778	-2,2
268,039	-0,87
268,3	-1,67
268,561	-3,91
268,822	-0,82
269,083	-2,66
269,344	-3,15
269,604	-3,26
269,865	-1,73
270,126	-5,06
270,387	-4,74
270,648	-3,54
270,909	-3,91
271,17	-4,8
271,43	-7,68
271,691	-10,03
271,952	-9,8
272,213	-7,53
272,473	-10,17
272,734	-7,3
272,995	-4,98
273,256	-5,14
273,516	-2,68
273,777	-4,4
274,038	-2,26
274,298	-5,99
274,559	-7,87
274,82	-2,99
275,08	-0,04
275,341	1,65
275,601	-1,13
275,862	-2,64
276,122	-2,64
276,383	-2,17
276,643	-1
276,904	-1,3
277,164	3,23
277,425	3,13
277,685	7,81
277,946	7,81
278,206	8,52
278,467	10,76
278,727	11,26
278,987	10,62
279,248	11,49
279,508	13,79
279,768	16,11
280,029	16,95
280,289	13,44
280,549	11,61
280,81	9,43
281,07	7,23
281,33	8,57
281,59	6,9
281,851	8,25
282,111	7,85
282,371	8,02
282,631	9,68
282,891	7,76
283,151	5,35
283,412	3,29
283,672	2,69
283,932	2,78
284,192	4,92
284,452	2,32
284,712	0,54
284,972	-1,26
285,232	-4,91
285,492	-2,8
285,752	-6,47
286,012	0,21
286,272	2,4
286,532	-0,77
286,792	-1,28
287,052	1,74
287,312	-0,16
287,571	-0,43
287,831	0,41
288,091	-2,5
288,351	-1,55
288,611	3,51
288,871	4,5
289,13	4,83
289,39	1,74
289,65	2,95
289,91	0,47
290,17	3,09
290,429	6,27
290,689	3,46
290,949	1,3
291,208	4,38
291,468	7,66
291,728	8,83
291,987	9,67
292,247	7,44
292,506	11,13
292,766	14,93
293,026	12,74
293,285	13,93
293,545	16,45
293,804	17,05
294,064	11,89
294,323	8,98
294,583	9,42
294,842	10
295,102	9,32
295,361	10,69
295,621	11,55
295,88	10,49
296,139	10,01
296,399	11,49
296,658	6,52
296,917	4,76
297,177	3,11
297,436	4,37
297,695	3,21
297,955	4,2
298,214	2,14
298,473	2,97
298,732	5,27
298,992	8,13
299,251	8,12
299,51	4,94
299,769	7,15
300,028	7,19
300,287	7,74
300,547	8,11
300,806	6,18
301,065	10,54
301,324	12,36
301,583	7,73
301,842	3,73
302,101	1,59
302,36	2,36
302,619	2,33
302,878	3,45
303,137	0,95
303,396	0,85
303,655	2,65
303,914	0,78
304,173	1,89
304,432	0,58
304,691	3,94
304,95	3,25
305,208	7,18
305,467	7,95
305,726	7,81
305,985	9,94
306,244	12,14
306,503	10,29
306,761	9,32
307,02	5,88
307,279	5,33
307,537	6,42
307,796	2,26
308,055	-0,43
308,314	0,81
308,572	-2,47
308,831	-1,46
309,09	0,1
309,348	0,64
309,607	2,16
309,865	6,13
310,124	7,09
310,382	9,17
310,641	11,22
310,9	8,44
311,158	9,79
311,417	10,4
311,675	9,82
311,933	10,43
312,192	12,15
312,45	12,64
312,709	12,07
312,967	11,8
313,226	11,79
313,484	10,5
313,742	8,52
314,001	7,15
314,259	5,13
314,517	6,28
314,776	7,82
315,034	10,12
315,292	8,33
315,55	5,26
315,809	4,66
316,067	6,02
316,325	4,14
316,583	6,44
316,841	4,86
317,1	1,37
317,358	-1,38
317,616	-3,54
317,874	-3,77
318,132	-5,1
318,39	-4,61
318,648	-6,08
318,906	-5,72
319,164	-7,03
319,422	-7,56
319,68	-8,08
319,938	-7,22
320,196	-7,7
320,454	-5,53
320,712	-5,58
320,97	-5,65
321,228	-8,06
321,486	-5,51
321,744	-4,48
322,002	-2,98
322,26	-4,61
322,517	-4,73
322,775	-7,66
323,033	-8,59
323,291	-5,76
323,549	-2,83
323,806	0,96
324,064	1,29
324,322	2,56
324,58	0,97
324,837	2,99
325,095	0,82
325,353	2,7
325,61	5,1
325,868	3,78
326,126	6,1
326,383	3,36
326,641	0,51
326,898	1,8
327,156	3,6
327,413	3,52
327,671	2,84
327,928	4,91
328,186	4,8
328,443	2,92
328,701	6,45
328,958	7,21
329,216	8,68
329,473	5,86
329,731	7,32
329,988	6,83
330,245	9,54
330,503	10,77
330,76	10,98
331,017	14,2
331,275	11,39
331,532	10,98
331,789	8,14
332,047	8,73
332,304	6,48
332,561	5,63
332,818	4,63
333,076	6,49
333,333	8,53
333,59	8,85
333,847	9,54
334,104	8,29
334,361	8,05
334,618	10,28
334,876	9,15
335,133	7,65
335,39	6,92
335,647	8,25
335,904	4,33
336,161	2,54
336,418	2,63
336,675	-0,7
336,932	0,73
337,189	-0,34
337,446	2,11
337,703	0,55
337,96	-2,72
338,216	-2,08
338,473	-5,33
338,73	-4,81
338,987	-5,93
339,244	-3,02
339,501	-4,92
339,757	-3,45
340,014	-2,74
340,271	-1,68
340,528	0,13
340,785	4,34
341,041	4,74
341,298	0,41
341,555	0,35
341,811	0,8
342,068	-1,07
342,325	-0,81
342,581	1,42
342,838	2,54
343,094	4,26
343,351	4,59
343,608	1,47
343,864	4,08
344,121	6,18
344,377	5,06
344,634	3,84
344,89	3,32
345,147	2,71
345,403	-0,6
345,66	-0,08
345,916	1,8
346,172	-0,78
346,429	-1,61
346,685	-2,93
346,942	-3,71
347,198	-6,87
347,454	-5,3
347,711	-6,13
347,967	-9,23
348,223	-10,04
348,48	-10,08
348,736	-7,47
348,992	-8,24
349,248	-5,04
349,504	-5,57
349,761	-5,32
350,017	-4,95
350,273	-5,78
350,529	-8,4
350,785	-8,91
351,041	-10,78
351,297	-9,13
351,554	-10,2
351,81	-12,2
352,066	-12,46
352,322	-12,11
352,578	-11,78
352,834	-13,18
353,09	-11,98
353,346	-10,61
353,602	-12,78
353,858	-13,7
354,114	-14,02
354,369	-11,95
354,625	-9,4
354,881	-10,61
355,137	-7,9
355,393	-8,06
355,649	-7,92
355,905	-6,98
356,16	-6,07
356,416	-5,09
356,672	-12,88
356,928	-11,71
357,183	-13,1
357,439	-13,75
357,695	-15,71
357,951	-10,97
358,206	-11,06
358,462	-11,36
358,718	-14
358,973	-12,82
359,229	-13,08
359,484	-11,81
359,74	-8,73
359,996	-8,54
360,251	-5,5
360,507	-5,17
360,762	-4,41
361,018	-1,51
361,273	-1,2
361,529	1,41
361,784	3,39
362,04	6,58
362,295	6,98
362,55	8,45
362,806	11,86
363,061	12,23
363,316	12,3
363,572	13,47
363,827	14,84
364,082	11,56
364,338	10,25
364,593	11,22
364,848	12,13
365,104	11,53
365,359	16,63
365,614	17,43
365,869	14,23
366,124	14,57
366,38	13,9
366,635	15,71
366,89	15,35
367,145	14,88
367,4	18,68
367,655	17,63
367,91	17,01
368,165	15,49
368,42	12,01
368,675	13,08
368,93	12,33
369,185	7,77
369,44	7,77
369,695	8,59
369,95	5,8
370,205	3,44
370,46	1,38
370,715	-0,22
370,97	0,34
371,225	0,58
371,48	1,73
371,734	2,01
371,989	3,57
372,244	3,92
372,499	5,53
372,754	3,55
373,008	1,04
373,263	-5,76
373,518	-2,43
373,773	-3,51
374,027	-4,17
374,282	-0,48
374,537	2,02
374,791	4,9
375,046	3,79
375,301	2,88
375,555	1,54
375,81	3,2
376,064	3,56
376,319	7,49
376,573	4,39
376,828	-0,35
377,082	3,8
377,337	1,36
377,591	-1,08
377,846	-0,3
378,1	3,09
378,355	4,07
378,609	4,11
378,863	-0,36
379,118	1,77
379,372	-0,02
379,627	-1,39
379,881	-2,46
380,135	-2,43
380,389	-3,61
380,644	-2,39
380,898	-0,95
381,152	2,09
381,407	1,94
381,661	5,04
381,915	6,45
382,169	5,67
382,423	3,71
382,677	0,5
382,932	1,67
383,186	2,42
383,44	4,21
383,694	4,76
383,948	2,77
384,202	1,37
384,456	5,01
384,71	7,59
384,964	6,75
385,218	8,27
385,472	7,83
385,726	6,73
385,98	6,18
386,234	5,16
386,488	1,59
386,742	3,28
386,996	0,62
387,249	2,15
387,503	4,04
387,757	6,91
388,011	8,03
388,265	10,11
388,518	10,8
388,772	13,24
389,026	13,51
389,28	10,24
389,533	7,3
389,787	9,99
390,041	8,21
390,295	8,46
390,548	7,96
390,802	11,18
391,055	9,83
391,309	9,41
391,563	8,31
391,816	9,57
392,07	9,19
392,323	9,66
392,577	10,28
392,83	11,98
393,084	17,68
393,337	22,47
393,591	24,08
393,844	23,93
394,098	28,15
394,351	32,24
394,604	34,05
394,858	35,41
395,111	34,22
395,364	31,28
395,618	32,75
395,871	30,63
396,124	28,5
396,378	27,81
396,631	26,69
396,884	22,99
397,137	22,93
397,391	24,97
397,644	22,79
397,897	23,75
398,15	24,15
398,403	27,77
398,657	25,92
398,91	24,86
399,163	23,43
399,416	22,99
399,669	21
399,922	22,2
400,175	28
400,428	41,41
400,681	60,54
400,934	80,5
401,187	104,69
401,44	126,33
401,693	140,3
401,946	148,07
402,199	150,18
402,452	153,48
402,704	153,73
402,957	154,94
403,21	159,17
403,463	158,06
403,716	159,44
403,969	163,95
404,221	166,32
404,474	170,17
404,727	177,38
404,98	180,86
405,232	181,33
405,485	181,79
405,738	184,71
405,99	185,62
406,243	185,66
406,496	186,57
406,748	186,72
407,001	187,01
407,253	188,73
407,506	190,35
407,759	188,95
408,011	178,1
408,264	164,87
408,516	146,25
408,769	119,99
409,021	93,87
409,274	72,64
409,526	59,5
409,778	47,16
410,031	44,58
410,283	40,83
410,536	43,98
410,788	40,67
411,04	37,35
411,293	39,26
411,545	39,65
411,797	36,05
412,049	33,57
412,302	32,03
412,554	30,68
412,806	28,11
413,058	25,2
413,311	26,06
413,563	23,28
413,815	22,88
414,067	20,39
414,319	19,57
414,571	20,65
414,823	19,64
415,075	16,52
415,328	16,8
415,58	19,69
415,832	22,67
416,084	23,23
416,336	21,48
416,588	24,71
416,84	24,56
417,091	26,52
417,343	22,16
417,595	25,53
417,847	25,95
418,099	27,76
418,351	26,56
418,603	30,73
418,855	33,12
419,106	31,76
419,358	32,44
419,61	31,62
419,862	33,26
420,114	30,63
420,365	29,98
420,617	28,85
420,869	27,36
421,12	26,5
421,372	27,61
421,624	25,95
421,875	25,9
422,127	23,96
422,379	23,33
422,63	25,65
422,882	24,88
423,133	24,84
423,385	24,87
423,636	24,97
423,888	26,35
424,139	29,23
424,391	26,35
424,642	23,54
424,894	21,87
425,145	22,49
425,396	17,82
425,648	20,25
425,899	17,41
426,151	16,16
426,402	13,88
426,653	13,33
426,905	12,58
427,156	9,21
427,407	10,53
427,658	9,09
427,91	7,6
428,161	6,27
428,412	9,58
428,663	11,24
428,914	12
429,166	12,83
429,417	14,31
429,668	12,85
429,919	9,98
430,17	9,55
430,421	10,96
430,672	15,17
430,923	17,42
431,174	23,95
431,425	54
431,676	98,29
431,927	152,96
432,178	225,21
432,429	300,82
432,68	362,75
432,931	413,5
433,182	451,69
433,433	474,23
433,683	493,79
433,934	502,01
434,185	506,5
434,436	507,91
434,687	510,24
434,937	513,46
435,188	511,8
435,439	511,02
435,69	513,25
435,94	513
436,191	512,93
436,442	512,95
436,692	511,34
436,943	508,65
437,194	507,03
437,444	510,66
437,695	514,76
437,945	516,13
438,196	513,08
438,447	511,36
438,697	508,38
438,948	500,38
439,198	466,42
439,449	417,67
439,699	359,48
439,949	288,9
440,2	212,69
440,45	150,72
440,701	102,71
440,951	65,63
441,201	38,85
441,452	19,48
441,702	8,88
441,952	4,51
442,203	1,5
442,453	-1,89
442,703	-3,52
442,953	-2,2
443,204	-0,66
443,454	-3,46
443,704	-3,76
443,954	-6,68
444,204	-6,46
444,455	-4,2
444,705	-3,06
444,955	-2,89
445,205	-5,51
445,455	-9,03
445,705	-9,4
445,955	-9,31
446,205	-10,16
446,455	-8,88
446,705	-7,89
446,955	-5,23
447,205	-4,98
447,455	-2,12
447,705	-4,45
447,955	-5
448,205	-3,89
448,454	-4,74
448,704	-1,6
448,954	-1,82
449,204	-0,57
449,454	1,47
449,704	-0,24
449,953	-0,78
450,203	1,06
450,453	-0,05
450,703	0,52
450,952	-1,7
451,202	-0,57
451,452	-1,52
451,701	0,93
451,951	3,78
452,201	1,49
452,45	-0,09
452,7	0,91
452,949	1,83
453,199	2,86
453,448	3,32
453,698	3,49
453,947	1,94
454,197	0,17
454,446	-1,71
454,696	0,46
454,945	1,14
455,195	-1,38
455,444	-1,01
455,693	2,96
455,943	-0,31
456,192	-0,15
456,442	-1,81
456,691	-1,88
456,94	-4,12
457,189	-6,27
457,439	-4,3
457,688	-1,29
457,937	-2,33
458,186	-0,76
458,436	-0,7
458,685	-0,08
458,934	-1,08
459,183	-0,26
459,432	1,12
459,681	1,3
459,93	0,34
460,179	1,39
460,429	-0,07
460,678	3,09
460,927	7,47
461,176	7,23
461,425	7,52
461,674	9,89
461,923	10,61
462,172	10,21
462,42	9,42
462,669	11,65
462,918	11,49
463,167	11,77
463,416	10,16
463,665	11,8
463,914	12,6
464,162	11,26
464,411	12,33
464,66	15,01
464,909	14,23
465,158	13,87
465,406	14,38
465,655	16,52
465,904	17,64
466,152	16,91
466,401	18,81
466,65	21,89
466,898	20
467,147	15,97
467,395	16,14
467,644	19,3
467,893	19,33
468,141	19,87
468,39	16,55
468,638	12,39
468,887	10,48
469,135	9,85
469,384	10,18
469,632	10,62
469,88	10,28
470,129	12,23
470,377	8,81
470,626	11,9
470,874	15,25
471,122	16,77
471,371	16,62
471,619	14,73
471,867	18,04
472,115	18,83
472,364	16,46
472,612	20,28
472,86	19,26
473,108	18,98
473,356	18,54
473,605	17,3
473,853	16,44
474,101	14,25
474,349	12,29
474,597	15,05
474,845	14,83
475,093	13,61
475,341	11,06
475,589	10,19
475,837	10,91
476,085	12,79
476,333	12,73
476,581	14,76
476,829	15,96
477,077	19,19
477,325	20,17
477,573	23,43
477,821	21,48
478,069	24,21
478,317	25,7
478,564	29,54
478,812	29,46
479,06	31,01
479,308	33,75
479,555	38,43
479,803	42,64
480,051	51,11
480,299	56,02
480,546	63,35
480,794	67,09
481,042	76,51
481,289	84,82
481,537	95,43
481,784	106,44
482,032	121,68
482,28	133,26
482,527	147,25
482,775	161,7
483,022	178,74
483,27	195,88
483,517	213,96
483,765	228,04
484,012	243,85
484,259	256,86
484,507	273,79
484,754	287,32
485,002	299,64
485,249	311,41
485,496	327,55
485,744	338,57
485,991	347,15
486,238	353,36
486,486	365,46
486,733	375,21
486,98	386,6
487,227	390,95
487,474	397,7
487,722	404,57
487,969	405,86
488,216	409,95
488,463	413,63
488,71	412,97
488,957	412,51
489,204	410,7
489,451	409,09
489,699	404,61
489,946	398,6
490,193	391,2
490,44	383,63
490,687	375,94
490,934	365,38
491,18	354,19
491,427	347,67
491,674	341,57
491,921	333,33
492,168	322,1
492,415	310,69
492,662	304,16
492,909	297,38
493,155	287,84
493,402	277,37
493,649	268,32
493,896	262,05
494,142	251,3
494,389	241,97
494,636	232,41
494,883	223,45
495,129	215,15
495,376	205,64
495,623	201,95
495,869	196,14
496,116	191,15
496,362	184,97
496,609	182,82
496,855	181,49
497,102	175,65
497,348	167,97
497,595	162,38
497,841	161,28
498,088	154,67
498,334	148,53
498,581	141,65
498,827	135,3
499,074	130,58
499,32	125,8
499,566	124,21
499,813	119,87
500,059	114,43
500,305	108,64
500,552	102,96
500,798	97,82
501,044	98,68
501,29	94,88
501,537	89,13
501,783	88,1
502,029	89,27
502,275	82,23
502,521	77,92
502,767	75,46
503,013	74,75
503,26	67,88
503,506	62,2
503,752	59,49
503,998	54,57
504,244	51,09
504,49	46,9
504,736	45,99
504,982	43,42
505,228	44,1
505,474	42,71
505,72	40,75
505,966	38,07
506,211	39,78
506,457	39,46
506,703	34,42
506,949	30,77
507,195	27,19
507,441	23,22
507,686	25,12
507,932	24,51
508,178	25,48
508,424	23,09
508,669	19,58
508,915	18,71
509,161	19,88
509,406	19,27
509,652	16,49
509,898	21,01
510,143	20,73
510,389	19,87
510,634	15,42
510,88	18,92
511,125	20,07
511,371	19,63
511,616	21,89
511,862	19,16
512,107	15,62
512,353	15,63
512,598	16,19
512,844	13,87
513,089	11,43
513,335	12,77
513,58	12,13
513,825	12,52
514,071	10,42
514,316	9,95
514,561	10,5
514,806	8,57
515,052	11,7
515,297	8,73
515,542	9,11
515,787	9,77
516,033	11,31
516,278	12,17
516,523	10,91
516,768	9,34
517,013	5,87
517,258	5,59
517,503	3,96
517,748	4,69
517,993	2,77
518,238	3,15
518,483	1,7
518,728	0,45
518,973	-1,38
519,218	-2,55
519,463	-2,15
519,708	-3,22
519,953	-5,83
520,198	-5,9
520,443	-4,48
520,688	-1,52
520,933	-1,94
521,177	-1,07
521,422	-3,78
521,667	-0,15
521,912	-0,16
522,157	-4,44
522,401	-1,6
522,646	-2,63
522,891	-1,65
523,135	-1,72
523,38	-2,23
523,625	-4,56
523,869	-2
524,114	0,58
524,358	-0,44
524,603	1,91
524,848	0,59
525,092	-0,16
525,337	3,19
525,581	4,74
525,826	6,18
526,07	7,64
526,315	10,36
526,559	10,57
526,803	8,64
527,048	12,99
527,292	15,2
527,537	16,63
527,781	16,63
528,025	14,46
528,269	15,32
528,514	15,67
528,758	14,2
529,002	15,8
529,247	19,45
529,491	21,77
529,735	29,51
529,979	33,15
530,223	37,48
530,467	38,32
530,712	38,82
530,956	39,36
531,2	43,81
531,444	43,48
531,688	47,15
531,932	50,44
532,176	52,73
532,42	56,16
532,664	61,34
532,908	62,59
533,152	65,3
533,396	70,74
533,64	75,01
533,884	79,05
534,128	85,03
534,371	95,93
534,615	105,95
534,859	114,62
535,103	125,28
535,347	139,33
535,59	154,38
535,834	167,48
536,078	188,57
536,322	212,23
536,565	239,99
536,809	267,7
537,053	303,56
537,296	345,45
537,54	393,85
537,784	450,28
538,027	517,61
538,271	588,9
538,514	662,57
538,758	734,8
539,001	804,04
539,245	873,77
539,488	940,93
539,732	1009,91
539,975	1074,35
540,219	1137,91
540,462	1197,26
540,706	1259
540,949	1315,77
541,192	1373,43
541,436	1436,88
541,679	1513,22
541,922	1600,01
542,166	1696,87
542,409	1808,01
542,652	1925,04
542,895	2039,82
543,139	2140,19
543,382	2228,59
543,625	2302,26
543,868	2364,01
544,111	2413,85
544,354	2449,5
544,598	2472,13
544,841	2481,05
545,084	2477,52
545,327	2459,76
545,57	2431,56
545,813	2397,12
546,056	2355,04
546,299	2313,76
546,542	2271,72
546,785	2229,01
547,028	2186,6
547,271	2140,06
547,514	2096,06
547,756	2048,52
547,999	2006,43
548,242	1961,83
548,485	1913,83
548,728	1866,22
548,971	1811,03
549,213	1746,64
549,456	1662,55
549,699	1563,03
549,942	1452,92
550,184	1334,49
550,427	1215,09
550,67	1109,95
550,912	1011,39
551,155	925,02
551,398	847,65
551,64	775,65
551,883	713,38
552,125	656,65
552,368	606,82
552,61	560,83
552,853	524,35
553,095	487,56
553,338	453,01
553,58	421,19
553,823	388,42
554,065	364,09
554,308	335,06
554,55	309,12
554,792	286,22
555,035	263,72
555,277	244,37
555,519	225,98
555,762	206,82
556,004	192,74
556,246	176,38
556,488	163,78
556,731	147,48
556,973	138,66
557,215	128,04
557,457	119,83
557,699	113,23
557,941	102,86
558,183	95,32
558,426	90,57
558,668	80,75
558,91	76,12
559,152	71,75
559,394	66,81
559,636	66,23
559,878	63,17
560,12	58,93
560,362	56,54
560,604	54,14
560,845	51,03
561,087	49,25
561,329	49,77
561,571	45,84
561,813	44,62
562,055	42,45
562,297	41,5
562,538	41,56
562,78	43,67
563,022	38,98
563,264	39,51
563,505	38,9
563,747	37,89
563,989	35,57
564,23	35,81
564,472	33,93
564,714	36,23
564,955	36,05
565,197	32,82
565,438	34,01
565,68	36,55
565,921	33,58
566,163	35,45
566,404	34,3
566,646	35,55
566,887	36,77
567,129	35,76
567,37	34,07
567,612	34,48
567,853	30,88
568,094	30,46
568,336	30,54
568,577	32,21
568,818	33,35
569,06	30,5
569,301	27,92
569,542	26,67
569,783	26,61
570,025	26,61
570,266	26,28
570,507	28,8
570,748	27,54
570,989	28,36
571,23	30,17
571,472	29,2
571,713	27,59
571,954	28,89
572,195	26,78
572,436	28,68
572,677	34
572,918	44,35
573,159	50,96
573,4	62,76
573,641	75,54
573,882	87,64
574,123	98,77
574,364	105,1
574,604	116,25
574,845	126,64
575,086	142,11
575,327	157,09
575,568	174,17
575,809	189,74
576,049	203,93
576,29	215,45
576,531	236,75
576,771	255,53
577,012	274,62
577,253	288,91
577,494	298,97
577,734	308,95
577,975	319,32
578,215	330,34
578,456	338,65
578,697	349,5
578,937	363,72
579,178	373,6
579,418	382,71
579,659	393,29
579,899	401,17
580,14	409,18
580,38	412,62
580,62	416,45
580,861	420,18
581,101	419,99
581,342	420,08
581,582	415,57
581,822	419,84
582,063	420,9
582,303	422,07
582,543	419,63
582,783	418,62
583,024	418,4
583,264	420,01
583,504	419,27
583,744	426,27
583,984	427,69
584,224	432,3
584,465	434,68
584,705	440,14
584,945	446,84
585,185	450,12
585,425	453,79
585,665	455,73
585,905	455,65
586,145	454,29
586,385	450,28
586,625	450,25
586,865	445,8
587,105	441,59
587,345	437,74
587,585	432,75
587,824	426,83
588,064	422,93
588,304	418
588,544	416,19
588,784	414,1
589,024	417,22
589,263	419,05
589,503	421,88
589,743	429,72
589,982	434,99
590,222	439,96
590,462	438,5
590,701	434,98
590,941	434,63
591,181	425,9
591,42	416,53
591,66	410,12
591,899	403,66
592,139	393,41
592,378	383,33
592,618	375,36
592,857	367,77
593,097	361,61
593,336	357,25
593,576	353,37
593,815	353,02
594,055	351,74
594,294	351,75
594,533	350,39
594,773	350,26
595,012	352,02
595,251	354,28
595,491	357,62
595,73	362,15
595,969	362,54
596,208	364,11
596,447	368,47
596,687	367,21
596,926	363,05
597,165	354,32
597,404	348,15
597,643	338,23
597,882	330
598,121	325,04
598,36	319,4
598,599	315
598,838	309,1
599,077	299,16
599,316	295
599,555	289,5
599,794	288,81
600,033	287,39
600,272	286,84
600,511	282,95
600,75	281,65
600,989	281,44
601,228	277,74
601,466	273,57
601,705	272,5
601,944	272,27
602,183	270,97
602,422	268,09
602,66	262,54
602,899	256,34
603,138	250,94
603,376	246,26
603,615	241,76
603,854	233,96
604,092	229,35
604,331	227,77
604,569	227,37
604,808	226,42
605,047	231,23
605,285	237,26
605,524	243,9
605,762	251,47
606	268,19
606,239	289,59
606,477	319,65
606,716	355,2
606,954	411,93
607,193	488,12
607,431	589,02
607,669	715,27
607,908	860,98
608,146	1017,62
608,384	1171,26
608,622	1319,31
608,861	1457,11
609,099	1582,62
609,337	1698,15
609,575	1802,34
609,813	1896,33
610,052	1981,72
610,29	2052,56
610,528	2115,08
610,766	2174,56
611,004	2228,44
611,242	2274,73
611,48	2318,15
611,718	2356,12
611,956	2389,91
612,194	2418,77
612,432	2442,29
612,67	2460,13
612,908	2476,6
613,146	2483,14
613,384	2484,49
613,621	2478,59
613,859	2463,69
614,097	2434,97
614,335	2388,25
614,573	2319,95
614,811	2226,13
615,048	2105,25
615,286	1967,49
615,524	1818,09
615,761	1666,88
615,999	1523,34
616,237	1390,54
616,474	1270,69
616,712	1159,48
616,95	1058,13
617,187	966,7
617,425	886,4
617,662	816,92
617,9	753,96
618,137	694,73
618,375	641,84
618,612	594,38
618,85	553,2
619,087	517,71
619,325	483,8
619,562	451,63
619,799	424,74
620,037	403,45
620,274	382,51
620,511	369,32
620,749	353,01
620,986	343,22
621,223	333,06
621,461	327,73
621,698	325,99
621,935	322,67
622,172	318,61
622,409	320,62
622,647	321,3
622,884	321,72
623,121	325,87
623,358	327,44
623,595	331,26
623,832	333,58
624,069	334,39
624,306	338,08
624,543	343,33
624,78	346,48
625,017	348,18
625,254	351,56
625,491	355,35
625,728	358,19
625,965	359,75
626,202	360,62
626,438	359,17
626,675	361,29
626,912	368,86
627,149	376,92
627,386	383,26
627,622	390,43
627,859	398,23
628,096	407,42
628,333	413,65
628,569	420,1
628,806	425,5
629,043	425,88
629,279	426,43
629,516	427,76
629,752	420,17
629,989	414,99
630,225	407,61
630,462	402,73
630,699	395,66
630,935	387,14
631,171	374,71
631,408	365,34
631,644	352,93
631,881	340,38
632,117	328,39
632,354	321,99
632,59	311,78
632,826	303,19
633,063	293,46
633,299	286,87
633,535	275,55
633,771	265,6
634,008	256,74
634,244	243,59
634,48	226,16
634,716	212,35
634,953	194,66
635,189	177,19
635,425	160,42
635,661	144,92
635,897	127,81
636,133	114,31
636,369	102,54
636,605	88,75
636,841	79,76
637,077	74,67
637,313	69,45
637,549	64,97
637,785	58,9
638,021	55,31
638,257	51,07
638,493	52,19
638,729	49,75
638,965	52,41
639,2	52,67
639,436	50,72
639,672	47,7
639,908	46,57
640,144	50,35
640,379	52,27
640,615	48,55
640,851	50,78
641,086	51,49
641,322	49,46
641,558	48,97
641,793	49,89
642,029	47,58
642,264	47,26
642,5	46,88
642,736	44,87
642,971	46,77
643,207	46,62
643,442	44,01
643,678	43,55
643,913	46,48
644,148	46,48
644,384	49,31
644,619	49,31
644,855	50,46
645,09	51,56
645,325	52,96
645,561	53,74
645,796	52,35
646,031	57,45
646,266	56,29
646,502	56,45
646,737	61,66
646,972	64,64
647,207	67,62
647,442	66,63
647,678	66,89
647,913	72,72
648,148	75,59
648,383	77,92
648,618	80,62
648,853	83,83
649,088	88,08
649,323	92,46
649,558	94,55
649,793	97,23
650,028	100,02
650,263	97,11
650,498	101
650,733	102,03
650,968	101,87
651,202	104,6
651,437	101,86
651,672	99,23
651,907	97,48
652,142	98
652,376	98,27
652,611	100,55
652,846	100,87
653,081	100,79
653,315	97,41
653,55	98,42
653,785	96
654,019	96,03
654,254	93,36
654,488	91,42
654,723	86,26
654,958	80,55
655,192	77,18
655,427	71,28
655,661	68,46
655,896	68,16
656,13	67,58
656,364	61,37
656,599	55,47
656,833	57,02
657,068	58,07
657,302	56,24
657,536	54,06
657,771	53,87
658,005	54,93
658,239	56,21
658,474	52,39
658,708	55,98
658,942	56,83
659,176	58,22
659,41	56,45
659,645	57,85
659,879	57,7
660,113	57,33
660,347	57,5
660,581	56,03
660,815	54,49
661,049	54,17
661,283	51,2
661,517	48,66
661,751	47,96
661,985	46,13
662,219	48,05
662,453	46,32
662,687	48,67
662,921	45,98
663,155	44,19
663,389	38,08
663,622	37,43
663,856	39,9
664,09	36,4
664,324	33,82
664,558	33,41
664,791	32,38
665,025	31,11
665,259	29,44
665,492	28,41
665,726	30,91
665,96	27,59
666,193	24,84
666,427	25,35
666,661	23,91
666,894	18,25
667,128	14,64
667,361	14,8
667,595	14,06
667,828	13,36
668,062	11,71
668,295	12,24
668,529	11,34
668,762	11,49
668,995	9,69
669,229	12,84
669,462	13,32
669,695	12,96
669,929	10,1
670,162	10,89
670,395	10,4
670,629	11,37
670,862	12,94
671,095	9,54
671,328	9,47
671,561	5,71
671,795	6,33
672,028	8
672,261	8,4
672,494	9,42
672,727	6,09
672,96	7,18
673,193	7,23
673,426	10,69
673,659	8,77
673,892	8,72
674,125	9,92
674,358	9,85
674,591	8,52
674,824	6,07
675,057	5,52
675,29	4,84
675,523	5,55
675,755	4,61
675,988	6,01
676,221	8,76
676,454	7,26
676,687	7,61
676,919	8
677,152	8,55
677,385	8,55
677,617	9,13
677,85	10,55
678,083	8,55
678,315	10,91
678,548	9,94
678,78	9,62
679,013	8,55
679,246	8,94
679,478	9,82
679,711	8,3
679,943	11,56
680,175	8,22
680,408	12,55
680,64	8,85
680,873	9,95
681,105	12,14
681,338	15,31
681,57	14,53
681,802	16,4
682,034	16,71
682,267	20,54
682,499	22,62
682,731	21,11
682,964	21,28
683,196	17,92
683,428	16,71
683,66	17,01
683,892	22,06
684,124	25,3
684,356	30,45
684,589	32,38
684,821	32,18
685,053	33,31
685,285	36,89
685,517	40,54
685,749	42,2
685,981	46,13
686,213	48,31
686,445	49,63
686,676	47,22
686,908	49,39
687,14	47,93
687,372	47,93
687,604	44,43
687,836	45,63
688,068	45,95
688,299	44,38
688,531	42,17
688,763	46,26
688,995	43,99
689,226	48,16
689,458	45,58
689,69	43,17
689,921	41,39
690,153	41,56
690,384	45,79
690,616	45,58
690,848	46,88
691,079	43,35
691,311	39,7
691,542	34,65
691,774	30,22
692,005	30,99
692,237	33,09
692,468	29,19
692,699	26,54
692,931	25,47
693,162	22,34
693,393	19,21
693,625	16,31
693,856	16,4
694,087	15,28
694,319	15,79
694,55	16,31
694,781	14,53
695,012	14,24
695,243	11,81
695,475	11,55
695,706	10,35
695,937	9,56
696,168	7,97
696,399	4,7
696,63	4,47
696,861	4,92
697,092	10,52
697,323	13,48
697,554	12,27
697,785	11,55
698,016	9,68
698,247	5,46
698,478	7,01
698,709	7,52
698,94	10,78
699,171	10,37
699,401	5,09
699,632	7,58
699,863	4,56
700,094	5,71
700,325	8,19
700,555	10,31
700,786	12,72
701,017	13,56
701,247	14,34
701,478	16,82
701,709	17,49
701,939	18,83
702,17	22,79
702,401	27,07
702,631	29,48
702,862	33,02
703,092	33,15
703,323	40,5
703,553	46,01
703,784	51,15
704,014	56,82
704,244	57,31
704,475	60,38
704,705	66,09
704,936	71,1
705,166	76,47
705,396	85,2
705,627	89,29
705,857	95,98
706,087	101,86
706,317	103,42
706,548	107,72
706,778	111,05
707,008	114,93
707,238	117,77
707,468	117,29
707,698	117,98
707,928	118,83
708,158	119,92
708,389	121,11
708,619	120,77
708,849	121,75
709,079	125,79
709,309	126,42
709,539	126,74
709,768	129,94
709,998	132,18
710,228	132,15
710,458	128,88
710,688	124,52
710,918	121,4
711,148	117,27
711,378	113,4
711,607	107,64
711,837	102,21
712,067	97,86
712,297	91,69
712,526	85,78
712,756	83,07
712,986	73,11
713,215	64,74
713,445	61,57
713,674	57,69
713,904	52,77
714,134	52,56
714,363	47,47
714,593	44,11
714,822	41,04
715,052	38,27
715,281	37,47
715,511	33,17
715,74	31,69
715,969	28,17
716,199	23,92
716,428	20,1
716,657	15,86
716,887	13,65
717,116	6,58
717,345	5,86
717,575	4,77
717,804	4,15
718,033	1,22
718,262	-1,99
718,492	-1,88
718,721	-1,89
718,95	-2,58
719,179	-4,78
719,408	-3,32
719,637	-7,59
719,866	-10,83
720,095	-7,62
720,324	-7,82
720,553	-10,54
720,782	-11,88
721,011	-12,31
721,24	-14,91
721,469	-14,96
721,698	-13,62
721,927	-14,41
722,156	-15,29
722,385	-17,31
722,613	-13,43
722,842	-13,61
723,071	-10,48
723,3	-9,28
723,529	-10,13
723,757	-10,06
723,986	-14,69
724,215	-14,28
724,443	-12,81
724,672	-10,74
724,901	-10,33
725,129	-8,94
725,358	-4,41
725,586	-7,06
725,815	-7,01
726,043	-8,32
726,272	-9,47
726,5	-9,42
726,729	-7,18
726,957	-9,59
727,186	-10,85
727,414	-8,87
727,642	-7,85
727,871	-6,2
728,099	-6,47
728,327	-7,12
728,556	-5,32
728,784	-4,38
729,012	-5,07
729,241	-1,82
729,469	-2,07
729,697	-4,95
729,925	-5,35
730,153	-7,24
730,381	-8,39
730,61	-8,23
730,838	-11,35
731,066	-9,43
731,294	-8,91
731,522	-13,68
731,75	-18,25
731,978	-19,19
732,206	-19,2
732,434	-21,36
732,662	-19,5
732,89	-21,99
733,118	-22,16
733,346	-20,56
733,573	-20,91
733,801	-21,49
734,029	-14,63
734,257	-13,09
734,485	-11,34
734,712	-8,25
734,94	-10,03
735,168	-6,78
735,396	-7,92
735,623	-9,57
735,851	-8,82
736,078	-6,9
736,306	-7,83
736,534	-7,9
736,761	-8,19
736,989	-10,83
737,216	-11,32
737,444	-13,52
737,671	-12,8
737,899	-5,46
738,126	-6,63
738,354	-6,07
738,581	-4,13
738,809	-2,52
739,036	-4,21
739,263	-4,47
739,491	-6,17
739,718	-6,86
739,945	-0,74
740,173	0,71
740,4	0,98
740,627	-0,75
740,854	0,72
741,081	-1,52
741,309	-3,46
741,536	-5,67
741,763	-7,2
741,99	-6,03
742,217	-6,81
742,444	-5,49
742,671	-4,05
742,898	-5,23
743,125	-7,53
743,352	-10,06
743,579	-10,38
743,806	-10,08
744,033	-7,2
744,26	-6,45
744,487	-6,54
744,714	-7,67
744,941	-9,19
745,167	-5,09
745,394	-5,94
745,621	-5,44
745,848	-6,28
746,075	-3,75
746,301	0,04
746,528	4,63
746,755	2,99
746,981	1,57
747,208	4,33
747,435	6,12
747,661	6,64
747,888	6,7
748,114	2,85
748,341	4,29
748,567	4,83
748,794	2,19
749,02	2,68
749,247	1,01
749,473	1,44
749,7	0,79
749,926	0,88
750,152	5,84
750,379	5,96
750,605	7,41
750,831	7,05
751,058	6,54
751,284	4,13
751,51	6,65
751,737	8,5
751,963	6,78
752,189	4,25
752,415	3,54
752,641	2,22
752,867	2,29
753,094	0,17
753,32	-2,69
753,546	-5,31
753,772	-3,24
753,998	-5,68
754,224	-6,95
754,45	-8,48
754,676	-8,18
754,902	-9,56
755,128	-7,77
755,354	-8,88
755,579	-8,63
755,805	-6,94
756,031	-9,88
756,257	-11,57
756,483	-13,91
756,709	-15,65
756,934	-14,6
757,16	-17,58
757,386	-16,27
757,612	-19,65
757,837	-21,06
758,063	-19,06
758,289	-14,55
758,514	-14,51
758,74	-18,61
758,965	-20,3
759,191	-18,59
759,416	-17,26
759,642	-15,9
759,868	-15,83
760,093	-13,62
760,318	-13,83
760,544	-13,62
760,769	-14,39
760,995	-13,6
761,22	-13,61
761,445	-11,52
761,671	-10,57
761,896	-7,61
762,121	-8,23
762,347	-7,37
762,572	-8,45
762,797	-7,93
763,022	-7,42
763,248	-1,94
763,473	1,46
763,698	1,71
763,923	1,63
764,148	1,37
764,373	0,27
764,598	2,97
764,823	5,38
765,048	2,45
765,273	-1,3
765,498	-3,41
765,723	-2,17
765,948	-1,31
766,173	-1,53
766,398	-0,73
766,623	-4,05
766,848	-4,09
767,073	-5,96
767,298	-7,59
767,522	-7,48
767,747	-6,63
767,972	-8,14
768,197	-8,53
768,421	-11,18
768,646	-13,3
768,871	-16,37
769,095	-15,07
769,32	-13,57
769,545	-14,34
769,769	-13,48
769,994	-11,35
770,218	-14,73
770,443	-15,69
770,667	-14,41
770,892	-13,64
771,116	-15,73
771,341	-13,24
771,565	-13,96
771,79	-13,31
772,014	-12,98
772,238	-14,5
772,463	-11,09
772,687	-9,36
772,911	-10,41
773,136	-13,77
773,36	-13,78
773,584	-11,84
773,808	-13,73
774,033	-14,1
774,257	-12,81
774,481	-15
774,705	-15,94
774,929	-14,42
775,153	-14,54
775,377	-12,49
775,602	-12,58
775,826	-10,31
776,05	-9
776,274	-9,99
776,498	-11,19
776,722	-12,99
776,945	-11,85
777,169	-13
777,393	-14,26
777,617	-15,07
777,841	-16,12
778,065	-12,78
778,289	-14,81
778,512	-14,85
778,736	-15,73
778,96	-16,52
779,184	-13,67
779,407	-15,02
779,631	-16,01
779,855	-16,34
780,078	-14,7
780,302	-16,28
780,526	-18,24
780,749	-16,57
780,973	-13,88
781,196	-14,38
781,42	-14,28
781,643	-13,64
781,867	-14,12
782,09	-15,68
782,314	-16,02
782,537	-16,37
782,76	-18,17
782,984	-17,41
783,207	-19,27
783,431	-17,75
783,654	-17,98
783,877	-20,56
784,1	-21,63
784,324	-22,44
784,547	-22,89
784,77	-25,69
784,993	-27,79
785,216	-28,7
785,44	-29,22
785,663	-30,2
785,886	-27,79
786,109	-28,71
786,332	-29,37
786,555	-27,93
786,778	-26,49
787,001	-26,52
787,224	-25,04
787,447	-23,25
787,67	-23,26
787,893	-23,23
788,116	-23,33
788,339	-23,28
788,561	-24,28
788,784	-26,39
789,007	-29,14
789,23	-30,66
789,453	-30,44
789,675	-32,09
789,898	-34,21
790,121	-35,68
790,344	-36,09
790,566	-34
790,789	-33,61
791,012	-31,99
791,234	-28,39
791,457	-24,46
791,679	-23,22
791,902	-22,29
792,124	-22,1
792,347	-22,83
792,569	-22,7
792,792	-26,18
793,014	-23,16
793,237	-21,8
793,459	-22,44
793,681	-23,06
793,904	-23,04
794,126	-23,56
794,348	-23,02
794,571	-21,26
794,793	-22,96
795,015	-21,31
795,237	-21,95
795,46	-19,71
795,682	-18,43
795,904	-14,36
796,126	-16
796,348	-17,54
796,57	-13,73
796,792	-14
797,014	-9,81
797,237	-6,54
797,459	-6,16
797,681	-4,83
797,903	-6,24
798,124	-5,9
798,346	5,33
798,568	7,23
798,79	9,67
799,012	11,71
799,234	12,74
799,456	14,02
799,678	17,3
799,899	14,79
800,121	12,68
800,343	11,96
800,565	13,39
800,786	14,08
801,008	15,39
801,23	14,67
801,451	16,38
801,673	14,42
801,895	12,86
802,116	14,81
802,338	14,92
802,559	13,69
802,781	12,48
803,002	15,37
803,224	17,99
803,445	15,41
803,667	17,87
803,888	16,09
804,109	14,04
804,331	12,94
804,552	12,62
804,773	15,37
804,995	12,1
805,216	-4,66
805,437	-6,96
805,658	-9,64
805,88	-12,12
806,101	-10,69
806,322	-10,47
806,543	-12,39
806,764	-14,48
806,985	-12,44
807,207	-10,43
807,428	-10,33
807,649	-14,05
807,87	-16,36
808,091	-15,21
808,312	-16,26
808,533	-9,22
808,754	-7,02
808,975	-8,57
809,195	-7,08
809,416	-7,31
809,637	-8,22
809,858	-11
810,079	-13,22
810,3	-10,5
810,52	-12,43
810,741	-13,82
810,962	-14,1
811,183	-14,84
811,403	-15,21
811,624	-16,24
811,845	-14,69
812,065	-10,33
812,286	-9,16
812,506	-8,48
812,727	-7,08
812,948	-7,41
813,168	-6,15
813,389	-7,07
813,609	-5,09
813,83	-6,99
814,05	-9,86
814,27	-9,94
814,491	-6,15
814,711	-6,84
814,931	-11,16
815,152	-11,84
815,372	-15,46
815,592	-16,28
815,813	-16,68
816,033	-17,23
816,253	-15,15
816,473	-15,33
816,694	-13
816,914	-9,97
817,134	-10,95
817,354	-12,12
817,574	-11,49
817,794	-11,97
818,014	-12,4
818,234	-11,98
818,454	-14,43
818,674	-17,05
818,894	-20,87
819,114	-18,63
819,334	-17,89
819,554	-16,26
819,774	-13,44
819,994	-16,08
820,214	-15,14
820,433	-14,88
820,653	-15,43
820,873	-12,55
821,093	-12,72
821,312	-15,72
821,532	-12,31
821,752	-9,01
821,972	-10,63
822,191	-9,01
822,411	-10,75
822,63	-10,28
822,85	-10,51
823,07	-13,26
823,289	-12,93
823,509	-15,06
823,728	-13,73
823,948	-15,85
824,167	-17,49
824,387	-17,64
824,606	-16,72
824,825	-17,2
825,045	-18,16
825,264	-16,85
825,483	-13,91
825,703	-11,49
825,922	-15,02
826,141	-16,49
826,361	-17,37
826,58	-22,2
826,799	-23,35
827,018	-23,78
827,237	-23,08
827,456	-21,37
827,676	-22,3
827,895	-22,31
828,114	-19,16
828,333	-19,89
828,552	-20,15
828,771	-19,71
828,99	-23,19
829,209	-22,81
829,428	-19,84
829,647	-21,11
829,866	-19,17
830,084	-19,52
830,303	-19,95
830,522	-20,62
830,741	-18,94
830,96	-17,63
831,179	-17,74
831,397	-19
831,616	-20,2
831,835	-19,9
832,053	-19,85
832,272	-20,29
832,491	-19,75
832,709	-19,78
832,928	-19,37
833,147	-19,43
833,365	-17,41
833,584	-14,18
833,802	-10,94
834,021	-11,4
834,239	-9,88
834,458	-11,15
834,676	-14,03
834,894	-15
835,113	-16,96
835,331	-16,63
835,55	-17,3
835,768	-16,4
835,986	-14,89
836,204	-17,41
836,423	-16,98
836,641	-18,12
836,859	-18,05
837,077	-16,88
837,296	-17,09
837,514	-19,69
837,732	-20,4
837,95	-20,91
838,168	-18,27
838,386	-18,82
838,604	-16,18
838,822	-14,67
839,04	-16,61
839,258	-15,96
839,476	-13,07
839,694	-13,07
839,912	-14,24
840,13	-15,48
840,348	-12,73
840,566	-16,86
840,783	-15,48
841,001	-17,54
841,219	-15,64
841,437	-13,75
841,655	-12,92
841,872	-10,92
842,09	-11,37
842,308	-9,38
842,525	-9,02
842,743	-8,17
842,961	-8,95
843,178	-10,25
843,396	-5,91
843,613	-5,26
843,831	-4,56
844,048	-5,73
844,266	-3,18
844,483	-2,98
844,701	-4,3
844,918	-4,06
845,136	-3,22
845,353	-5,03
845,57	-5,5
845,788	-1,26
846,005	-3,67
846,222	-5,1
846,439	-2,56
846,657	-2,39
846,874	-1,83
847,091	-4,7
847,308	-2,74
847,526	-5,15
847,743	-4,89
847,96	-6,91
848,177	-6,54
848,394	-8,06
848,611	-9,86
848,828	-10,77
849,045	-11,5
849,262	-12,09
849,479	-13,15
849,696	-14,37
849,913	-15,4
850,13	-21,59
850,347	-18,84
850,564	-17,89
850,78	-19,71
850,997	-23,14
851,214	-21,56
851,431	-19,75
851,647	-23,57
851,864	-23,28
852,081	-21,74
852,298	-25,58
852,514	-26,81
852,731	-25,13
852,948	-23,75
853,164	-24,08
853,381	-23,78
853,597	-24,08
853,814	-26,21
854,03	-29,48
854,247	-27,45
854,463	-27,65
854,68	-27,62
854,896	-26,39
855,113	-25,24
855,329	-23,72
855,545	-22,18
855,762	-23,35
855,978	-26,16
856,194	-28,05
856,411	-23,78
856,627	-22,49
856,843	-20,48
857,059	-18,6
857,275	-21,05
857,492	-19,06
857,708	-14,76
857,924	-14,47
858,14	-12,82
858,356	-12,87
858,572	-11,97
858,788	-13,48
859,004	-9,51
859,22	-11,38
859,436	-12,56
859,652	-14,6
859,868	-16,55
860,084	-15,81
860,3	-16,41
860,516	-16,22
860,731	-14,08
860,947	-15,36
861,163	-13,15
861,379	-12,24
861,595	-11,85
861,81	-11,14
862,026	-11,57
862,242	-11,2
862,457	-11,75
862,673	-8,84
862,889	-8,52
863,104	-9,52
863,32	-8,52
863,535	-6,68
863,751	-12,41
863,966	-8,33
864,182	-7,1
864,397	-8,92
864,613	-11,28
864,828	-12,03
865,044	-9,85
865,259	-8,01
865,474	-9,27
865,69	-9,31
865,905	-9,2
866,12	-10,8
866,336	-11,57
866,551	-9,91
866,766	-12,76
866,981	-12,01
867,196	-12,36
867,412	-12,16
867,627	-12,14
867,842	-13,84
868,057	-13,51
868,272	-15,15
868,487	-16,11
868,702	-18
868,917	-18,34
869,132	-15,33
869,347	-14,99
869,562	-15,21
869,777	-16,02
869,992	-17,03
870,207	-18,83
870,422	-18,93
870,636	-20,58
870,851	-21,96
871,066	-21,76
871,281	-21,08
871,495	-22,49
871,71	-20,85
871,925	-24,24
872,14	-25,04
872,354	-26,16
872,569	-26,1
872,783	-22,62
872,998	-21,73
873,213	-24,38
873,427	-19,88
873,642	-18,83
873,856	-18,95
874,071	-19,21
874,285	-18,95
874,5	-20,94
874,714	-23,72
874,928	-24,92
875,143	-24,66
875,357	-24,08
875,571	-25,09
875,786	-25,87
876	-22,61
876,214	-20,67
876,429	-22,52
876,643	-21,87
876,857	-19,97
877,071	-17,55
877,285	-18,57
877,499	-21,18
877,714	-20,46
877,928	-17,22
878,142	-18,2
878,356	-21,63
878,57	-20,14
878,784	-18,89
878,998	-20,33
879,212	-18,81
879,426	-21,95
879,639	-19,93
879,853	-19,12
880,067	-20,39
880,281	-22,53
880,495	-19,65
880,709	-17,34
880,922	-18,65
881,136	-17,2
881,35	-13,18
881,564	-11,75
881,777	-15,36
881,991	-14,14
882,205	-11,62
882,418	-11,92
882,632	-15,63
882,845	-15,82
883,059	-14,08
883,273	-14,28
883,486	-16,22
883,7	-15,17
883,913	-16,54
884,126	-15,11
884,34	-17,86
884,553	-21,02
884,767	-17,13
884,98	-17,24
885,193	-19,25
885,407	-19,96
885,62	-16,58
885,833	-16,44
886,046	-14,99
886,26	-17
886,473	-18,14
886,686	-19,32
886,899	-16,76
887,112	-17,97
887,326	-21,26
887,539	-19,25
887,752	-17,01
887,965	-20,74
888,178	-20,9
888,391	-18,59
888,604	-19,46
888,817	-20,84
889,03	-19,45
889,243	-20,32
889,455	-22,89
889,668	-23,81
889,881	-21,17
890,094	-21,77
890,307	-24,09
890,52	-22
890,732	-21,08
890,945	-21,08
891,158	-20,82
891,37	-23,45
891,583	-21,53
891,796	-19
892,008	-19,8
892,221	-22,16
892,434	-25,31
892,646	-25,73
892,859	-25,46
893,071	-23,22
893,284	-21,87
893,496	-23,48
893,709	-25,66
893,921	-23,74
894,133	-24,86
894,346	-26,74
894,558	-26,65
894,771	-26,81
894,983	-24,81
895,195	-23,03
895,407	-23,21
895,62	-25,98
895,832	-24,58
896,044	-22,1
896,256	-22,29
896,468	-25,56
896,681	-23,74
896,893	-23,12
897,105	-23,63
897,317	-23,94
897,529	-22,47
897,741	-20,58
897,953	-19,04
898,165	-21,19
898,377	-22,72
898,589	-21,04
898,801	-21,68
899,013	-18,93
899,224	-16,06
899,436	-14,98
899,648	-16,39
899,86	-17,61
900,072	-14,57
900,283	-12,23
900,495	-11,33
900,707	-10,77
900,919	-12,81
901,13	-12,46
901,342	-13,93
901,554	-15,15
901,765	-16,31
901,977	-19,08
902,188	-18,98
902,4	-20,92
902,611	-22,19
902,823	-23,61
903,034	-25,4
903,246	-26,45
903,457	-26,58
903,669	-28,19
903,88	-28,7
904,091	-28,33
904,303	-28,32
904,514	-28,62
904,725	-25,73
904,936	-24
905,148	-23,73
905,359	-20,68
905,57	-21,96
905,781	-24,33
905,992	-25,22
906,204	-24,45
906,415	-23,69
906,626	-27,17
906,837	-24,69
907,048	-25,26
907,259	-25,76
907,47	-26,07
907,681	-25,48
907,892	-22,91
908,103	-23,63
908,314	-25,62
908,525	-21,79
908,735	-21,58
908,946	-22,49
909,157	-23,39
909,368	-20,19
909,579	-17,92
909,789	-20,39
910	-21,7
910,211	-19,89
910,421	-21,37
910,632	-19,56
910,843	-22,29
911,053	-20,14
911,264	-17,65
911,475	-19,7
911,685	-19,03
911,896	-19,98
912,106	-18,78
912,317	-20,66
912,527	-18,92
912,737	-18,99
912,948	-19,12
913,158	-18,14
913,369	-21,8
913,579	-20,12
913,789	-20,58
914	-16,28
914,21	-15,19
914,42	-15,31
914,63	-15,46
914,841	-14,73
915,051	-13,27
915,261	-13
915,471	-8,69
915,681	-7,75
915,891	-9,36
916,101	-10,49
916,311	-8,49
916,521	-7,02
916,731	-6,46
916,941	-2,33
917,151	-5,07
917,361	-1,72
917,571	-5,64
917,781	-8,43
917,991	-10,87
918,201	-10,86
918,411	-13,04
918,621	-14,3
918,83	-13,17
919,04	-14,3
919,25	-11,58
919,46	-9,39
919,669	-11,38
919,879	-11,03
920,089	-13,65
920,298	-13,94
920,508	-14,39
920,717	-14,93
920,927	-16,08
921,136	-15,79
921,346	-16,59
921,555	-20,91
921,765	-20,98
921,974	-23,03
922,184	-26,07
922,393	-25
922,603	-25,27
922,812	-23,38
923,021	-23,86
923,23	-25,2
923,44	-27,88
923,649	-26,61
923,858	-28,12
924,067	-27,9
924,277	-29,26
924,486	-26
924,695	-27,88
924,904	-25,98
925,113	-24,93
925,322	-22,8
925,531	-24,02
925,74	-28,37
925,949	-29,52
926,158	-27,67
926,367	-27,24
926,576	-26,15
926,785	-26,68
926,994	-28,32
927,203	-27,43
927,412	-27,97
927,621	-27,79
927,83	-25,1
928,038	-25,05
928,247	-24,41
928,456	-24,24
928,665	-21,82
928,873	-21,02
929,082	-18,55
929,291	-18,22
929,499	-16,57
929,708	-17,69
929,916	-17,73
930,125	-19,99
930,333	-21,54
930,542	-18,99
930,75	-16,27
930,959	-15,48
931,167	-14,37
931,376	-16,08
931,584	-15,28
931,793	-15,31
932,001	-14,35
932,209	-14,97
932,418	-18,13
932,626	-20,01
932,834	-21,47
933,042	-24,74
933,251	-24,06
933,459	-24,09
933,667	-25,36
933,875	-25,35
934,083	-24,33
934,291	-24,1
934,499	-21,83
934,707	-22,87
934,915	-23,52
935,123	-21,33
935,331	-21,87
935,539	-24,92
935,747	-27,45
935,955	-29
936,163	-28,17
936,371	-27,39
936,579	-24,61
936,787	-23,55
936,995	-25,38
937,202	-28,24
937,41	-29,33
937,618	-30,3
937,826	-29,87
938,033	-34,83
938,241	-36,99
938,449	-35,37
938,656	-33,39
938,864	-31,76
939,071	-30,65
939,279	-28,03
939,486	-24,09
939,694	-24,96
939,901	-26,16
940,109	-23,91
940,316	-24,02
940,524	-25,3
940,731	-26,12
940,939	-25,11
941,146	-25,44
941,353	-25,99
941,561	-27,84
941,768	-29,77
941,975	-27,08
942,182	-27,33
942,39	-27,07
942,597	-23,63
942,804	-24,43
943,011	-26,32
943,218	-26,08
943,425	-25,62
943,632	-24,41
943,839	-24,98
944,046	-25,39
944,253	-24,52
944,46	-22,23
944,667	-18,44
944,874	-19,72
945,081	-18,99
945,288	-18,14
945,495	-16,36
945,702	-15,93
945,909	-18,61
946,115	-16,8
946,322	-17,6
946,529	-19,8
946,736	-19,43
946,942	-18,34
947,149	-18,89
947,356	-20,93
947,562	-21,54
947,769	-21,53
947,976	-22,03
948,182	-19,52
948,389	-21,85
948,595	-20,68
948,802	-19,58
949,008	-21,8
949,215	-20,01
949,421	-18,65
949,628	-19,61
949,834	-19,13
950,04	-20,27
950,247	-16,36
950,453	-14,01
950,659	-14,29
950,865	-13,39
951,072	-17,32
951,278	-13,69
951,484	-14,87
951,69	-17,82
951,896	-19,29
952,103	-20,58
952,309	-19,33
952,515	-19,52
952,721	-16,51
952,927	-15,48
953,133	-16,12
953,339	-16,15
953,545	-16,72
953,751	-15,1
953,957	-13,01
954,163	-15,19
954,369	-15,06
954,574	-17,51
954,78	-18,07
954,986	-17,26
955,192	-15,75
955,398	-18,66
955,603	-21,47
955,809	-19,84
956,015	-19,9
956,22	-19,67
956,426	-17,26
956,632	-20,74
956,837	-21,74
957,043	-21,54
957,248	-19,82
957,454	-20,12
957,66	-23,45
957,865	-23,49
958,07	-21,75
958,276	-22,44
958,481	-24,09
958,687	-25,87
958,892	-26,42
959,097	-27,87
959,303	-28,53
959,508	-27,97
959,713	-29,34
959,919	-28,9
960,124	-30,12
960,329	-29,82
960,534	-25,53
960,739	-24,88
960,945	-22,72
961,15	-21,43
961,355	-22,48
961,56	-26,13
961,765	-25,13
961,97	-24,29
962,175	-22,95
962,38	-25,23
962,585	-24,69
962,79	-27,85
962,995	-28,16
963,2	-29,65
963,404	-29,74
963,609	-32,97
963,814	-33,3
964,019	-36,15
964,224	-37,52
964,428	-34,73
964,633	-33,49
964,838	-31,82
965,042	-31,16
965,247	-33,12
965,452	-33,96
965,656	-32,09
965,861	-32,5
966,066	-32,94
966,27	-31,01
966,475	-27,07
966,679	-31,13
966,884	-31,2
967,088	-32,03
967,292	-33,01
967,497	-32,98
967,701	-32,97
967,906	-32,35
968,11	-28,71
968,314	-24,63
968,518	-27,69
968,723	-24,83
968,927	-24,15
969,131	-23,64
969,335	-20,78
969,539	-20,06
969,744	-18,64
969,948	-15,81
970,152	-14,21
970,356	-12,55
970,56	-12,02
970,764	-14,95
970,968	-11,41
971,172	-11,75
971,376	-9,71
971,58	-7,37
971,784	-5,64
971,988	-7,92
972,192	-3,88
972,395	-4,84
972,599	-8,24
972,803	-10,2
973,007	-8,01
973,21	-8,52
973,414	-8,63
973,618	-8,69
973,822	-8,08
974,025	-7,25
974,229	-7,04
974,432	-11,94
974,636	-15,72
974,84	-13,99
975,043	-13,52
975,247	-15,2
975,45	-15,56
975,654	-15,71
975,857	-14,63
976,06	-15,38
976,264	-18,81
976,467	-17,47
976,671	-17,95
976,874	-16,05
977,077	-16,79
977,28	-19,8
977,484	-22,04
977,687	-23,03
977,89	-21,39
978,093	-22
978,297	-21,24
978,5	-25,48
978,703	-23,72
978,906	-22,57
979,109	-23,49
979,312	-22,09
979,515	-23,56
979,718	-23,88
979,921	-24
980,124	-25,24
980,327	-26,68
980,53	-26,98
980,733	-24,44
980,936	-21,6
981,138	-22,91
981,341	-23,11
981,544	-22,7
981,747	-22,9
981,949	-23,08
982,152	-22,57
982,355	-23,81
982,558	-19,03
982,76	-21,66
982,963	-21,84
983,165	-21,73
983,368	-20,59
983,571	-21,18
983,773	-17,74
983,976	-17,12
984,178	-17
984,381	-16,35
984,583	-17,71
984,785	-16,68
984,988	-15,47
985,19	-13,61
985,392	-14,43
985,595	-17,17
985,797	-15,3
985,999	-11,67
986,202	-9,16
986,404	-9,57
986,606	-6,64
986,808	-7,56
987,01	-5,07
987,212	-6,01
987,415	-7,85
987,617	-7,63
987,819	-8,53
988,021	-8,26
988,223	-11,32
988,425	-10,99
988,627	-10,98
988,829	-15,56
989,031	-13,76
989,232	-14,21
989,434	-14,14
989,636	-14,44
989,838	-14,52
990,04	-13,69
990,242	-16,44
990,443	-18,9
990,645	-17,88
990,847	-14,91
991,048	-15,53
991,25	-17,05
991,452	-18,76
991,653	-20,39
991,855	-20,96
992,057	-22,27
992,258	-23,03
992,46	-24,85
992,661	-24,28
992,863	-24,68
993,064	-24,1
993,265	-26,62
993,467	-28,8
993,668	-26,02
993,87	-24,43
994,071	-23,81
994,272	-22,78
994,473	-19,42
994,675	-18,89
994,876	-17,48
995,077	-16,77
995,278	-16,6
995,48	-14,94
995,681	-16,62
995,882	-15,77
996,083	-15,73
996,284	-19,75
996,485	-17,65
996,686	-19,29
996,887	-20,07
997,088	-25,5
997,289	-25,84
997,49	-25,26
997,691	-24,93
997,892	-24,58
998,092	-19,19
998,293	-19,28
998,494	-19,95
998,695	-20,18
998,896	-17,39
999,096	-18,8
999,297	-17,88
999,498	-19,06
999,698	-20,78
999,899	-24,68
1000,1	-27,6
1000,3	-28,16
1000,501	-29,92
1000,701	-31,03
1000,902	-31,52
1001,102	-33,73
1001,303	-32,26
1001,503	-35,01
1001,704	-35,31
1001,904	-36,03
1002,105	-36,13
1002,305	-35,42
1002,505	-36
1002,706	-36,45
1002,906	-35,63
1003,106	-36,63
1003,306	-34,02
1003,507	-32,84
1003,707	-34,36
1003,907	-31,54
1004,107	-29,32
1004,307	-30,27
1004,507	-28,55
1004,707	-27,94
1004,907	-28,64
1005,107	-29,68
1005,308	-29,34
1005,507	-31,15
1005,707	-28,25
1005,907	-27,5
1006,107	-23,51
1006,307	-22,01
1006,507	-22,3
1006,707	-20,85
1006,907	-21,09
1007,106	-23,47
1007,306	-22,53
1007,506	-22,14
1007,706	-22,34
1007,905	-24,72
1008,105	-24,44
1008,305	-24,26
1008,504	-24,61
1008,704	-19,01
1008,903	-18,33
1009,103	-16,97
1009,303	-18,53
1009,502	-18,76
1009,702	-19,85
1009,901	-19,69
1010,1	-23,94
1010,3	-22,42
1010,499	-25,47
1010,699	-27,36
1010,898	-29,93
1011,097	-29,45
1011,296	-29,61
1011,496	-30,9
1011,695	-30,78
1011,894	-32,85
1012,093	-29,37
1012,293	-30,21
1012,492	-30,58
1012,691	-30,44
1012,89	-30,23
1013,089	-32,34
1013,288	-29,65
1013,487	-27,94
1013,686	-27,81
1013,885	-27,61
1014,084	-25,69
1014,283	-24,76
1014,482	-25,37
1014,681	-26,49
1014,88	-30,38
1015,078	-29,62
1015,277	-31,73
1015,476	-32,13
1015,675	-31,17
1015,873	-29,53
1016,072	-30,18
1016,271	-27,18
1016,47	-31,01
1016,668	-29,6
1016,867	-30,75
1017,065	-32,07
1017,264	-32,27
1017,463	-32,76
1017,661	-31,5
1017,86	-31,17
1018,058	-29,56
1018,256	-31,91
1018,455	-33,3
1018,653	-32,2
1018,852	-31,8
1019,05	-34,07
1019,248	-35,2
1019,447	-37,29
1019,645	-38,21
1019,843	-39,73
1020,041	-39,36
1020,24	-39,72
1020,438	-35,86
1020,636	-37,24
1020,834	-38,26
1021,032	-35,68
1021,23	-36,8
1021,428	-34,18
1021,626	-30,41
1021,824	-29,93
1022,022	-31,05
1022,22	-28,5
1022,418	-26,33
1022,616	-27,38
1022,814	-27,16
1023,012	-26,41
1023,21	-23,67
1023,408	-24,74
1023,606	-25,24
1023,803	-20,03
1024,001	-19,92
1024,199	-24,49
1024,397	-23,05
1024,594	-22,64
1024,792	-25,17
1024,99	-23,47
1025,187	-22,33
1025,385	-16,84
1025,582	-15,92
1025,78	-16,57
1025,977	-14,7
1026,175	-12,48
1026,372	-12,53
1026,57	-15,2
1026,767	-13,06
1026,965	-12,13
1027,162	-12,66
1027,359	-13,07
1027,557	-13,35
1027,754	-16,75
1027,951	-19,29
1028,148	-16,11
1028,346	-18,22
1028,543	-22,12
1028,74	-21,76
1028,937	-24,81
1029,134	-24,67
1029,331	-26,62
1029,528	-25,66
1029,725	-25,64
1029,923	-31,08
1030,12	-27,57
1030,317	-24,61
1030,513	-23,76
1030,71	-22,37
1030,907	-20,55
1031,104	-22,3
1031,301	-23,86
1031,498	-26,09
1031,695	-25,88
1031,892	-25,66
1032,088	-26,76
1032,285	-29,24
1032,482	-30,1
1032,678	-32,66
1032,875	-34,15
1033,072	-33,23
1033,268	-33,68
1033,465	-32,73
1033,662	-34,08
1033,858	-33,68
1034,055	-32,27
1034,251	-31,84
1034,448	-31,11
1034,644	-31,26
1034,84	-28,68
1035,037	-25,91
1035,233	-26,26
1035,43	-22,78
1035,626	-24,46
1035,822	-24,08
1036,019	-23,08
1036,215	-27,82
1036,411	-29,05
1036,607	-30,77
1036,803	-33,61
1037	-33,93
1037,196	-35,69
1037,392	-35,04
1037,588	-36,24
1037,784	-36,24
1037,98	-37,89
1038,176	-38,27
1038,372	-38,53
1038,568	-36,46
1038,764	-33,63
1038,96	-30,4
1039,156	-32,3
1039,352	-34,41
1039,547	-33,47
1039,743	-33,15
1039,939	-31,32
1040,135	-31,54
1040,331	-33,73
1040,526	-32,46
1040,722	-32,71
1040,918	-33,71
1041,113	-36,9
1041,309	-36,62
1041,505	-40,77
1041,7	-39,27
1041,896	-40,64
1042,091	-43,06
1042,287	-42,14
1042,482	-40,92
1042,678	-41,3
1042,873	-40,29
1043,069	-41,25
1043,264	-40,19
1043,459	-38,82
1043,655	-37,97
1043,85	-39,05
1044,045	-36,98
1044,24	-37,05
1044,436	-34,94
1044,631	-36,61
1044,826	-39,5
1045,021	-44,69
1045,216	-43,11
