Data from FLMT021711__7__18-14-30-188.txt Node

Date: Tue Nov 05 18:14:30 CET 2024
User: Etudiants TP
Spectrometer: FLMT02171
Trigger mode: 0
Integration Time (sec): 1,000000E-1
Scans to average: 5
Electric dark correction enabled: true
Nonlinearity correction enabled: false
Boxcar width: 15
XAxis mode: Wavelengths
Number of Pixels in Spectrum: 3648
>>>>>Begin Spectral Data<<<<<
194,658	-70,3
194,923	-67,77
195,188	-59,36
195,453	-58,19
195,717	-51,93
195,982	-49,61
196,247	-47,13
196,512	-48,89
196,777	-46,96
197,042	-44,64
197,307	-43,99
197,572	-40,33
197,837	-39,99
198,101	-37,92
198,366	-34,69
198,631	-33,24
198,896	-26,66
199,161	-18,9
199,425	-11,3
199,69	-1,27
199,955	-0,9
200,22	-3,07
200,484	-3,9
200,749	-3,44
201,014	-1,79
201,278	-1,02
201,543	1,13
201,807	0,3
202,072	1,17
202,337	-0,29
202,601	0,88
202,866	-1,26
203,13	-0,42
203,395	-2,57
203,659	-3,5
203,924	-5,33
204,189	-5,31
204,453	-4,92
204,717	-2,83
204,982	-2,64
205,246	-1,16
205,511	-0,45
205,775	-0,74
206,04	3,67
206,304	5,47
206,568	6,46
206,833	7,36
207,097	8,35
207,361	10,2
207,626	13,29
207,89	12,89
208,154	14,29
208,419	15,69
208,683	15,73
208,947	17,92
209,211	18,25
209,476	17,92
209,74	18,91
210,004	18,66
210,268	18,36
210,532	23,45
210,796	21,47
211,061	22,19
211,325	23,68
211,589	21,09
211,853	22,7
212,117	22,82
212,381	24,21
212,645	24,32
212,909	23,53
213,173	22
213,437	21,88
213,701	23,28
213,965	24,22
214,229	20,88
214,493	19,38
214,757	17,86
215,021	16,29
215,285	21,01
215,549	23,71
215,813	22,21
216,077	21,21
216,34	23,07
216,604	21,76
216,868	22,41
217,132	21,99
217,396	20,81
217,659	22,05
217,923	17,94
218,187	18,3
218,451	18,99
218,714	14,6
218,978	16,39
219,242	18,69
219,505	18,8
219,769	21,42
220,033	21,49
220,296	23,02
220,56	22,92
220,824	20,59
221,087	21,47
221,351	21,46
221,614	20,71
221,878	21,31
222,142	19,31
222,405	19,38
222,669	22,58
222,932	18,29
223,196	17,22
223,459	13,75
223,722	14,61
223,986	13,93
224,249	13,89
224,513	13,83
224,776	14,01
225,04	12,9
225,303	11,55
225,566	12,07
225,83	13,91
226,093	17,32
226,356	14,86
226,62	12,78
226,883	15,1
227,146	14,51
227,409	12,95
227,673	10,59
227,936	9,79
228,199	9,7
228,462	7,06
228,725	5,9
228,989	7,27
229,252	8,68
229,515	14,15
229,778	13,39
230,041	12,1
230,304	10,64
230,567	10,89
230,83	7,2
231,093	10,88
231,356	10,54
231,619	17,7
231,882	14,77
232,145	16,37
232,408	15,56
232,671	15,22
232,934	14,74
233,197	14,31
233,46	14,22
233,723	15,03
233,986	13,67
234,249	10,43
234,512	14,25
234,775	17,57
235,037	15,72
235,3	15,82
235,563	16,32
235,826	17,89
236,089	19,16
236,351	18,38
236,614	21,68
236,877	22,75
237,14	23,65
237,402	23,44
237,665	16,79
237,928	16,48
238,19	15,28
238,453	17,67
238,716	17,58
238,978	18,68
239,241	18,29
239,503	21,92
239,766	15,45
240,029	15,64
240,291	18,88
240,554	19,21
240,816	18,17
241,079	19,78
241,341	20,34
241,604	19,03
241,866	15,24
242,129	16,33
242,391	19,04
242,653	17,59
242,916	17,15
243,178	17,18
243,441	18,15
243,703	16,92
243,965	15,55
244,228	15,54
244,49	16,75
244,752	16,54
245,015	17,48
245,277	20,99
245,539	18,77
245,801	20,13
246,064	18,86
246,326	18,44
246,588	17,52
246,85	18,6
247,112	18,8
247,374	20,16
247,637	22,19
247,899	22,08
248,161	21,12
248,423	16,02
248,685	16,04
248,947	15,56
249,209	15,29
249,471	15,88
249,733	17,33
249,995	18,15
250,257	16,16
250,519	13,97
250,781	17,2
251,043	14,38
251,305	15,87
251,567	16,57
251,829	17,11
252,091	16,3
252,353	12,97
252,615	13,04
252,876	11,63
253,138	9,31
253,4	3,71
253,662	5,81
253,924	8,31
254,185	8,82
254,447	8,07
254,709	8,38
254,971	10,07
255,232	11,72
255,494	10,81
255,756	7,59
256,017	7,97
256,279	7,88
256,541	7,73
256,802	8,21
257,064	8,82
257,326	7,37
257,587	8,82
257,849	9,93
258,11	12,08
258,372	14,03
258,633	15,48
258,895	13,6
259,156	12,75
259,418	11,4
259,679	7,35
259,941	5,45
260,202	8,93
260,464	12,74
260,725	12,06
260,987	10,27
261,248	10,46
261,509	11,68
261,771	10,85
262,032	12,86
262,293	14,22
262,555	14,96
262,816	13,81
263,077	10
263,338	7,21
263,6	6,22
263,861	5,86
264,122	5,4
264,383	8,52
264,645	10,79
264,906	10,19
265,167	11,21
265,428	11,2
265,689	11,77
265,95	9,09
266,211	9,93
266,473	8,14
266,734	5,72
266,995	2,77
267,256	3,58
267,517	6,37
267,778	10,52
268,039	12,26
268,3	10,81
268,561	6,81
268,822	10,14
269,083	8,4
269,344	5,98
269,604	5,09
269,865	5,72
270,126	0,19
270,387	0,67
270,648	2,02
270,909	1,38
271,17	0,49
271,43	-1,61
271,691	-3,34
271,952	-4,8
272,213	-2,69
272,473	-4,64
272,734	-4,07
272,995	-3,09
273,256	-2,62
273,516	0,03
273,777	-3,41
274,038	-0,4
274,298	-3,44
274,559	-2,64
274,82	1,66
275,08	5,6
275,341	7,77
275,601	6,21
275,862	3,28
276,122	2,8
276,383	2,04
276,643	4,69
276,904	2,46
277,164	6,86
277,425	8,13
277,685	12,17
277,946	11,16
278,206	12,36
278,467	13,56
278,727	12,85
278,987	13,83
279,248	14,95
279,508	16,45
279,768	18,73
280,029	20,49
280,289	16,31
280,549	14,46
280,81	13,31
281,07	12,74
281,33	14,77
281,59	11,43
281,851	13,38
282,111	11,97
282,371	11,48
282,631	12,46
282,891	10,77
283,151	8,44
283,412	4,86
283,672	4,52
283,932	5,81
284,192	6,84
284,452	5,05
284,712	2,17
284,972	1,75
285,232	-0,16
285,492	2,22
285,752	0,55
286,012	6,9
286,272	11,08
286,532	8,98
286,792	9,21
287,052	10,79
287,312	11,42
287,571	10,21
287,831	10,97
288,091	8,5
288,351	9,99
288,611	13,57
288,871	14,17
289,13	13,39
289,39	7,92
289,65	10,97
289,91	9,35
290,17	12,59
290,429	16,9
290,689	14,32
290,949	11,77
291,208	13,15
291,468	18,87
291,728	20,47
291,987	21,37
292,247	19,54
292,506	22,44
292,766	25,95
293,026	23,46
293,285	24,29
293,545	26,18
293,804	25,11
294,064	22,1
294,323	17,56
294,583	18,52
294,842	18,2
295,102	17,37
295,361	15,82
295,621	16,73
295,88	17,45
296,139	17,78
296,399	18,54
296,658	14,16
296,917	14,19
297,177	11,6
297,436	13,65
297,695	11,08
297,955	12,84
298,214	10,5
298,473	10,28
298,732	12,14
298,992	15,15
299,251	13,55
299,51	8,71
299,769	8,9
300,028	8,19
300,287	9,1
300,547	9,49
300,806	7,12
301,065	11,42
301,324	12,12
301,583	8,13
301,842	4,78
302,101	1,74
302,36	3,6
302,619	3,38
302,878	4,94
303,137	3,85
303,396	7,36
303,655	8,47
303,914	5,08
304,173	6,59
304,432	5,49
304,691	9,15
304,95	6,82
305,208	11,05
305,467	12,31
305,726	12,35
305,985	14,19
306,244	15,29
306,503	15,34
306,761	13,7
307,02	10,76
307,279	13,22
307,537	14,08
307,796	11,35
308,055	9,02
308,314	11,17
308,572	8,74
308,831	11,42
309,09	11,9
309,348	12,89
309,607	12,51
309,865	18,42
310,124	18,52
310,382	19,18
310,641	19,98
310,9	18,34
311,158	18,9
311,417	18,43
311,675	19,03
311,933	20,36
312,192	21,2
312,45	21,97
312,709	21,05
312,967	19,94
313,226	19,84
313,484	19,08
313,742	16,96
314,001	14,29
314,259	11,77
314,517	12,33
314,776	14,73
315,034	16,87
315,292	13,48
315,55	11,4
315,809	9,83
316,067	12,1
316,325	8,55
316,583	9,54
316,841	6,41
317,1	3,81
317,358	0,39
317,616	0,87
317,874	-2,12
318,132	-2,95
318,39	-2,8
318,648	-3,8
318,906	-3,69
319,164	-4,89
319,422	-7,45
319,68	-9,16
319,938	-10,75
320,196	-11,58
320,454	-11,01
320,712	-11,52
320,97	-10,03
321,228	-12,97
321,486	-10,93
321,744	-8,45
322,002	-6,27
322,26	-8,43
322,517	-9,07
322,775	-11,49
323,033	-12,39
323,291	-9,6
323,549	-7,2
323,806	-4,41
324,064	-5,03
324,322	-2,83
324,58	-3,87
324,837	-0,81
325,095	-3,3
325,353	-1,96
325,61	-0,84
325,868	-0,17
326,126	2,33
326,383	1,38
326,641	0,23
326,898	1,57
327,156	2,17
327,413	4,27
327,671	5,43
327,928	10,01
328,186	9,15
328,443	8,45
328,701	11,54
328,958	11,8
329,216	13,61
329,473	11,11
329,731	12,49
329,988	12,03
330,245	15,94
330,503	17,16
330,76	18,13
331,017	20,03
331,275	16,68
331,532	17,15
331,789	13,83
332,047	14,23
332,304	11,24
332,561	11,5
332,818	10,09
333,076	13,76
333,333	15,67
333,59	16,39
333,847	17,23
334,104	16,05
334,361	16,57
334,618	15,25
334,876	12,76
335,133	13,48
335,39	10,8
335,647	11,32
335,904	6,73
336,161	5,05
336,418	5,48
336,675	2,26
336,932	4,68
337,189	3,49
337,446	4,79
337,703	1,86
337,96	-2,22
338,216	-0,96
338,473	-4,08
338,73	-3,23
338,987	-3,35
339,244	0,93
339,501	-1,86
339,757	0,97
340,014	2,28
340,271	3,2
340,528	4,67
340,785	8,42
341,041	7,9
341,298	4,24
341,555	3,56
341,811	2,28
342,068	0,27
342,325	-1,06
342,581	2,77
342,838	4,93
343,094	5,04
343,351	4,89
343,608	1,91
343,864	4,39
344,121	7,16
344,377	4,51
344,634	3,16
344,89	1
345,147	1,39
345,403	-0,71
345,66	-1,12
345,916	0,46
346,172	-1,89
346,429	-2,8
346,685	-4,78
346,942	-5,8
347,198	-10,28
347,454	-7,62
347,711	-8,25
347,967	-11,32
348,223	-9,43
348,48	-9,98
348,736	-7,21
348,992	-7,63
349,248	-4,45
349,504	-4,82
349,761	-3,96
350,017	-3,15
350,273	-2,9
350,529	-4,58
350,785	-5,05
351,041	-6,5
351,297	-4,46
351,554	-5,41
351,81	-7,17
352,066	-8,67
352,322	-7,21
352,578	-4,95
352,834	-6,19
353,09	-7,78
353,346	-7,62
353,602	-8,33
353,858	-8,24
354,114	-9,93
354,369	-7,62
354,625	-5,76
354,881	-7,33
355,137	-4,07
355,393	-4,06
355,649	-2,46
355,905	-2,31
356,16	-1,72
356,416	-1,05
356,672	-8,11
356,928	-7,22
357,183	-7,99
357,439	-8,25
357,695	-11,73
357,951	-7,17
358,206	-8,22
358,462	-7,76
358,718	-9,33
358,973	-6,63
359,229	-6,04
359,484	-5,94
359,74	-2,99
359,996	-2,91
360,251	1,84
360,507	0,06
360,762	0,86
361,018	5,03
361,273	4,72
361,529	8,33
361,784	8,35
362,04	12,05
362,295	12,21
362,55	13,03
362,806	16,06
363,061	15,98
363,316	15,97
363,572	15,21
363,827	16,93
364,082	12,81
364,338	11,07
364,593	11,04
364,848	11,08
365,104	9,8
365,359	12,92
365,614	14,98
365,869	12,74
366,124	14,57
366,38	11,3
366,635	13,35
366,89	13,48
367,145	12,79
367,4	17,77
367,655	18,38
367,91	19,15
368,165	15,41
368,42	13,09
368,675	14,6
368,93	14,93
369,185	11,09
369,44	10,09
369,695	12,68
369,95	9,27
370,205	7,45
370,46	5,84
370,715	4,57
370,97	5,31
371,225	4,29
371,48	5,32
371,734	5,92
371,989	7,99
372,244	9,07
372,499	11,13
372,754	9,25
373,008	6,77
373,263	2,59
373,518	5,18
373,773	3,08
374,027	1,83
374,282	5,25
374,537	5,83
374,791	5,45
375,046	4,78
375,301	2,86
375,555	0,19
375,81	1,02
376,064	2,42
376,319	5,43
376,573	3,36
376,828	-1,74
377,082	4,06
377,337	1,13
377,591	-2,1
377,846	0,01
378,1	2,64
378,355	2,31
378,609	2,29
378,863	-0,69
379,118	1,92
379,372	0,52
379,627	-1,71
379,881	-2,52
380,135	-3,66
380,389	-4,33
380,644	-2,8
380,898	-1,51
381,152	-0,92
381,407	-1,7
381,661	-0,02
381,915	1,3
382,169	1,69
382,423	-1,03
382,677	-3,48
382,932	-2,35
383,186	-1,18
383,44	-0,86
383,694	2,01
383,948	-0,84
384,202	-0,93
384,456	1,48
384,71	4,17
384,964	2,16
385,218	5,61
385,472	5,63
385,726	5,44
385,98	5,17
386,234	4,65
386,488	0,95
386,742	1,57
386,996	-1,89
387,249	-0,57
387,503	2,17
387,757	3,05
388,011	5,15
388,265	5,74
388,518	6,52
388,772	8,79
389,026	10,48
389,28	8,81
389,533	7,58
389,787	9,57
390,041	6,91
390,295	8,13
390,548	8,49
390,802	11,37
391,055	10,21
391,309	9,25
391,563	6,39
391,816	8,49
392,07	7,45
392,323	9,07
392,577	10,4
392,83	12,69
393,084	18,15
393,337	21,44
393,591	21,38
393,844	21,67
394,098	26,5
394,351	31,71
394,604	33,77
394,858	36,59
395,111	36,08
395,364	33,97
395,618	36,61
395,871	34,63
396,124	33,5
396,378	32,38
396,631	32,11
396,884	28,43
397,137	27,29
397,391	28,55
397,644	24,58
397,897	26,17
398,15	27,5
398,403	30,1
398,657	27,41
398,91	24,92
399,163	26,34
399,416	25,96
399,669	24,91
399,922	24,99
400,175	25,51
400,428	31,26
400,681	40,27
400,934	47,76
401,187	59,85
401,44	72,79
401,693	80,03
401,946	82,61
402,199	83,03
402,452	85,03
402,704	81,57
402,957	80,15
403,21	82,02
403,463	80,86
403,716	81,95
403,969	86,19
404,221	86,93
404,474	90,42
404,727	95,86
404,98	100,24
405,232	101,47
405,485	103,99
405,738	106,19
405,99	105,59
406,243	107,4
406,496	109,6
406,748	111,52
407,001	110,81
407,253	111,78
407,506	112,32
407,759	112,95
408,011	106,53
408,264	100,63
408,516	91,27
408,769	76,25
409,021	64,7
409,274	51,46
409,526	43,53
409,778	35,9
410,031	34,58
410,283	32,21
410,536	37,02
410,788	35,28
411,04	34,05
411,293	35,12
411,545	35,57
411,797	31,61
412,049	30,28
412,302	28,39
412,554	27,14
412,806	24,45
413,058	21,07
413,311	21,19
413,563	20,2
413,815	21,24
414,067	18,08
414,319	16,51
414,571	16,8
414,823	14,57
415,075	12,28
415,328	11,06
415,58	13,73
415,832	17,07
416,084	17,41
416,336	16,13
416,588	19,94
416,84	17,74
417,091	20,94
417,343	17,56
417,595	20,19
417,847	20,04
418,099	20,42
418,351	20,38
418,603	24,11
418,855	24,25
419,106	22,93
419,358	22,93
419,61	23,68
419,862	23,66
420,114	21,55
420,365	22,22
420,617	21,74
420,869	20,35
421,12	19,37
421,372	19,78
421,624	17,11
421,875	17,4
422,127	14,61
422,379	15,08
422,63	17,66
422,882	17,34
423,133	18,49
423,385	17,79
423,636	18,61
423,888	20,53
424,139	22,52
424,391	20,71
424,642	19,01
424,894	16,97
425,145	17,93
425,396	14,94
425,648	18,66
425,899	16,23
426,151	15,9
426,402	14,32
426,653	15,11
426,905	14,92
427,156	12,64
427,407	11,99
427,658	12,43
427,91	10,47
428,161	9,17
428,412	12,81
428,663	14,61
428,914	16,33
429,166	17,15
429,417	18,32
429,668	16,33
429,919	14,16
430,17	13,44
430,421	14,31
430,672	18,1
430,923	19,32
431,174	22,08
431,425	35,7
431,676	58,43
431,927	87,34
432,178	126
432,429	170,94
432,68	207,82
432,931	238,46
433,182	261,65
433,433	271,74
433,683	284,88
433,934	290,46
434,185	291,91
434,436	290,63
434,687	291,85
434,937	292,63
435,188	291,27
435,439	289,01
435,69	291,52
435,94	290,36
436,191	290,05
436,442	290,48
436,692	287,75
436,943	284,14
437,194	283,25
437,444	286,57
437,695	291,99
437,945	292,02
438,196	289,19
438,447	288,14
438,697	286,53
438,948	281,52
439,198	263,9
439,449	234,95
439,699	203,97
439,949	165,28
440,2	120,82
440,45	85,01
440,701	55,88
440,951	34,33
441,201	21,11
441,452	8,33
441,702	1,76
441,952	0,72
442,203	1,29
442,453	-0,82
442,703	-0,13
442,953	1,7
443,204	4,22
443,454	1,3
443,704	1,13
443,954	-2,74
444,204	-2,48
444,455	-1,95
444,705	-0,8
444,955	-0,74
445,205	-2,9
445,455	-7,26
445,705	-5,83
445,955	-6,02
446,205	-7,8
446,455	-6,7
446,705	-5,01
446,955	-3,76
447,205	-0,88
447,455	0,43
447,705	-1,62
447,955	-2,88
448,205	-3,05
448,454	-3,68
448,704	-2,14
448,954	-3,74
449,204	-2,69
449,454	-3,7
449,704	-4,69
449,953	-4,62
450,203	-3,06
450,453	-4,6
450,703	-4,19
450,952	-4,99
451,202	-3,15
451,452	-2,61
451,701	-0,1
451,951	2,9
452,201	3,64
452,45	3,42
452,7	4,69
452,949	4,68
453,199	5,82
453,448	5,8
453,698	7,84
453,947	6,74
454,197	4,35
454,446	1,21
454,696	3,84
454,945	4,32
455,195	2,69
455,444	4,62
455,693	8,97
455,943	6,78
456,192	7,85
456,442	7,84
456,691	7,82
456,94	7,01
457,189	6,48
457,439	8,11
457,688	8,07
457,937	7,11
458,186	7,6
458,436	6,78
458,685	7,08
458,934	5,68
459,183	5,21
459,432	7,16
459,681	5,72
459,93	5,34
460,179	5
460,429	3,97
460,678	7,11
460,927	10,37
461,176	9,24
461,425	9
461,674	12,59
461,923	13,28
462,172	13,93
462,42	12,53
462,669	13,12
462,918	11,77
463,167	10,81
463,416	7,76
463,665	8,76
463,914	9,73
464,162	7,79
464,411	9,11
464,66	11,48
464,909	10,69
465,158	11,74
465,406	11,73
465,655	13,49
465,904	15,82
466,152	16,39
466,401	17,02
466,65	18,8
466,898	17,91
467,147	13,37
467,395	12,79
467,644	14,07
467,893	14,08
468,141	13,62
468,39	10,96
468,638	8,87
468,887	7,24
469,135	6,33
469,384	5,29
469,632	5,48
469,88	5,44
470,129	7,63
470,377	4,91
470,626	8,87
470,874	10,11
471,122	12,49
471,371	11,46
471,619	10,07
471,867	12,96
472,115	12,34
472,364	9,48
472,612	13,38
472,86	10,17
473,108	11,23
473,356	12,79
473,605	11,8
473,853	9,47
474,101	10,12
474,349	10,79
474,597	13,27
474,845	12,58
475,093	12,54
475,341	10,39
475,589	10,98
475,837	12,34
476,085	14,47
476,333	12,7
476,581	15,11
476,829	15,53
477,077	19,37
477,325	20,07
477,573	23,05
477,821	21,67
478,069	24,9
478,317	24,55
478,564	28,86
478,812	28,03
479,06	30,02
479,308	31,54
479,555	35,18
479,803	37,41
480,051	44,1
480,299	47,03
480,546	53,91
480,794	58,65
481,042	64,39
481,289	70,21
481,537	79,42
481,784	85,62
482,032	96,18
482,28	106,53
482,527	117,2
482,775	128,14
483,022	140,87
483,27	153,94
483,517	169,56
483,765	179,12
484,012	192,17
484,259	201,27
484,507	214,33
484,754	224,26
485,002	234,54
485,249	242,38
485,496	254,09
485,744	261,84
485,991	270,61
486,238	275,66
486,486	285,19
486,733	292,62
486,98	299,92
487,227	302,28
487,474	308,03
487,722	312,95
487,969	313,78
488,216	315,93
488,463	315,84
488,71	314,91
488,957	315,34
489,204	315,09
489,451	313,96
489,699	311,25
489,946	304,35
490,193	299,74
490,44	294,79
490,687	289,04
490,934	279,49
491,18	268,22
491,427	263,27
491,674	258,03
491,921	252,88
492,168	245,46
492,415	236,17
492,662	230,64
492,909	226,58
493,155	220,13
493,402	212,43
493,649	204,54
493,896	200,38
494,142	191,28
494,389	185,3
494,636	179,01
494,883	171,79
495,129	165,78
495,376	159,02
495,623	154,56
495,869	151,55
496,116	147,57
496,362	144,51
496,609	142,35
496,855	141,74
497,102	137,77
497,348	132,1
497,595	128,12
497,841	127,85
498,088	121,13
498,334	117,56
498,581	112,73
498,827	108,29
499,074	104,92
499,32	102,49
499,566	101,76
499,813	98,77
500,059	92,24
500,305	88,99
500,552	84,19
500,798	79,82
501,044	81,13
501,29	76,57
501,537	69,37
501,783	69,4
502,029	69,75
502,275	65,56
502,521	62,41
502,767	60,37
503,013	60,5
503,26	56,1
503,506	49,14
503,752	49,36
503,998	44,57
504,244	42,3
504,49	37,66
504,736	35,69
504,982	32,5
505,228	33,67
505,474	31,99
505,72	32,44
505,966	30,08
506,211	31,2
506,457	30,17
506,703	25,69
506,949	22,52
507,195	19,76
507,441	14,49
507,686	17,91
507,932	16,27
508,178	17,27
508,424	14,13
508,669	11,21
508,915	10,88
509,161	12,68
509,406	13,13
509,652	11,25
509,898	13,17
510,143	13,09
510,389	11,94
510,634	7,79
510,88	11,77
511,125	14,26
511,371	14,17
511,616	14,21
511,862	10,69
512,107	6,85
512,353	8,56
512,598	8,71
512,844	5,74
513,089	3,84
513,335	4,8
513,58	3,93
513,825	4,82
514,071	3,81
514,316	3,38
514,561	3,41
514,806	1,65
515,052	5,26
515,297	2,81
515,542	4,18
515,787	4,51
516,033	6,34
516,278	5,43
516,523	5,12
516,768	3,8
517,013	0,01
517,258	-1,23
517,503	-3,05
517,748	-0,72
517,993	-0,31
518,238	-0,16
518,483	-1,85
518,728	-2,44
518,973	-5,66
519,218	-5,41
519,463	-4,42
519,708	-4,36
519,953	-6,91
520,198	-6,28
520,443	-3,99
520,688	-2,05
520,933	-4,49
521,177	-4,94
521,422	-6,02
521,667	-2,86
521,912	-2,81
522,157	-5,74
522,401	-2,53
522,646	-2,6
522,891	-0,94
523,135	-1,39
523,38	-1,44
523,625	-2,51
523,869	0,79
524,114	1,85
524,358	1,69
524,603	2,04
524,848	0,05
525,092	0,39
525,337	1,06
525,581	2,41
525,826	4,76
526,07	5,05
526,315	6,59
526,559	5,92
526,803	4,08
527,048	7,73
527,292	9,34
527,537	10,39
527,781	9,6
528,025	7,32
528,269	8,41
528,514	10,94
528,758	10,61
529,002	9,86
529,247	12,67
529,491	12,79
529,735	18,7
529,979	18,52
530,223	19,49
530,467	17,39
530,712	16,03
530,956	15,31
531,2	17,6
531,444	15,46
531,688	18,21
531,932	19,87
532,176	23,14
532,42	24,94
532,664	28,64
532,908	27,26
533,152	26,8
533,396	28,02
533,64	29,83
533,884	31,13
534,128	35,58
534,371	41,63
534,615	46,53
534,859	49,34
535,103	53,95
535,347	60,4
535,59	68,24
535,834	70,78
536,078	78,74
536,322	89,62
536,565	103,01
536,809	113,55
537,053	129,77
537,296	144,58
537,54	164,81
537,784	188,8
538,027	217,6
538,271	245,97
538,514	275,36
538,758	304,73
539,001	332,4
539,245	359,58
539,488	387,49
539,732	415,09
539,975	441,81
540,219	466,8
540,462	491,98
540,706	517,11
540,949	538,37
541,192	560
541,436	586,29
541,679	614,96
541,922	645,65
542,166	677,34
542,409	718,85
542,652	762,29
542,895	805,66
543,139	844,15
543,382	880,34
543,625	907,26
543,868	929,91
544,111	946,55
544,354	957,43
544,598	963,56
544,841	966,3
545,084	961,06
545,327	949,95
545,57	936,64
545,813	922,55
546,056	903,28
546,299	884,84
546,542	866,65
546,785	850,26
547,028	831,42
547,271	811,62
547,514	791,85
547,756	770,62
547,999	751,82
548,242	733,43
548,485	713,59
548,728	695,44
548,971	670,1
549,213	646,93
549,456	616,45
549,699	580,9
549,942	539,51
550,184	493,49
550,427	447,81
550,67	404,93
550,912	363,88
551,155	331,85
551,398	301,4
551,64	273,54
551,883	250,61
552,125	229,5
552,368	210,5
552,61	192,48
552,853	180,05
553,095	166,63
553,338	154
553,58	143,39
553,823	130,22
554,065	124,06
554,308	111,72
554,55	100,9
554,792	91,14
555,035	84,2
555,277	76,25
555,519	71,02
555,762	62,85
556,004	56,6
556,246	47,54
556,488	45,54
556,731	37,94
556,973	34,89
557,215	29,89
557,457	28,5
557,699	27,94
557,941	22,28
558,183	20,47
558,426	20,98
558,668	16,32
558,91	16,27
559,152	15,25
559,394	12,53
559,636	12,54
559,878	11,06
560,12	8,27
560,362	7,41
560,604	5,77
560,845	4,58
561,087	3,11
561,329	6
561,571	2,81
561,813	1,94
562,055	0,35
562,297	-0,3
562,538	-1,12
562,78	2,9
563,022	0,22
563,264	2,33
563,505	3,49
563,747	3,9
563,989	0,3
564,23	-0,86
564,472	-2,75
564,714	-0,65
564,955	-1,83
565,197	-5,78
565,438	-3
565,68	-0,28
565,921	-2,18
566,163	-1,2
566,404	-3,31
566,646	-1,03
566,887	1,35
567,129	3,9
567,37	3,71
567,612	7,97
567,853	6,84
568,094	8,84
568,336	9,34
568,577	10,73
568,818	10,63
569,06	7,41
569,301	5,21
569,542	6,89
569,783	10,09
570,025	9,23
570,266	7,93
570,507	8,49
570,748	7,51
570,989	7,02
571,23	9,02
571,472	9,87
571,713	9,18
571,954	9,96
572,195	8,68
572,436	11,37
572,677	14,76
572,918	17,27
573,159	15,77
573,4	16,83
573,641	18,65
573,882	21,97
574,123	22,4
574,364	19,63
574,604	21,18
574,845	20,6
575,086	23,09
575,327	26,57
575,568	28,15
575,809	29,56
576,049	30,91
576,29	31,13
576,531	40,69
576,771	47,98
577,012	52,69
577,253	54,27
577,494	57,33
577,734	57,78
577,975	60,44
578,215	60,95
578,456	62,64
578,697	65,43
578,937	70,03
579,178	72,11
579,418	72,5
579,659	73,54
579,899	70,98
580,14	71,99
580,38	71,89
580,62	73,35
580,861	77,85
581,101	78,11
581,342	76,65
581,582	72,68
581,822	75,48
582,063	73,64
582,303	75,5
582,543	74,38
582,783	74,99
583,024	77,05
583,264	79,46
583,504	77,63
583,744	79,87
583,984	77,37
584,224	78,51
584,465	76,99
584,705	78,1
584,945	79,13
585,185	81,28
585,425	82,19
585,665	82,27
585,905	81,33
586,145	80,24
586,385	78,22
586,625	81,53
586,865	80,88
587,105	80,85
587,345	81,39
587,585	81,33
587,824	78,9
588,064	77,96
588,304	73,6
588,544	72,35
588,784	71,48
589,024	74,81
589,263	74,87
589,503	73,57
589,743	76,49
589,982	76,14
590,222	76,04
590,462	72,46
590,701	70,85
590,941	73,83
591,181	71,35
591,42	68,01
591,66	68,33
591,899	69,48
592,139	65,95
592,378	64,87
592,618	61,88
592,857	61,3
593,097	60,66
593,336	60,72
593,576	60,75
593,815	60,36
594,055	58,12
594,294	58,03
594,533	57,03
594,773	56,13
595,012	56,65
595,251	58,6
595,491	60,64
595,73	63,88
595,969	65,17
596,208	65,7
596,447	68,54
596,687	67,71
596,926	68,54
597,165	62,79
597,404	62,97
597,643	59,76
597,882	57,85
598,121	57,35
598,36	56,39
598,599	56,44
598,838	55,03
599,077	49,77
599,316	49,64
599,555	47,59
599,794	48,47
600,033	49,96
600,272	50,03
600,511	48,32
600,75	48,7
600,989	49,68
601,228	48,99
601,466	47,73
601,705	48,47
601,944	49,38
602,183	52,08
602,422	50,59
602,66	47,57
602,899	45,95
603,138	44,4
603,376	42,77
603,615	42,04
603,854	40
604,092	39,86
604,331	40,65
604,569	43,48
604,808	42,8
605,047	45,13
605,285	47,18
605,524	48,36
605,762	47,69
606	51,55
606,239	57,17
606,477	62,3
606,716	63,47
606,954	72,26
607,193	80,43
607,431	92,5
607,669	109,79
607,908	133,17
608,146	159,24
608,384	182,8
608,622	206,84
608,861	229,2
609,099	248,06
609,337	264,41
609,575	279,09
609,813	294,54
610,052	307,59
610,29	315,28
610,528	324,66
610,766	333,25
611,004	343,09
611,242	348,99
611,48	356,85
611,718	359,66
611,956	366,52
612,194	371,54
612,432	374,34
612,67	375,95
612,908	379,26
613,146	379,04
613,384	378,49
613,621	375,49
613,859	373,87
614,097	370,69
614,335	365,38
614,573	356,35
614,811	344,51
615,048	327,55
615,286	305,91
615,524	281,08
615,761	255,34
615,999	233,3
616,237	211,8
616,474	195,28
616,712	179,46
616,95	162,83
617,187	147,33
617,425	136,38
617,662	127,8
617,9	116,45
618,137	106,68
618,375	97,36
618,612	87,47
618,85	81,66
619,087	79,52
619,325	72,93
619,562	65,49
619,799	61,02
620,037	58,02
620,274	52,88
620,511	53,29
620,749	48,94
620,986	46,52
621,223	42,94
621,461	41,89
621,698	42,31
621,935	41,52
622,172	39,28
622,409	39,53
622,647	39,23
622,884	38,17
623,121	41,19
623,358	38,95
623,595	39,13
623,832	39,35
624,069	38,5
624,306	39,98
624,543	42,3
624,78	43,57
625,017	42,62
625,254	44,26
625,491	46,12
625,728	47,92
625,965	49,6
626,202	48,99
626,438	46,93
626,675	46,53
626,912	50,75
627,149	52,77
627,386	54,11
627,622	55,73
627,859	56,16
628,096	58,85
628,333	61,22
628,569	63,55
628,806	65,61
629,043	64,68
629,279	67,11
629,516	69,93
629,752	66,31
629,989	67,59
630,225	65,34
630,462	63,89
630,699	64,83
630,935	64,14
631,171	59,76
631,408	59,27
631,644	55,35
631,881	51,89
632,117	47,92
632,354	48,85
632,59	46,86
632,826	45,66
633,063	43,24
633,299	42,84
633,535	39,4
633,771	37,53
634,008	37,66
634,244	35,34
634,48	30,1
634,716	30,07
634,953	27,49
635,189	24,39
635,425	22,22
635,661	22,01
635,897	17,83
636,133	16,9
636,369	15,24
636,605	9,37
636,841	6,93
637,077	9,26
637,313	8,02
637,549	9,34
637,785	6,98
638,021	5,7
638,257	4,16
638,493	6,89
638,729	5,26
638,965	10,08
639,2	12,64
639,436	11,77
639,672	10,16
639,908	8,11
640,144	12,33
640,379	15,03
640,615	13,53
640,851	15,61
641,086	18,57
641,322	16,9
641,558	15,78
641,793	18,02
642,029	13,61
642,264	11,78
642,5	12,03
642,736	9,6
642,971	11,2
643,207	10,8
643,442	7,94
643,678	7,85
643,913	9,85
644,148	8,99
644,384	11,25
644,619	10,99
644,855	10,62
645,09	13,56
645,325	13,31
645,561	13,63
645,796	10,23
646,031	13,93
646,266	10,19
646,502	8,71
646,737	13,54
646,972	13,99
647,207	15,28
647,442	11,98
647,678	8,92
647,913	11,22
648,148	12,6
648,383	11,03
648,618	11,41
648,853	14,16
649,088	16,83
649,323	21,64
649,558	22,84
649,793	24,36
650,028	25,11
650,263	20,95
650,498	23,18
650,733	23,55
650,968	22,69
651,202	24,08
651,437	22,17
651,672	18,63
651,907	17,95
652,142	19,61
652,376	19,08
652,611	21,22
652,846	22,08
653,081	22,82
653,315	21,16
653,55	21,38
653,785	20,17
654,019	20,25
654,254	18,11
654,488	19,09
654,723	16,14
654,958	13,88
655,192	12,27
655,427	9,28
655,661	9,34
655,896	12,58
656,13	13,5
656,364	9,21
656,599	5,61
656,833	8,52
657,068	11,45
657,302	12,64
657,536	12,01
657,771	13,49
658,005	15,2
658,239	17,83
658,474	15,46
658,708	17,58
658,942	16,81
659,176	16,28
659,41	13,65
659,645	13,52
659,879	13,27
660,113	10,07
660,347	11,05
660,581	8,44
660,815	9,69
661,049	7,88
661,283	4,83
661,517	4
661,751	3,55
661,985	2,81
662,219	4,57
662,453	3,93
662,687	4,69
662,921	2,45
663,155	1,56
663,389	-5,12
663,622	-5,37
663,856	-2,79
664,09	-5,75
664,324	-8,47
664,558	-9,59
664,791	-11,19
665,025	-11,79
665,259	-12,46
665,492	-15,12
665,726	-11,49
665,96	-12,28
666,193	-13,13
666,427	-12,1
666,661	-12,8
666,894	-13,89
667,128	-15,01
667,361	-12,02
667,595	-12,9
667,828	-12,77
668,062	-13,57
668,295	-12,74
668,529	-12,19
668,762	-10,29
668,995	-11,68
669,229	-6,59
669,462	-6,05
669,695	-6,47
669,929	-7,17
670,162	-7,18
670,395	-10,39
670,629	-8,93
670,862	-6,08
671,095	-10,01
671,328	-9,74
671,561	-11,61
671,795	-10,39
672,028	-9,47
672,261	-9,66
672,494	-8,55
672,727	-10,24
672,96	-10,14
673,193	-9,79
673,426	-5,91
673,659	-6,49
673,892	-6,34
674,125	-7,61
674,358	-7,64
674,591	-8,73
674,824	-9,75
675,057	-10,95
675,29	-12,95
675,523	-11,19
675,755	-12,47
675,988	-12,37
676,221	-8,54
676,454	-11,26
676,687	-10,18
676,919	-10,37
677,152	-10,36
677,385	-9,36
677,617	-8,18
677,85	-6,52
678,083	-8,5
678,315	-5,59
678,548	-5,99
678,78	-6,49
679,013	-6,08
679,246	-4,24
679,478	-2,9
679,711	-4,68
679,943	-2,19
680,175	-4,62
680,408	-2,51
680,64	-6,34
680,873	-5,02
681,105	-2,96
681,338	1,41
681,57	1
681,802	1,9
682,034	2,15
682,267	5,92
682,499	8,03
682,731	5,87
682,964	5,87
683,196	4,34
683,428	0,87
683,66	-0,58
683,892	2,62
684,124	6,12
684,356	8,11
684,589	8,85
684,821	7,85
685,053	8,18
685,285	8,98
685,517	10,81
685,749	12,09
685,981	13,54
686,213	13,87
686,445	13,4
686,676	9,79
686,908	10,62
687,14	9,85
687,372	10,23
687,604	7,46
687,836	9,35
688,068	9,24
688,299	8,03
688,531	5,65
688,763	10,34
688,995	9,23
689,226	12,92
689,458	11,45
689,69	9,87
689,921	9,49
690,153	9,88
690,384	12,45
690,616	12,71
690,848	14,39
691,079	10,64
691,311	8,73
691,542	6,35
691,774	3,56
692,005	6,48
692,237	8,59
692,468	6,84
692,699	5,96
692,931	5,43
693,162	2,17
693,393	1,42
693,625	0,46
693,856	2,79
694,087	3,71
694,319	4,84
694,55	4,59
694,781	4,35
695,012	2,65
695,243	1,13
695,475	-0,14
695,706	-0,85
695,937	-2,24
696,168	-3,49
696,399	-6,2
696,63	-5,59
696,861	-4,44
697,092	0,53
697,323	3,43
697,554	3,43
697,785	4,54
698,016	6,33
698,247	5,05
698,478	6,27
698,709	8,02
698,94	11,57
699,171	11,31
699,401	7,2
699,632	10,08
699,863	6,43
700,094	6,21
700,325	11,22
700,555	12,2
700,786	14,64
701,017	14,3
701,247	13,23
701,478	13,33
701,709	13,91
701,939	11,78
702,17	15,1
702,401	17,46
702,631	19,5
702,862	18,31
703,092	15,04
703,323	18,86
703,553	21,21
703,784	21,91
704,014	21,54
704,244	17,43
704,475	17,24
704,705	18,64
704,936	18,36
705,166	16,27
705,396	18,63
705,627	17,31
705,857	18,06
706,087	18,53
706,317	16,37
706,548	15,48
706,778	14,86
707,008	16,33
707,238	17,1
707,468	15
707,698	12,96
707,928	11,9
708,158	11,51
708,389	10,28
708,619	8,84
708,849	8,38
709,079	11,98
709,309	10,09
709,539	8,22
709,768	8,55
709,998	12,33
710,228	12,69
710,458	11,68
710,688	8,42
710,918	7,16
711,148	7,02
711,378	7,23
711,607	4,2
711,837	3,77
712,067	4,55
712,297	3,97
712,526	3,23
712,756	5,11
712,986	1,81
713,215	-1,61
713,445	-1,6
713,674	-0,23
713,904	-1,19
714,134	1,24
714,363	0,06
714,593	-2,63
714,822	-3,64
715,052	-4,26
715,281	-3,66
715,511	-4,65
715,74	-4,29
715,969	-5,58
716,199	-6,39
716,428	-5,98
716,657	-6,6
716,887	-4,77
717,116	-8,76
717,345	-8,09
717,575	-8,56
717,804	-7,76
718,033	-8,39
718,262	-8,69
718,492	-8,91
718,721	-8,58
718,95	-10,24
719,179	-12,76
719,408	-11,82
719,637	-15,43
719,866	-17,82
720,095	-15,14
720,324	-14,84
720,553	-18,29
720,782	-19,64
721,011	-18,92
721,24	-20,88
721,469	-22,15
721,698	-20,66
721,927	-20,2
722,156	-21,25
722,385	-22,7
722,613	-19,18
722,842	-18,91
723,071	-15,51
723,3	-14,53
723,529	-16,43
723,757	-15,65
723,986	-19,64
724,215	-19,69
724,443	-17,27
724,672	-15,21
724,901	-14,03
725,129	-12,02
725,358	-8,78
725,586	-10,06
725,815	-8,16
726,043	-8,18
726,272	-9,34
726,5	-9,69
726,729	-7,97
726,957	-11,12
727,186	-13,21
727,414	-11,16
727,642	-8,08
727,871	-5,97
728,099	-7,27
728,327	-7,73
728,556	-5,58
728,784	-5,11
729,012	-7,01
729,241	-3,99
729,469	-3,7
729,697	-6,87
729,925	-6,27
730,153	-7,88
730,381	-8,49
730,61	-7,55
730,838	-10
731,066	-8,8
731,294	-7,56
731,522	-11,06
731,75	-14,88
731,978	-16,33
732,206	-17,44
732,434	-19,58
732,662	-17,66
732,89	-21,07
733,118	-22,16
733,346	-21,45
733,573	-20,55
733,801	-20,86
734,029	-12,79
734,257	-11,85
734,485	-9,76
734,712	-7,31
734,94	-10,03
735,168	-6,1
735,396	-5,76
735,623	-6,76
735,851	-4,95
736,078	-3,09
736,306	-3,77
736,534	-4,17
736,761	-2,9
736,989	-5,33
737,216	-6,77
737,444	-8,59
737,671	-8,43
737,899	-3,21
738,126	-3,87
738,354	-5,99
738,581	-5,46
738,809	-3,05
739,036	-5,2
739,263	-4,88
739,491	-7,42
739,718	-7,65
739,945	-1,4
740,173	0,69
740,4	1,64
740,627	-0,69
740,854	0,58
741,081	-2,77
741,309	-4,44
741,536	-9,11
741,763	-12,73
741,99	-10,41
742,217	-10,66
742,444	-11,56
742,671	-9,8
742,898	-10,38
743,125	-12,12
743,352	-15,17
743,579	-15,68
743,806	-15,72
744,033	-12,36
744,26	-12,1
744,487	-12,27
744,714	-12,01
744,941	-12,34
745,167	-8,49
745,394	-7,91
745,621	-8,35
745,848	-9,79
746,075	-5,97
746,301	-3,57
746,528	1,32
746,755	0,21
746,981	-1,82
747,208	-0,56
747,435	0,61
747,661	1,26
747,888	1,41
748,114	-0,98
748,341	1,9
748,567	4,23
748,794	3,77
749,02	2,53
749,247	-0,5
749,473	-0,88
749,7	-1,12
749,926	-1,4
750,152	3,37
750,379	4,75
750,605	5,31
750,831	5,01
751,058	3,46
751,284	2,61
751,51	5,74
751,737	7,73
751,963	4,78
752,189	3,41
752,415	3,54
752,641	3,34
752,867	2,96
753,094	0,61
753,32	-0,3
753,546	-1,89
753,772	-0,34
753,998	-2,52
754,224	-4,87
754,45	-5,79
754,676	-5,79
754,902	-6,01
755,128	-5,63
755,354	-6,53
755,579	-5,99
755,805	-3,84
756,031	-3,53
756,257	-3,95
756,483	-4,7
756,709	-7
756,934	-7,54
757,16	-9,62
757,386	-9,27
757,612	-12,1
757,837	-14,33
758,063	-12,28
758,289	-8,42
758,514	-10,9
758,74	-15,05
758,965	-17,41
759,191	-15,92
759,416	-15,11
759,642	-12,3
759,868	-11,26
760,093	-8,88
760,318	-10,32
760,544	-10,17
760,769	-11,16
760,995	-10,45
761,22	-9,24
761,445	-6,18
761,671	-3,63
761,896	-1,62
762,121	-1,26
762,347	-1,55
762,572	-4,43
762,797	-5,19
763,022	-5,16
763,248	-1,89
763,473	-0,04
763,698	-0,51
763,923	-0,07
764,148	-1,07
764,373	-1,28
764,598	1,36
764,823	3,28
765,048	-0,15
765,273	-4,18
765,498	-5,51
765,723	-3,31
765,948	-1,22
766,173	-2,92
766,398	-1,91
766,623	-5,49
766,848	-6,15
767,073	-8,5
767,298	-9,68
767,522	-10,91
767,747	-9,95
767,972	-10,54
768,197	-10,66
768,421	-13,53
768,646	-16,24
768,871	-19,18
769,095	-19,23
769,32	-18,38
769,545	-17,39
769,769	-15,51
769,994	-13,9
770,218	-17,63
770,443	-16,15
770,667	-14,88
770,892	-15,48
771,116	-16,53
771,341	-14,35
771,565	-13,94
771,79	-12,71
772,014	-12,21
772,238	-13,42
772,463	-9,38
772,687	-9,44
772,911	-10,64
773,136	-13,06
773,36	-11,84
773,584	-9,96
773,808	-12,28
774,033	-11,21
774,257	-9,77
774,481	-10,03
774,705	-10,2
774,929	-10,32
775,153	-10,18
775,377	-9,2
775,602	-9,59
775,826	-7,56
776,05	-5,82
776,274	-7,05
776,498	-7,13
776,722	-8,29
776,945	-7,1
777,169	-7,36
777,393	-9,35
777,617	-9,29
777,841	-7,92
778,065	-6,06
778,289	-7,92
778,512	-8,6
778,736	-7,69
778,96	-7,56
779,184	-5,67
779,407	-7,42
779,631	-7,35
779,855	-7,33
780,078	-4,88
780,302	-8,26
780,526	-12,03
780,749	-10,9
780,973	-8,98
781,196	-9,08
781,42	-11,27
781,643	-11,41
781,867	-10,07
782,09	-12,61
782,314	-14,08
782,537	-14,42
782,76	-15,78
782,984	-14,48
783,207	-14,84
783,431	-13,33
783,654	-15,62
783,877	-18,42
784,1	-18,68
784,324	-20,12
784,547	-21,9
784,77	-25,78
784,993	-26,3
785,216	-26,88
785,44	-26,84
785,663	-29,31
785,886	-27,49
786,109	-27,83
786,332	-27,85
786,555	-27,44
786,778	-25,62
787,001	-24,96
787,224	-21,66
787,447	-18,9
787,67	-17,29
787,893	-17,55
788,116	-16,33
788,339	-15,53
788,561	-16,78
788,784	-21,74
789,007	-22,19
789,23	-22,11
789,453	-21,94
789,675	-22,87
789,898	-25,12
790,121	-26,82
790,344	-28,49
790,566	-26,89
790,789	-27,36
791,012	-26,85
791,234	-22,1
791,457	-17,63
791,679	-15,02
791,902	-16,35
792,124	-17,24
792,347	-17,95
792,569	-17,79
792,792	-20,52
793,014	-17,06
793,237	-15,51
793,459	-14,76
793,681	-14,62
793,904	-16,15
794,126	-19,68
794,348	-21,21
794,571	-18,7
794,793	-21,41
795,015	-21,58
795,237	-21,08
795,46	-19,67
795,682	-17,32
795,904	-14,05
796,126	-15,36
796,348	-15,98
796,57	-12,5
796,792	-11,79
797,014	-8,07
797,237	-5,97
797,459	-4,54
797,681	-2,97
797,903	-3,18
798,124	-3,72
798,346	6,82
798,568	7,29
798,79	12
799,012	14,49
799,234	16,31
799,456	17,16
799,678	18,58
799,899	16,03
800,121	13,02
800,343	11,2
800,565	11,68
800,786	11,9
801,008	15,33
801,23	16,36
801,451	15,19
801,673	14,74
801,895	14,53
802,116	16,32
802,338	17,11
802,559	17,97
802,781	14,61
803,002	16,96
803,224	19,2
803,445	16,49
803,667	17,02
803,888	15,88
804,109	15,15
804,331	15,5
804,552	15
804,773	17,7
804,995	14,05
805,216	-0,38
805,437	-2,11
805,658	-5,33
805,88	-6,74
806,101	-7,23
806,322	-6,1
806,543	-6,66
806,764	-7,91
806,985	-5,87
807,207	-3,67
807,428	-3,13
807,649	-6,8
807,87	-10,39
808,091	-9,35
808,312	-10,17
808,533	-4,8
808,754	-3,7
808,975	-5,49
809,195	-2,55
809,416	-2,72
809,637	-1,93
809,858	-3,58
810,079	-6,22
810,3	-4,29
810,52	-5,15
810,741	-6,86
810,962	-7,39
811,183	-9,17
811,403	-8,3
811,624	-9,92
811,845	-7,62
812,065	-5,3
812,286	-4,65
812,506	-4,52
812,727	-6,02
812,948	-5,05
813,168	-2,98
813,389	-3,76
813,609	-2,91
813,83	-3,91
814,05	-6,13
814,27	-6,04
814,491	-1,31
814,711	-0,56
814,931	-4,68
815,152	-4,95
815,372	-7,28
815,592	-8,68
815,813	-9,19
816,033	-11,65
816,253	-10,45
816,473	-10,58
816,694	-9,77
816,914	-7,35
817,134	-7,55
817,354	-8,04
817,574	-7,29
817,794	-8,09
818,014	-7,79
818,234	-8,83
818,454	-10,09
818,674	-11,68
818,894	-15,2
819,114	-13,06
819,334	-13,49
819,554	-10,55
819,774	-8,72
819,994	-12,56
820,214	-12,86
820,433	-12,34
820,653	-11,74
820,873	-8,85
821,093	-9,21
821,312	-12,03
821,532	-10,66
821,752	-6,3
821,972	-7,36
822,191	-6,65
822,411	-7,6
822,63	-7,83
822,85	-8,97
823,07	-11,48
823,289	-11,79
823,509	-12,61
823,728	-10,74
823,948	-12,82
824,167	-14,15
824,387	-14,57
824,606	-13,11
824,825	-15,05
825,045	-14,49
825,264	-14,44
825,483	-13,05
825,703	-9,83
825,922	-11,93
826,141	-12,16
826,361	-13,36
826,58	-17,5
826,799	-18,41
827,018	-16,81
827,237	-16,74
827,456	-15,57
827,676	-16,53
827,895	-15,77
828,114	-13,79
828,333	-14,15
828,552	-14,23
828,771	-13,77
828,99	-16,55
829,209	-15,69
829,428	-11,99
829,647	-11,82
829,866	-9,79
830,084	-10,19
830,303	-10,67
830,522	-11,66
830,741	-9,98
830,96	-9,43
831,179	-9,46
831,397	-9,92
831,616	-9,16
831,835	-9,5
832,053	-8,43
832,272	-8,64
832,491	-8,88
832,709	-9,53
832,928	-9,62
833,147	-9
833,365	-7,49
833,584	-4,41
833,802	-2,47
834,021	-2,23
834,239	-1,54
834,458	-2,06
834,676	-5,9
834,894	-8,12
835,113	-8,43
835,331	-8,89
835,55	-8,63
835,768	-6,86
835,986	-5,41
836,204	-8,2
836,423	-6,91
836,641	-9,2
836,859	-9,18
837,077	-8,33
837,296	-8,89
837,514	-10,79
837,732	-11,44
837,95	-11,49
838,168	-9,21
838,386	-10,38
838,604	-7,78
838,822	-6,69
839,04	-8,05
839,258	-6,93
839,476	-5,89
839,694	-4,41
839,912	-6,01
840,13	-6,61
840,348	-4,97
840,566	-8,46
840,783	-7,1
841,001	-9,03
841,219	-8,13
841,437	-6,51
841,655	-4,11
841,872	-3,56
842,09	-4,33
842,308	-3,08
842,525	-3,12
842,743	-2,13
842,961	-2,35
843,178	-4,49
843,396	-0,5
843,613	0,21
843,831	2,28
844,048	1
844,266	0,71
844,483	1,01
844,701	0,03
844,918	-0,89
845,136	-0,62
845,353	-3,42
845,57	-4,04
845,788	0,39
846,005	-1,55
846,222	-1,95
846,439	-1,12
846,657	-0,77
846,874	-0,26
847,091	-2,96
847,308	-1,08
847,526	-3,53
847,743	-4,81
847,96	-6,4
848,177	-5,19
848,394	-5,59
848,611	-6,68
848,828	-7,66
849,045	-8,6
849,262	-8,02
849,479	-9,87
849,696	-10,36
849,913	-12,29
850,13	-17,01
850,347	-13,84
850,564	-14,54
850,78	-15,72
850,997	-16,81
851,214	-17,09
851,431	-17,21
851,647	-20,45
851,864	-19,35
852,081	-17,76
852,298	-20,38
852,514	-22,66
852,731	-21,84
852,948	-20,23
853,164	-21,06
853,381	-20,88
853,597	-22,64
853,814	-25,12
854,03	-27,61
854,247	-24,91
854,463	-22,98
854,68	-23,13
854,896	-23,21
855,113	-22,86
855,329	-21,76
855,545	-19,76
855,762	-20,96
855,978	-24,18
856,194	-25,87
856,411	-23,45
856,627	-20,28
856,843	-18,72
857,059	-16,25
857,275	-17,79
857,492	-16,44
857,708	-12,3
857,924	-10,4
858,14	-7,26
858,356	-7,66
858,572	-6,47
858,788	-8,12
859,004	-7,34
859,22	-9,88
859,436	-9,19
859,652	-11,66
859,868	-11,35
860,084	-11,69
860,3	-11,24
860,516	-10,14
860,731	-10,73
860,947	-13,56
861,163	-12,29
861,379	-12,19
861,595	-11,77
861,81	-11,32
862,026	-12,07
862,242	-11,4
862,457	-11,31
862,673	-9,29
862,889	-9,64
863,104	-10,71
863,32	-11,77
863,535	-12,2
863,751	-18,07
863,966	-15,62
864,182	-14,18
864,397	-15,66
864,613	-17,79
864,828	-20
865,044	-18,12
865,259	-17,53
865,474	-18,21
865,69	-16,06
865,905	-14,65
866,12	-17,24
866,336	-17,41
866,551	-17,04
866,766	-17,19
866,981	-18,05
867,196	-17,89
867,412	-16,11
867,627	-15,25
867,842	-16,74
868,057	-16,6
868,272	-17,59
868,487	-18,68
868,702	-19,78
868,917	-20,52
869,132	-18,59
869,347	-19,76
869,562	-20,51
869,777	-20,27
869,992	-21,08
870,207	-20,26
870,422	-19,65
870,636	-20,99
870,851	-23,38
871,066	-26,47
871,281	-25,8
871,495	-26,75
871,71	-23,93
871,925	-26,36
872,14	-26,62
872,354	-28,63
872,569	-29,38
872,783	-26,57
872,998	-25,43
873,213	-26,16
873,427	-22,51
873,642	-20,16
873,856	-19,83
874,071	-19,15
874,285	-20
874,5	-22,07
874,714	-23,84
874,928	-24,62
875,143	-24,7
875,357	-24,56
875,571	-26,71
875,786	-26,36
876	-22,87
876,214	-20,87
876,429	-22,75
876,643	-20,68
876,857	-18,31
877,071	-17,73
877,285	-18,41
877,499	-19,71
877,714	-16,15
877,928	-13,54
878,142	-14,91
878,356	-17,88
878,57	-16,09
878,784	-14,79
878,998	-15,73
879,212	-12,79
879,426	-14,68
879,639	-12,46
879,853	-13,64
880,067	-14,57
880,281	-16,34
880,495	-15,14
880,709	-13
880,922	-12,34
881,136	-9,02
881,35	-7,02
881,564	-6,91
881,777	-9,52
881,991	-9,08
882,205	-4,6
882,418	-5,23
882,632	-8,8
882,845	-9,52
883,059	-9,18
883,273	-10,73
883,486	-13,06
883,7	-10,35
883,913	-10,98
884,126	-10,71
884,34	-14,59
884,553	-16,78
884,767	-12,45
884,98	-11,99
885,193	-14,57
885,407	-14,6
885,62	-11,43
885,833	-12,53
886,046	-11,15
886,26	-13,4
886,473	-13,06
886,686	-14,83
886,899	-12,18
887,112	-12,48
887,326	-16,63
887,539	-14,95
887,752	-15,4
887,965	-17,39
888,178	-15,56
888,391	-14,57
888,604	-13,97
888,817	-17,56
889,03	-15,74
889,243	-15,63
889,455	-17,13
889,668	-16,77
889,881	-14,67
890,094	-16,3
890,307	-20,97
890,52	-19,51
890,732	-18,12
890,945	-16,41
891,158	-17,37
891,37	-18,57
891,583	-18,83
891,796	-16,4
892,008	-18,28
892,221	-19,02
892,434	-22,05
892,646	-23,4
892,859	-24,69
893,071	-23,76
893,284	-21,76
893,496	-23,71
893,709	-23,88
893,921	-22,8
894,133	-24,26
894,346	-24,57
894,558	-24,66
894,771	-26,39
894,983	-23,35
895,195	-22,66
895,407	-20,79
895,62	-23,57
895,832	-21,63
896,044	-18,52
896,256	-19,1
896,468	-20,33
896,681	-17,11
896,893	-14,32
897,105	-15,9
897,317	-16,69
897,529	-15,58
897,741	-14,46
897,953	-13,46
898,165	-15,09
898,377	-16,3
898,589	-14,62
898,801	-16,85
899,013	-14,23
899,224	-12,36
899,436	-8,17
899,648	-9,26
899,86	-12,05
900,072	-9,16
900,283	-8,08
900,495	-5,56
900,707	-5,18
900,919	-8,73
901,13	-6,62
901,342	-7,95
901,554	-8,48
901,765	-8,21
901,977	-11,33
902,188	-12,61
902,4	-14,97
902,611	-15,91
902,823	-16,95
903,034	-19,1
903,246	-22,24
903,457	-23,33
903,669	-23,57
903,88	-22,2
904,091	-21,17
904,303	-20,68
904,514	-21,6
904,725	-19,05
904,936	-17,86
905,148	-17,25
905,359	-13,22
905,57	-14,07
905,781	-15,75
905,992	-18,05
906,204	-16,18
906,415	-14,6
906,626	-16,35
906,837	-14,93
907,048	-16,14
907,259	-16,78
907,47	-16,95
907,681	-17,62
907,892	-14,32
908,103	-16,41
908,314	-18,73
908,525	-15,92
908,735	-15,54
908,946	-15,91
909,157	-17,15
909,368	-13,72
909,579	-11,99
909,789	-13,05
910	-14,66
910,211	-12,89
910,421	-13,74
910,632	-15,38
910,843	-18,03
911,053	-14,98
911,264	-11,7
911,475	-14,11
911,685	-13,65
911,896	-13,49
912,106	-12,28
912,317	-13,84
912,527	-11,36
912,737	-12,65
912,948	-13,42
913,158	-13,15
913,369	-15,25
913,579	-14
913,789	-13,06
914	-9,41
914,21	-10,52
914,42	-11,18
914,63	-11,62
914,841	-10,93
915,051	-9,97
915,261	-9,35
915,471	-7,27
915,681	-5,39
915,891	-5,36
916,101	-5,71
916,311	-5,03
916,521	-3,2
916,731	-3,04
916,941	0,3
917,151	0,06
917,361	3,9
917,571	-0,72
917,781	-3,67
917,991	-5,13
918,201	-6,04
918,411	-10,53
918,621	-10,89
918,83	-9,12
919,04	-12,41
919,25	-9,62
919,46	-7,62
919,669	-10,9
919,879	-12,26
920,089	-13,11
920,298	-15,83
920,508	-15,95
920,717	-14,74
920,927	-17,07
921,136	-15,13
921,346	-17,25
921,555	-19,93
921,765	-19,22
921,974	-21,22
922,184	-24,94
922,393	-25,98
922,603	-27,68
922,812	-25,15
923,021	-26,37
923,23	-26,76
923,44	-30,29
923,649	-29,2
923,858	-30,53
924,067	-30,93
924,277	-32,83
924,486	-30,79
924,695	-31,33
924,904	-27,93
925,113	-28,27
925,322	-27,45
925,531	-25,74
925,74	-29,44
925,949	-29,9
926,158	-27,87
926,367	-27,8
926,576	-27,53
926,785	-27,4
926,994	-28,86
927,203	-27,15
927,412	-26,39
927,621	-27,34
927,83	-23,73
928,038	-23,64
928,247	-24,22
928,456	-23,66
928,665	-22,68
928,873	-20,72
929,082	-17,89
929,291	-16,43
929,499	-13,48
929,708	-15,81
929,916	-14,05
930,125	-15,7
930,333	-16,55
930,542	-12,68
930,75	-9,19
930,959	-8,77
931,167	-8,93
931,376	-10,73
931,584	-10,02
931,793	-8,99
932,001	-10,56
932,209	-11,39
932,418	-14,83
932,626	-15,86
932,834	-17,29
933,042	-19,85
933,251	-19,02
933,459	-18,64
933,667	-19,6
933,875	-20,23
934,083	-19,35
934,291	-19,15
934,499	-18,28
934,707	-18,45
934,915	-18,28
935,123	-15,4
935,331	-17,6
935,539	-20,04
935,747	-23,05
935,955	-24,69
936,163	-23,88
936,371	-24,14
936,579	-21,22
936,787	-21,15
936,995	-23,54
937,202	-26,68
937,41	-25,69
937,618	-26,05
937,826	-25,3
938,033	-29,27
938,241	-32,7
938,449	-29,68
938,656	-27,87
938,864	-26,44
939,071	-26,2
939,279	-22,11
939,486	-19,84
939,694	-20,42
939,901	-20,72
940,109	-20,17
940,316	-19,26
940,524	-20,5
940,731	-21,54
940,939	-20,14
941,146	-20,18
941,353	-21,06
941,561	-22,08
941,768	-22,71
941,975	-21,02
942,182	-20,96
942,39	-20,57
942,597	-16,78
942,804	-16,57
943,011	-18,91
943,218	-18,29
943,425	-18,61
943,632	-17,95
943,839	-18,25
944,046	-19,25
944,253	-18,89
944,46	-17,37
944,667	-11,49
944,874	-12,31
945,081	-11,39
945,288	-10,45
945,495	-8,11
945,702	-8,58
945,909	-11,25
946,115	-9,09
946,322	-10,28
946,529	-13,24
946,736	-13,12
946,942	-11,17
947,149	-11,91
947,356	-14,58
947,562	-16,2
947,769	-16,01
947,976	-18,4
948,182	-15,99
948,389	-17,96
948,595	-18,1
948,802	-17,76
949,008	-19,31
949,215	-19,49
949,421	-19,97
949,628	-20,92
949,834	-19,71
950,04	-20,53
950,247	-16,66
950,453	-14,48
950,659	-16,87
950,865	-16,21
951,072	-23
951,278	-21,23
951,484	-23,3
951,69	-24,83
951,896	-26,67
952,103	-27,7
952,309	-25,07
952,515	-25,8
952,721	-24,56
952,927	-21,82
953,133	-23,82
953,339	-24,81
953,545	-25,54
953,751	-24,25
953,957	-21,34
954,163	-23,01
954,369	-20,73
954,574	-23,53
954,78	-23,32
954,986	-20,38
955,192	-19,23
955,398	-21,73
955,603	-23,98
955,809	-21,45
956,015	-20,4
956,22	-20,55
956,426	-19,16
956,632	-22,98
956,837	-23,3
957,043	-21,92
957,248	-19,06
957,454	-17,82
957,66	-20,99
957,865	-20,55
958,07	-20,25
958,276	-20,35
958,481	-22,05
958,687	-24,38
958,892	-24,07
959,097	-22,69
959,303	-23,56
959,508	-23,75
959,713	-24,51
959,919	-23,66
960,124	-23,88
960,329	-22,16
960,534	-17,64
960,739	-17,3
960,945	-14,58
961,15	-13,27
961,355	-16,6
961,56	-20,35
961,765	-20,27
961,97	-19,26
962,175	-17,29
962,38	-20,28
962,585	-20,05
962,79	-22,06
962,995	-23,29
963,2	-25,25
963,404	-25,18
963,609	-29,82
963,814	-29,92
964,019	-32,95
964,224	-35,18
964,428	-33,03
964,633	-32,92
964,838	-30,71
965,042	-29,56
965,247	-31,38
965,452	-32,88
965,656	-31,11
965,861	-29,63
966,066	-29,74
966,27	-28,08
966,475	-24,84
966,679	-30,78
966,884	-30,95
967,088	-33,7
967,292	-35
967,497	-34,29
967,701	-34,48
967,906	-32,39
968,11	-29,09
968,314	-26,6
968,518	-28,69
968,723	-26,44
968,927	-25,13
969,131	-23,73
969,335	-21,76
969,539	-21,42
969,744	-20,08
969,948	-17,25
970,152	-15,52
970,356	-12,64
970,56	-11,68
970,764	-13,04
970,968	-10,63
971,172	-10,07
971,376	-9,37
971,58	-8,84
971,784	-7,28
971,988	-9,04
972,192	-6,83
972,395	-8,21
972,599	-11,13
972,803	-13,08
973,007	-10,72
973,21	-11,51
973,414	-11,27
973,618	-12,31
973,822	-12,55
974,025	-11,36
974,229	-11,96
974,432	-16,67
974,636	-19,24
974,84	-19
975,043	-17,84
975,247	-19,79
975,45	-19,71
975,654	-18,4
975,857	-16,66
976,06	-18,06
976,264	-19,39
976,467	-18,78
976,671	-19,69
976,874	-18,11
977,077	-19,08
977,28	-21,2
977,484	-24,94
977,687	-25,82
977,89	-23
978,093	-23,57
978,297	-22,95
978,5	-24,17
978,703	-23,28
978,906	-21,37
979,109	-21,19
979,312	-19,76
979,515	-20,11
979,718	-19,36
979,921	-19,07
980,124	-21,5
980,327	-22,49
980,53	-22,25
980,733	-18,98
980,936	-16,2
981,138	-17,75
981,341	-18,32
981,544	-17,87
981,747	-19,23
981,949	-20,89
982,152	-19,28
982,355	-19,93
982,558	-16,01
982,76	-19,42
982,963	-20,17
983,165	-20,03
983,368	-19,01
983,571	-18,06
983,773	-14,66
983,976	-14,29
984,178	-14,07
984,381	-14,88
984,583	-18,28
984,785	-18,61
984,988	-14,75
985,19	-13,59
985,392	-16,14
985,595	-18,24
985,797	-17,47
985,999	-14,13
986,202	-10,97
986,404	-10,81
986,606	-8,16
986,808	-9,51
987,01	-7,78
987,212	-8,11
987,415	-9,79
987,617	-9,07
987,819	-8,74
988,021	-7,88
988,223	-10,15
988,425	-11,78
988,627	-11,19
988,829	-15,57
989,031	-13,02
989,232	-12,76
989,434	-11,98
989,636	-12,68
989,838	-12,84
990,04	-11,42
990,242	-12,33
990,443	-14,74
990,645	-12,96
990,847	-9,09
991,048	-9,18
991,25	-12,44
991,452	-14,01
991,653	-13,37
991,855	-13,34
992,057	-15,1
992,258	-15,32
992,46	-17,1
992,661	-16,07
992,863	-17,76
993,064	-16,49
993,265	-18,57
993,467	-21,2
993,668	-17,97
993,87	-17,56
994,071	-19,01
994,272	-18,39
994,473	-15,81
994,675	-15,15
994,876	-15,03
995,077	-15,69
995,278	-13,72
995,48	-12,85
995,681	-14,35
995,882	-12,82
996,083	-12,56
996,284	-17,45
996,485	-17,38
996,686	-18,07
996,887	-18,99
997,088	-22,38
997,289	-23,41
997,49	-23,11
997,691	-22,8
997,892	-22,61
998,092	-17,67
998,293	-18,23
998,494	-19,43
998,695	-20,5
998,896	-18,14
999,096	-18,07
999,297	-17,17
999,498	-18,59
999,698	-20,36
999,899	-23,32
1000,1	-26,05
1000,3	-26,13
1000,501	-26,74
1000,701	-26,91
1000,902	-27,58
1001,102	-27,49
1001,303	-24,6
1001,503	-28,25
1001,704	-26,87
1001,904	-27,97
1002,105	-29,05
1002,305	-29,34
1002,505	-28,39
1002,706	-28,61
1002,906	-29,12
1003,106	-29,67
1003,306	-28,18
1003,507	-26,48
1003,707	-27,7
1003,907	-24,49
1004,107	-23,22
1004,307	-25,37
1004,507	-23,46
1004,707	-24,35
1004,907	-25,76
1005,107	-26,89
1005,308	-25,87
1005,507	-27,2
1005,707	-24,81
1005,907	-24,12
1006,107	-21,9
1006,307	-19,94
1006,507	-19,32
1006,707	-18,8
1006,907	-18,64
1007,106	-18,53
1007,306	-19,49
1007,506	-21,11
1007,706	-20,23
1007,905	-23,6
1008,105	-22,61
1008,305	-24,08
1008,504	-22,18
1008,704	-17,47
1008,903	-16,2
1009,103	-13,58
1009,303	-15,1
1009,502	-14,77
1009,702	-14,58
1009,901	-13,33
1010,1	-18,22
1010,3	-16,31
1010,499	-19,32
1010,699	-20,35
1010,898	-22,07
1011,097	-19,96
1011,296	-19,84
1011,496	-21,84
1011,695	-22,89
1011,894	-24,42
1012,093	-20,56
1012,293	-21,11
1012,492	-22,1
1012,691	-22,48
1012,89	-22,26
1013,089	-25,19
1013,288	-23,96
1013,487	-22,45
1013,686	-20,73
1013,885	-23,09
1014,084	-21,14
1014,283	-21
1014,482	-20,07
1014,681	-21,26
1014,88	-26,72
1015,078	-26,64
1015,277	-29,7
1015,476	-30,5
1015,675	-30,11
1015,873	-30,49
1016,072	-32,13
1016,271	-28,46
1016,47	-33,01
1016,668	-30,73
1016,867	-30,25
1017,065	-31,02
1017,264	-32,16
1017,463	-32,17
1017,661	-31,27
1017,86	-31,54
1018,058	-30,44
1018,256	-32,51
1018,455	-33,38
1018,653	-31,8
1018,852	-31,38
1019,05	-33,6
1019,248	-33,78
1019,447	-35,41
1019,645	-36,66
1019,843	-37,46
1020,041	-35,34
1020,24	-35,48
1020,438	-31,35
1020,636	-31,23
1020,834	-34,25
1021,032	-29,84
1021,23	-30,46
1021,428	-27,66
1021,626	-22,32
1021,824	-21,43
1022,022	-21,32
1022,22	-19,66
1022,418	-19,5
1022,616	-20,57
1022,814	-20,88
1023,012	-23,22
1023,21	-20,57
1023,408	-21,22
1023,606	-22,37
1023,803	-18,09
1024,001	-16,94
1024,199	-20,7
1024,397	-19,35
1024,594	-19,54
1024,792	-21,86
1024,99	-20,59
1025,187	-20,1
1025,385	-15,04
1025,582	-14,03
1025,78	-14,45
1025,977	-14,34
1026,175	-13,4
1026,372	-13,42
1026,57	-17,33
1026,767	-14,79
1026,965	-12,79
1027,162	-13,42
1027,359	-13,75
1027,557	-13,67
1027,754	-19,06
1027,951	-22,08
1028,148	-21,03
1028,346	-22,27
1028,543	-25,17
1028,74	-24,22
1028,937	-27,93
1029,134	-27,24
1029,331	-28,1
1029,528	-27,89
1029,725	-28,23
1029,923	-32,83
1030,12	-29,46
1030,317	-26,93
1030,513	-26,34
1030,71	-25,36
1030,907	-22,79
1031,104	-24,16
1031,301	-25,1
1031,498	-26,13
1031,695	-26,98
1031,892	-25,91
1032,088	-25,85
1032,285	-27,52
1032,482	-28,15
1032,678	-30,26
1032,875	-32,22
1033,072	-34,04
1033,268	-35,31
1033,465	-35,72
1033,662	-39,59
1033,858	-37,72
1034,055	-37,25
1034,251	-34,72
1034,448	-35,24
1034,644	-33,19
1034,84	-30,88
1035,037	-27,36
1035,233	-26,73
1035,43	-25,72
1035,626	-26,24
1035,822	-24,91
1036,019	-23,69
1036,215	-28,47
1036,411	-29,84
1036,607	-32,09
1036,803	-34,9
1037	-35,33
1037,196	-35,93
1037,392	-36,75
1037,588	-39,27
1037,784	-38,16
1037,98	-39,3
1038,176	-40,97
1038,372	-41,77
1038,568	-39,46
1038,764	-38,01
1038,96	-37,31
1039,156	-37,31
1039,352	-36,84
1039,547	-34,16
1039,743	-32,7
1039,939	-31,13
1040,135	-31,65
1040,331	-34,49
1040,526	-32,28
1040,722	-35,6
1040,918	-36,63
1041,113	-39,76
1041,309	-39,91
1041,505	-41,27
1041,7	-40,49
1041,896	-41,39
1042,091	-42,63
1042,287	-41,38
1042,482	-39,98
1042,678	-39,98
1042,873	-37,73
1043,069	-39,6
1043,264	-39,48
1043,459	-37,02
1043,655	-36,32
1043,85	-38,1
1044,045	-36,72
1044,24	-35,48
1044,436	-33,08
1044,631	-35,95
1044,826	-35,59
1045,021	-37,5
1045,216	-35,81
