Data from FLMT021711__20__18-15-44-187.txt Node

Date: Tue Nov 05 18:15:44 CET 2024
User: Etudiants TP
Spectrometer: FLMT02171
Trigger mode: 0
Integration Time (sec): 1,000000E-1
Scans to average: 5
Electric dark correction enabled: true
Nonlinearity correction enabled: false
Boxcar width: 15
XAxis mode: Wavelengths
Number of Pixels in Spectrum: 3648
>>>>>Begin Spectral Data<<<<<
194,658	-68,63
194,923	-66,42
195,188	-60,48
195,453	-59,84
195,717	-54,74
195,982	-52,65
196,247	-50,55
196,512	-53,82
196,777	-51,59
197,042	-50,12
197,307	-49,85
197,572	-44,09
197,837	-44,26
198,101	-42,12
198,366	-39,54
198,631	-37,55
198,896	-30,73
199,161	-23,47
199,425	-15,21
199,69	-4,09
199,955	-3,74
200,22	-6,77
200,484	-5,77
200,749	-7,43
201,014	-7,28
201,278	-7,2
201,543	-6,16
201,807	-7,26
202,072	-3,82
202,337	-5,46
202,601	-6,69
202,866	-9,15
203,13	-7,27
203,395	-8,88
203,659	-9,6
203,924	-11,15
204,189	-10,48
204,453	-9,59
204,717	-6,6
204,982	-6,46
205,246	-4,84
205,511	-2,15
205,775	-4,49
206,04	0,9
206,304	1,17
206,568	3,93
206,833	4,05
207,097	4,96
207,361	7,35
207,626	10,51
207,89	10,5
208,154	10,92
208,419	14,38
208,683	14,71
208,947	17,82
209,211	17,27
209,476	16,24
209,74	17,31
210,004	19,32
210,268	19,42
210,532	23,75
210,796	25,02
211,061	25,31
211,325	25,79
211,589	24,86
211,853	27,27
212,117	28,36
212,381	28,82
212,645	30,46
212,909	29,74
213,173	28,03
213,437	28,81
213,701	28,6
213,965	29,23
214,229	24,11
214,493	24,97
214,757	23,01
215,021	23,88
215,285	27,95
215,549	29,47
215,813	26,43
216,077	26,25
216,34	27,11
216,604	26,35
216,868	26,43
217,132	27,06
217,396	26,81
217,659	27,52
217,923	22,95
218,187	22,82
218,451	20,63
218,714	16,96
218,978	16,26
219,242	19,16
219,505	19,08
219,769	20,34
220,033	20,21
220,296	21,01
220,56	21,63
220,824	17,99
221,087	19,89
221,351	20,17
221,614	18,68
221,878	19,91
222,142	19,34
222,405	20,1
222,669	21,76
222,932	18,27
223,196	15,63
223,459	11,62
223,722	12,7
223,986	12,05
224,249	11,36
224,513	13,76
224,776	13,07
225,04	13,16
225,303	12,31
225,566	13,43
225,83	14,87
226,093	17,95
226,356	15,97
226,62	13,61
226,883	16,41
227,146	16,91
227,409	16,25
227,673	14,76
227,936	13,9
228,199	13,33
228,462	10,65
228,725	9,42
228,989	9,87
229,252	10,63
229,515	15,67
229,778	14,57
230,041	12,9
230,304	10,56
230,567	11,49
230,83	9,01
231,093	11,65
231,356	11,49
231,619	16,5
231,882	14,81
232,145	16,29
232,408	13,78
232,671	12,76
232,934	11,61
233,197	9,28
233,46	7,8
233,723	9,11
233,986	8,55
234,249	6,14
234,512	7,12
234,775	12,53
235,037	10,83
235,3	11,27
235,563	11,63
235,826	12,68
236,089	14,88
236,351	15,18
236,614	17,64
236,877	17,55
237,14	19,32
237,402	17,89
237,665	11,62
237,928	12,12
238,19	9,97
238,453	12,69
238,716	12,06
238,978	11,69
239,241	9,68
239,503	12,11
239,766	9,87
240,029	8,67
240,291	12,3
240,554	13,03
240,816	11,18
241,079	11,52
241,341	12,74
241,604	12,43
241,866	9,03
242,129	8,83
242,391	11,52
242,653	11,4
242,916	11,87
243,178	12,53
243,441	13,05
243,703	12,23
243,965	8,91
244,228	9,59
244,49	9,49
244,752	10,7
245,015	13
245,277	16,49
245,539	15,69
245,801	17,54
246,064	17,43
246,326	17,07
246,588	16,94
246,85	19,55
247,112	20,62
247,374	22,55
247,637	23,87
247,899	21,54
248,161	21,85
248,423	17
248,685	17,5
248,947	18,15
249,209	18,28
249,471	17,78
249,733	18,91
249,995	18,21
250,257	18,58
250,519	16,69
250,781	19,88
251,043	17,07
251,305	18,58
251,567	20,03
251,829	19,4
252,091	21,38
252,353	17,16
252,615	18
252,876	15,67
253,138	12,14
253,4	6,52
253,662	8,92
253,924	10,61
254,185	10,93
254,447	11,23
254,709	11,63
254,971	12,09
255,232	13,72
255,494	12,52
255,756	10,83
256,017	12
256,279	12,46
256,541	11,58
256,802	11,96
257,064	11,39
257,326	10,84
257,587	13,39
257,849	15,87
258,11	18,64
258,372	19,22
258,633	20,31
258,895	17,56
259,156	14,6
259,418	13,04
259,679	8,23
259,941	6,1
260,202	6,46
260,464	9,53
260,725	7,94
260,987	8,21
261,248	8,8
261,509	10,48
261,771	8,59
262,032	10,78
262,293	11,22
262,555	11,45
262,816	9,69
263,077	6,48
263,338	3,73
263,6	5,17
263,861	5,1
264,122	4,94
264,383	6,16
264,645	8,2
264,906	7,05
265,167	8,81
265,428	7,4
265,689	7,38
265,95	4,24
266,211	6,25
266,473	4,7
266,734	2,01
266,995	-1,22
267,256	1,47
267,517	3,21
267,778	6,93
268,039	8,85
268,3	7,99
268,561	5,33
268,822	7,88
269,083	5,3
269,344	4,17
269,604	2,71
269,865	2,99
270,126	-1,4
270,387	-0,19
270,648	1,34
270,909	-0,21
271,17	-0,62
271,43	-2,85
271,691	-5,12
271,952	-7
272,213	-5,86
272,473	-8,46
272,734	-6,05
272,995	-4,86
273,256	-3,85
273,516	-0,17
273,777	-2,2
274,038	-1,01
274,298	-5,22
274,559	-5,55
274,82	-1,21
275,08	2,4
275,341	4,21
275,601	3,45
275,862	1,94
276,122	2,37
276,383	4,27
276,643	5,16
276,904	4,7
277,164	9,18
277,425	9,13
277,685	13,14
277,946	13,48
278,206	14,96
278,467	15,86
278,727	15,49
278,987	15,8
279,248	15,88
279,508	17,18
279,768	18,49
280,029	20,1
280,289	16,78
280,549	15,69
280,81	14,04
281,07	13,35
281,33	14,04
281,59	12,09
281,851	15,17
282,111	15,83
282,371	15,75
282,631	18,41
282,891	16,65
283,151	15,3
283,412	12,03
283,672	10,83
283,932	10,93
284,192	12,44
284,452	9,29
284,712	7,82
284,972	6,37
285,232	3,1
285,492	5,94
285,752	3,35
286,012	10,07
286,272	11,65
286,532	8,65
286,792	8,42
287,052	10,16
287,312	9,55
287,571	8,5
287,831	8,41
288,091	6,37
288,351	7,09
288,611	11,65
288,871	11,87
289,13	11,19
289,39	7,01
289,65	7,19
289,91	3,43
290,17	5,79
290,429	8,51
290,689	5,33
290,949	3,62
291,208	4,63
291,468	8,74
291,728	11,04
291,987	12,44
292,247	9,9
292,506	13,46
292,766	15,53
293,026	13,84
293,285	15,32
293,545	17,38
293,804	17,77
294,064	14,26
294,323	11,42
294,583	12,76
294,842	13,02
295,102	13,8
295,361	15,63
295,621	17,05
295,88	17,94
296,139	17,61
296,399	19,02
296,658	13,47
296,917	13,13
297,177	11,14
297,436	12,81
297,695	11,71
297,955	12,97
298,214	10,02
298,473	11,66
298,732	13,95
298,992	15,12
299,251	14,9
299,51	10,46
299,769	9,99
300,028	9,92
300,287	11,36
300,547	9,84
300,806	8,59
301,065	12,28
301,324	13,63
301,583	9,43
301,842	5,57
302,101	2,69
302,36	4,24
302,619	3,7
302,878	5,48
303,137	2,12
303,396	3,17
303,655	4,99
303,914	1,88
304,173	1,52
304,432	0,98
304,691	5,14
304,95	2,02
305,208	6,36
305,467	7,04
305,726	7,67
305,985	9,52
306,244	11,8
306,503	11,11
306,761	10,8
307,02	8,29
307,279	8,57
307,537	10,37
307,796	6,45
308,055	3,76
308,314	5,05
308,572	4,53
308,831	6,39
309,09	6,34
309,348	6,25
309,607	6,18
309,865	10,45
310,124	11,05
310,382	11,06
310,641	11,4
310,9	8,84
311,158	11,1
311,417	9,84
311,675	8,9
311,933	10,57
312,192	13,41
312,45	13,17
312,709	12,16
312,967	11,84
313,226	10,99
313,484	8,7
313,742	6,79
314,001	4,72
314,259	2,64
314,517	2,05
314,776	2,32
315,034	5,63
315,292	4,43
315,55	0,77
315,809	0,9
316,067	1,97
316,325	-0,21
316,583	1,32
316,841	0,06
317,1	-1,66
317,358	-5,07
317,616	-5,81
317,874	-6,77
318,132	-8,45
318,39	-8,13
318,648	-9,91
318,906	-9,95
319,164	-11,45
319,422	-10,94
319,68	-11,98
319,938	-12,07
320,196	-13,62
320,454	-12,29
320,712	-12,57
320,97	-11,5
321,228	-13,62
321,486	-10,91
321,744	-9,41
322,002	-6,69
322,26	-7,89
322,517	-5,74
322,775	-7,32
323,033	-9,04
323,291	-7,87
323,549	-3,74
323,806	-1,6
324,064	-0,68
324,322	1,61
324,58	-0,38
324,837	1,09
325,095	0,03
325,353	1,72
325,61	4,46
325,868	3,13
326,126	7,12
326,383	6,4
326,641	6,05
326,898	8,17
327,156	7,91
327,413	7,97
327,671	8,55
327,928	9,85
328,186	10,74
328,443	9,28
328,701	14,17
328,958	16,01
329,216	17,24
329,473	15,28
329,731	16,94
329,988	17
330,245	19,27
330,503	18,64
330,76	18,5
331,017	21,31
331,275	20,18
331,532	20,02
331,789	17,43
332,047	15,41
332,304	11,99
332,561	12,7
332,818	11,26
333,076	13,52
333,333	14,35
333,59	13,4
333,847	14,71
334,104	11,7
334,361	10,51
334,618	10,24
334,876	7,36
335,133	8,89
335,39	6,15
335,647	7,95
335,904	5,05
336,161	2,64
336,418	4,55
336,675	-0,37
336,932	-0,35
337,189	-0,94
337,446	-0,86
337,703	-2,35
337,96	-7,52
338,216	-6,68
338,473	-9,73
338,73	-9,6
338,987	-10,44
339,244	-8,6
339,501	-10,88
339,757	-9,06
340,014	-7,24
340,271	-6,97
340,528	-5,66
340,785	-1,7
341,041	-2,72
341,298	-5,23
341,555	-5,4
341,811	-4,13
342,068	-6,98
342,325	-7,69
342,581	-4,08
342,838	-2,3
343,094	-3,21
343,351	-2,53
343,608	-6,14
343,864	-3,96
344,121	-1,89
344,377	-3,99
344,634	-4,56
344,89	-5,19
345,147	-6,06
345,403	-6,86
345,66	-7,5
345,916	-3,49
346,172	-5,98
346,429	-6,83
346,685	-6,29
346,942	-6,46
347,198	-9,09
347,454	-8,72
347,711	-8,13
347,967	-10,78
348,223	-10,08
348,48	-10,7
348,736	-7,5
348,992	-7,37
349,248	-4,66
349,504	-5,19
349,761	-7,31
350,017	-4,85
350,273	-2,85
350,529	-4,58
350,785	-3,96
351,041	-4,71
351,297	-3,4
351,554	-3,91
351,81	-5,69
352,066	-6,88
352,322	-5,9
352,578	-5,62
352,834	-5,17
353,09	-3,78
353,346	-2,52
353,602	-4,59
353,858	-6,73
354,114	-6,6
354,369	-4,67
354,625	-4,25
354,881	-5,96
355,137	-3,94
355,393	-2,59
355,649	-2,6
355,905	-2,24
356,16	-2,69
356,416	-1,76
356,672	-8,37
356,928	-7,66
357,183	-8,11
357,439	-7,75
357,695	-8,75
357,951	-5,23
358,206	-6,68
358,462	-7,55
358,718	-9,9
358,973	-7,84
359,229	-6,81
359,484	-5,56
359,74	-2,49
359,996	-2,85
360,251	0,41
360,507	0,5
360,762	-0,01
361,018	4,46
361,273	3,44
361,529	7,09
361,784	7,97
362,04	10,33
362,295	10,81
362,55	12,13
362,806	15,57
363,061	15,96
363,316	15,19
363,572	15,83
363,827	17,71
364,082	16,87
364,338	16,69
364,593	15,86
364,848	15,81
365,104	14,71
365,359	17,95
365,614	19,66
365,869	17,26
366,124	18,1
366,38	18,17
366,635	20,68
366,89	20,99
367,145	19,98
367,4	22,98
367,655	22,93
367,91	24,04
368,165	21,4
368,42	18,17
368,675	18,99
368,93	16,83
369,185	14,01
369,44	12,72
369,695	14,01
369,95	10,88
370,205	9,16
370,46	7,23
370,715	6
370,97	7,79
371,225	8,14
371,48	8,92
371,734	9,73
371,989	11,07
372,244	10,18
372,499	12,66
372,754	11,35
373,008	9,38
373,263	4,98
373,518	6,89
373,773	4,88
374,027	4
374,282	5,81
374,537	5,02
374,791	5,65
375,046	4,47
375,301	2,65
375,555	0,57
375,81	2,38
376,064	2,61
376,319	6,2
376,573	5,96
376,828	1,26
377,082	5,83
377,337	4,04
377,591	1,45
377,846	3,6
378,1	6,54
378,355	6,86
378,609	6,19
378,863	2,29
379,118	3,39
379,372	2,19
379,627	0,43
379,881	-1,48
380,135	-1,5
380,389	-1,98
380,644	-1,23
380,898	0,18
381,152	1,02
381,407	0,55
381,661	3,73
381,915	5,04
382,169	3,39
382,423	2,04
382,677	0,39
382,932	1,32
383,186	2,04
383,44	2,81
383,694	4,05
383,948	2,1
384,202	1,27
384,456	2,41
384,71	5,5
384,964	3,59
385,218	5,76
385,472	6,31
385,726	5,58
385,98	3,47
386,234	4,9
386,488	1,86
386,742	3,08
386,996	1
387,249	2,38
387,503	5
387,757	6,88
388,011	7,65
388,265	8,26
388,518	10,39
388,772	12,42
389,026	13,64
389,28	11,65
389,533	8,96
389,787	11,99
390,041	11,79
390,295	11,18
390,548	11
390,802	14
391,055	13,2
391,309	13,14
391,563	9,73
391,816	10,08
392,07	9,73
392,323	10,18
392,577	10,48
392,83	11,78
393,084	17,64
393,337	21,22
393,591	21,63
393,844	22,98
394,098	25,02
394,351	29,33
394,604	31,44
394,858	33,04
395,111	31,93
395,364	27,46
395,618	28,81
395,871	27,35
396,124	26,93
396,378	25,82
396,631	25,13
396,884	22,93
397,137	21,25
397,391	23,52
397,644	19,74
397,897	20,66
398,15	22,86
398,403	26,68
398,657	24,95
398,91	22,86
399,163	23,78
399,416	25,52
399,669	25,22
399,922	24,42
400,175	27,97
400,428	38,83
400,681	55,73
400,934	70,24
401,187	91,82
401,44	112,45
401,693	125,82
401,946	131,76
402,199	133,68
402,452	136,29
402,704	135,22
402,957	136,14
403,21	140,63
403,463	141,74
403,716	144,41
403,969	145,97
404,221	146,14
404,474	149,7
404,727	155,35
404,98	159,59
405,232	160,06
405,485	162,16
405,738	163,79
405,99	164,92
406,243	164,97
406,496	166,79
406,748	169,63
407,001	167,66
407,253	167,47
407,506	166,81
407,759	167,91
408,011	160,83
408,264	149,75
408,516	132,68
408,769	110,85
409,021	88,88
409,274	67,69
409,526	56,07
409,778	45,99
410,031	43,67
410,283	39,51
410,536	43,5
410,788	41,01
411,04	38,69
411,293	38,65
411,545	38,21
411,797	37,38
412,049	35,35
412,302	34
412,554	31,99
412,806	30,77
413,058	28,38
413,311	29,03
413,563	28,47
413,815	27,74
414,067	24,39
414,319	23,4
414,571	23,28
414,823	22,03
415,075	20,88
415,328	22,61
415,58	24,94
415,832	25,66
416,084	26,17
416,336	24,67
416,588	29,01
416,84	26,13
417,091	29,04
417,343	24,48
417,595	28,55
417,847	28,55
418,099	30
418,351	28,49
418,603	30,94
418,855	31,72
419,106	30,89
419,358	30,76
419,61	29,27
419,862	29,95
420,114	26,85
420,365	26,67
420,617	25,14
420,869	23,47
421,12	21,52
421,372	22,61
421,624	21,32
421,875	21,38
422,127	18,89
422,379	18,93
422,63	22,78
422,882	22,5
423,133	22,35
423,385	22,52
423,636	23,48
423,888	25,48
424,139	28,63
424,391	25,38
424,642	24,68
424,894	23,28
425,145	23,14
425,396	18,38
425,648	20,32
425,899	17,85
426,151	18,06
426,402	17,99
426,653	19,17
426,905	18,64
427,156	15,33
427,407	15,03
427,658	15,26
427,91	14,28
428,161	13,68
428,412	17,16
428,663	17,87
428,914	19,62
429,166	20,03
429,417	21,59
429,668	20,34
429,919	17,6
430,17	16,23
430,421	15,73
430,672	19,09
430,923	20,71
431,174	25,1
431,425	44,75
431,676	77,38
431,927	118,61
432,178	173
432,429	230,39
432,68	278,83
432,931	320,46
433,182	351,65
433,433	367,29
433,683	383,49
433,934	390,86
434,185	392,77
434,436	393,74
434,687	395,11
434,937	397,34
435,188	397,23
435,439	396,5
435,69	398,17
435,94	397,48
436,191	396,72
436,442	397,15
436,692	395,63
436,943	392,01
437,194	390,08
437,444	392,45
437,695	396,66
437,945	398,41
438,196	395,58
438,447	394,78
438,697	393,26
438,948	385,97
439,198	364,24
439,449	326,04
439,699	283,3
439,949	230,06
440,2	172,42
440,45	123,18
440,701	82,86
440,951	54,11
441,201	35,78
441,452	19,95
441,702	10,19
441,952	7,73
442,203	4,24
442,453	1,42
442,703	2,15
442,953	1,41
443,204	2,76
443,454	0,81
443,704	-0,55
443,954	-3,81
444,204	-3,37
444,455	-3,23
444,705	-1,95
444,955	-2,42
445,205	-3,22
445,455	-6,22
445,705	-6,72
445,955	-6,3
446,205	-8,58
446,455	-7,62
446,705	-6,38
446,955	-5,51
447,205	-3,54
447,455	-2,51
447,705	-4,95
447,955	-6,08
448,205	-6,35
448,454	-6,66
448,704	-6,11
448,954	-7,17
449,204	-7,58
449,454	-7,1
449,704	-8,03
449,953	-7,49
450,203	-5,73
450,453	-9,42
450,703	-6,24
450,952	-7,62
451,202	-6,34
451,452	-5,89
451,701	-3,35
451,951	-1,32
452,201	-0,56
452,45	-0,89
452,7	0,84
452,949	1,24
453,199	2,45
453,448	3,49
453,698	5,42
453,947	4,62
454,197	3,66
454,446	1,78
454,696	4,42
454,945	4,13
455,195	2,01
455,444	3,27
455,693	7,04
455,943	6
456,192	7,19
456,442	7,04
456,691	6,35
456,94	5,98
457,189	5,76
457,439	7,01
457,688	8,06
457,937	7,54
458,186	9,03
458,436	6,97
458,685	7,38
458,934	6,24
459,183	6,46
459,432	7,87
459,681	8,49
459,93	7,01
460,179	6,92
460,429	5,56
460,678	7,96
460,927	10,3
461,176	8,87
461,425	8,22
461,674	11,06
461,923	10,11
462,172	10,8
462,42	9,78
462,669	11,18
462,918	11,17
463,167	11,35
463,416	7,2
463,665	8,08
463,914	8,75
464,162	6,85
464,411	8,6
464,66	10,16
464,909	9,24
465,158	8,96
465,406	9,38
465,655	10,99
465,904	13,11
466,152	15,09
466,401	16,98
466,65	19,46
466,898	17,93
467,147	15,71
467,395	14,51
467,644	16,47
467,893	15,89
468,141	15,91
468,39	13,17
468,638	10,71
468,887	9,18
469,135	8,92
469,384	8,98
469,632	10,3
469,88	9,52
470,129	11,48
470,377	8,81
470,626	12,23
470,874	14,28
471,122	16,18
471,371	14,57
471,619	13,28
471,867	16,14
472,115	15,74
472,364	14,26
472,612	17,57
472,86	15,43
473,108	15,78
473,356	15,9
473,605	16,15
473,853	12,9
474,101	11,6
474,349	10,44
474,597	14,29
474,845	13,38
475,093	12,65
475,341	10,1
475,589	10,46
475,837	11,65
476,085	13,34
476,333	12,28
476,581	15,47
476,829	15,24
477,077	18,49
477,325	18,55
477,573	21,13
477,821	19,28
478,069	22,86
478,317	23,48
478,564	25,56
478,812	26,69
479,06	28,6
479,308	29,77
479,555	33,37
479,803	34,54
480,051	39,85
480,299	43,5
480,546	48,01
480,794	49,74
481,042	54,87
481,289	59,11
481,537	67,08
481,784	71,76
482,032	81,37
482,28	88,02
482,527	96,13
482,775	105,44
483,022	116,85
483,27	128,68
483,517	140,21
483,765	147,44
484,012	155,78
484,259	160,85
484,507	171,61
484,754	179,21
485,002	186,97
485,249	193,28
485,496	203,68
485,744	210,04
485,991	213,78
486,238	216,91
486,486	226,31
486,733	232,99
486,98	240,11
487,227	241,54
487,474	248,38
487,722	253,17
487,969	252,51
488,216	254,66
488,463	257,64
488,71	256,03
488,957	256,09
489,204	254,7
489,451	255,73
489,699	252,05
489,946	246,1
490,193	240,93
490,44	237,63
490,687	232,85
490,934	224,25
491,18	215,16
491,427	211,32
491,674	211,02
491,921	207,09
492,168	199,67
492,415	190,59
492,662	186,32
492,909	182,61
493,155	176,15
493,402	168,52
493,649	163,47
493,896	161,82
494,142	151,93
494,389	146,46
494,636	140,34
494,883	134,16
495,129	126,39
495,376	119,04
495,623	117,55
495,869	115,73
496,116	111,11
496,362	109,2
496,609	106,8
496,855	107,58
497,102	101,73
497,348	98,57
497,595	96,57
497,841	97,17
498,088	90,44
498,334	86,77
498,581	82,06
498,827	80,25
499,074	78,07
499,32	74,62
499,566	74,6
499,813	72,47
500,059	69,27
500,305	66,78
500,552	63,58
500,798	60,21
501,044	63,13
501,29	59,26
501,537	52,66
501,783	53,92
502,029	54,36
502,275	50,14
502,521	45,36
502,767	45,83
503,013	48,34
503,26	42,18
503,506	36,66
503,752	36,36
503,998	32,42
504,244	31,84
504,49	26,84
504,736	27,5
504,982	24,65
505,228	24,44
505,474	25,05
505,72	25,6
505,966	23,03
506,211	26,07
506,457	24,85
506,703	20,38
506,949	18,24
507,195	16,22
507,441	12,4
507,686	14,19
507,932	11,56
508,178	13,84
508,424	10,62
508,669	6,93
508,915	7,19
509,161	10,48
509,406	10,21
509,652	9,97
509,898	12,59
510,143	15,21
510,389	14,25
510,634	8,39
510,88	12,48
511,125	15,45
511,371	15,64
511,616	16,01
511,862	11,51
512,107	9,77
512,353	11,06
512,598	11,25
512,844	9,55
513,089	5,65
513,335	6,92
513,58	5,21
513,825	4,99
514,071	3,92
514,316	5,49
514,561	6,1
514,806	4,38
515,052	8
515,297	6,78
515,542	9,86
515,787	9,09
516,033	11,93
516,278	12,2
516,523	11,08
516,768	8,78
517,013	7,32
517,258	4,65
517,503	3,24
517,748	3,5
517,993	2,47
518,238	3,42
518,483	0,81
518,728	-0,25
518,973	-2,95
519,218	-3,09
519,463	-1,56
519,708	-1,63
519,953	-3,83
520,198	-2,94
520,443	-1,59
520,688	1,06
520,933	0,54
521,177	1,69
521,422	-0,15
521,667	3,67
521,912	2,73
522,157	-0,41
522,401	2,76
522,646	1,69
522,891	2,57
523,135	1,62
523,38	0,86
523,625	-1,52
523,869	-0,03
524,114	1,98
524,358	1,38
524,603	0,56
524,848	0,51
525,092	0
525,337	0,9
525,581	3
525,826	6,2
526,07	7,32
526,315	8,47
526,559	8,59
526,803	7,52
527,048	11,32
527,292	12,12
527,537	11,82
527,781	10,15
528,025	8,3
528,269	9,97
528,514	10,96
528,758	10,8
529,002	11,76
529,247	14,27
529,491	15,37
529,735	20,51
529,979	21,24
530,223	24,25
530,467	22,24
530,712	22,08
530,956	22,06
531,2	25,22
531,444	24,48
531,688	27,43
531,932	28,11
532,176	29,76
532,42	31,11
532,664	34,18
532,908	34,59
533,152	33,47
533,396	34,39
533,64	36,32
533,884	37,07
534,128	40,46
534,371	46,2
534,615	50,33
534,859	53,55
535,103	58,91
535,347	65,12
535,59	72,37
535,834	75,83
536,078	83,38
536,322	93,56
536,565	105,28
536,809	115,44
537,053	130,39
537,296	146,07
537,54	165,92
537,784	188,41
538,027	218,05
538,271	245,8
538,514	275,01
538,758	305,57
539,001	333,8
539,245	363,91
539,488	392,27
539,732	422,98
539,975	448,79
540,219	476,56
540,462	501,46
540,706	529,06
540,949	551,1
541,192	574,4
541,436	602,5
541,679	635,06
541,922	668,57
542,166	702,07
542,409	744,92
542,652	791,42
542,895	839,01
543,139	879,96
543,382	917,27
543,625	947,23
543,868	971,81
544,111	991,73
544,354	1003,83
544,598	1011,85
544,841	1016,35
545,084	1013,49
545,327	1003,69
545,57	992,24
545,813	978,87
546,056	961,95
546,299	942,57
546,542	924,18
546,785	905,2
547,028	888,12
547,271	868,36
547,514	849,77
547,756	827,71
547,999	809,97
548,242	791,29
548,485	770,1
548,728	750,1
548,971	724,69
549,213	698,5
549,456	665,06
549,699	626,67
549,942	583,94
550,184	535,75
550,427	486,46
550,67	442,71
550,912	399,94
551,155	365,74
551,398	334,16
551,64	303,56
551,883	279,26
552,125	256,44
552,368	235,51
552,61	214,99
552,853	202,26
553,095	185,5
553,338	172,39
553,58	160,37
553,823	147,29
554,065	140,3
554,308	126,46
554,55	114,03
554,792	103,18
555,035	95,47
555,277	87,15
555,519	79,91
555,762	70,53
556,004	66,05
556,246	57,93
556,488	53,76
556,731	45,77
556,973	43,47
557,215	39,26
557,457	37,97
557,699	36,38
557,941	30,53
558,183	27,7
558,426	27,44
558,668	22,56
558,91	22,19
559,152	20,91
559,394	17,33
559,636	18,13
559,878	17,39
560,12	16,07
560,362	15,93
560,604	14,79
560,845	12,65
561,087	11,43
561,329	12,86
561,571	8,32
561,813	8,61
562,055	7,62
562,297	7,19
562,538	6,36
562,78	8,4
563,022	7,22
563,264	8,07
563,505	8,07
563,747	9,75
563,989	8,86
564,23	8,13
564,472	5,19
564,714	8,26
564,955	6,75
565,197	2,76
565,438	5,25
565,68	8,09
565,921	5,92
566,163	7,12
566,404	4,52
566,646	6,18
566,887	8,99
567,129	8,67
567,37	7,04
567,612	8,57
567,853	4,98
568,094	7,36
568,336	6,52
568,577	6,43
568,818	6,77
569,06	5,53
569,301	3,25
569,542	3,17
569,783	4,76
570,025	3,94
570,266	4,27
570,507	5,04
570,748	5,31
570,989	6,05
571,23	6,97
571,472	5,53
571,713	4,88
571,954	6,16
572,195	4,78
572,436	7,52
572,677	12,3
572,918	15,89
573,159	15,36
573,4	17,91
573,641	20,17
573,882	24,93
574,123	26,2
574,364	23,21
574,604	26,77
574,845	28,66
575,086	32,19
575,327	36,93
575,568	38,45
575,809	42,36
576,049	45,37
576,29	46,64
576,531	55,99
576,771	63,41
577,012	70,61
577,253	73,47
577,494	77,52
577,734	80,45
577,975	82,67
578,215	84,49
578,456	84,79
578,697	87,86
578,937	93,43
579,178	96,69
579,418	98,68
579,659	101,27
579,899	100,05
580,14	101,35
580,38	101,07
580,62	103,07
580,861	107,78
581,101	107,56
581,342	108,43
581,582	103,68
581,822	107,37
582,063	107,41
582,303	107,8
582,543	107,42
582,783	108,96
583,024	111,48
583,264	116,29
583,504	115,83
583,744	119,63
583,984	119,48
584,224	121,31
584,465	120,55
584,705	122,05
584,945	124,19
585,185	124,89
585,425	127,57
585,665	128,49
585,905	129,46
586,145	129,92
586,385	127,79
586,625	130,42
586,865	128,06
587,105	127,11
587,345	126,44
587,585	125,94
587,824	124,37
588,064	122,86
588,304	118,77
588,544	119,16
588,784	114,96
589,024	119,92
589,263	121,15
589,503	119,9
589,743	125,28
589,982	126,66
590,222	128,1
590,462	126,78
590,701	124,61
590,941	126,46
591,181	123
591,42	118,47
591,66	118,23
591,899	120,07
592,139	117,73
592,378	116,37
592,618	112,89
592,857	110,55
593,097	109,38
593,336	109,23
593,576	108,16
593,815	108,85
594,055	106,19
594,294	107,61
594,533	107,18
594,773	106,4
595,012	107,78
595,251	108,8
595,491	112,6
595,73	115,57
595,969	116,5
596,208	120,05
596,447	124,18
596,687	123,85
596,926	123,36
597,165	117,51
597,404	117,31
597,643	113,57
597,882	109,62
598,121	107,47
598,36	106,12
598,599	107,06
598,838	105,95
599,077	100,61
599,316	99,16
599,555	97,57
599,794	97,04
600,033	99,03
600,272	99,46
600,511	96,52
600,75	96,07
600,989	96,73
601,228	95,55
601,466	94,78
601,705	95,47
601,944	96,03
602,183	98,57
602,422	96,54
602,66	95,12
602,899	92,14
603,138	90,12
603,376	89,17
603,615	88,06
603,854	84,78
604,092	84,85
604,331	87,03
604,569	88,79
604,808	88,96
605,047	93,95
605,285	98,04
605,524	100,66
605,762	104,24
606	112,17
606,239	122,7
606,477	134,42
606,716	147,4
606,954	171,24
607,193	200,35
607,431	240,64
607,669	292,85
607,908	356,35
608,146	425,94
608,384	493,81
608,622	560,51
608,861	621,58
609,099	678,29
609,337	730,02
609,575	776,1
609,813	820,31
610,052	859,26
610,29	889,43
610,528	918,81
610,766	945,15
611,004	969,61
611,242	991,82
611,48	1013,44
611,718	1030,24
611,956	1047,83
612,194	1062,25
612,432	1072,08
612,67	1080,82
612,908	1091,03
613,146	1093,77
613,384	1094,95
613,621	1091,95
613,859	1088,77
614,097	1077,22
614,335	1058,71
614,573	1032,99
614,811	995,78
615,048	946,14
615,286	888,11
615,524	823,25
615,761	755,11
615,999	692,19
616,237	634,69
616,474	580,91
616,712	532,36
616,95	486,86
617,187	445,85
617,425	410,61
617,662	380,97
617,9	351,98
618,137	324,68
618,375	300,81
618,612	278,04
618,85	259,41
619,087	245,56
619,325	228,67
619,562	213,86
619,799	200,71
620,037	191,32
620,274	181,06
620,511	177,75
620,749	169
620,986	165,36
621,223	159,82
621,461	159,06
621,698	159,99
621,935	158,9
622,172	157,26
622,409	158,74
622,647	159,21
622,884	158,13
623,121	161,58
623,358	160,42
623,595	161,23
623,832	163,36
624,069	163,18
624,306	166,1
624,543	169,03
624,78	171,63
625,017	174,41
625,254	177,98
625,491	181,92
625,728	185,31
625,965	187,08
626,202	187,66
626,438	186,37
626,675	187,81
626,912	193,03
627,149	197,46
627,386	201,15
627,622	204,71
627,859	208,6
628,096	215,14
628,333	219,5
628,569	223,69
628,806	229,09
629,043	227,92
629,279	229,31
629,516	230,74
629,752	225,95
629,989	224,84
630,225	221,74
630,462	219,1
630,699	217,33
630,935	212,42
631,171	204,9
631,408	199,99
631,644	193,63
631,881	185,79
632,117	179,01
632,354	173,78
632,59	167,18
632,826	162,41
633,063	155,77
633,299	152,35
633,535	145,35
633,771	139,2
634,008	134,78
634,244	127,6
634,48	118,71
634,716	111,57
634,953	102,61
635,189	93,48
635,425	85,4
635,661	78,51
635,897	68,65
636,133	60,12
636,369	53,93
636,605	44,47
636,841	38,63
637,077	37,39
637,313	32,89
637,549	30,38
637,785	26,51
638,021	26,32
638,257	24,91
638,493	27,41
638,729	25,72
638,965	28,57
639,2	29,42
639,436	27,43
639,672	26,37
639,908	24,22
640,144	27,08
640,379	31,02
640,615	28
640,851	31,02
641,086	32,32
641,322	32,02
641,558	31,8
641,793	34,17
642,029	32,09
642,264	30,88
642,5	30,89
642,736	27,05
642,971	27,95
643,207	28,06
643,442	25,59
643,678	26,32
643,913	29,38
644,148	29,75
644,384	32,4
644,619	33,77
644,855	36,01
645,09	38,66
645,325	37,93
645,561	38,61
645,796	37,17
646,031	41,31
646,266	38,43
646,502	39,34
646,737	43,65
646,972	45,07
647,207	48,06
647,442	48,79
647,678	47,01
647,913	52,29
648,148	54,83
648,383	55,16
648,618	57,19
648,853	59,42
649,088	61,88
649,323	65,86
649,558	69,75
649,793	71,93
650,028	74,59
650,263	71,07
650,498	74,58
650,733	76,34
650,968	75,91
651,202	79
651,437	76,77
651,672	73,24
651,907	72,3
652,142	72,73
652,376	71,61
652,611	73,54
652,846	75,5
653,081	75,35
653,315	74,42
653,55	75,17
653,785	72,55
654,019	72,66
654,254	70,62
654,488	69,68
654,723	63,52
654,958	60,64
655,192	58,07
655,427	52,19
655,661	53,35
655,896	53,45
656,13	53,71
656,364	48
656,599	45,3
656,833	45,7
657,068	45,63
657,302	44,97
657,536	43,17
657,771	43,16
658,005	42,41
658,239	43,19
658,474	39,21
658,708	41,43
658,942	41,71
659,176	41,35
659,41	39,57
659,645	40,05
659,879	39,5
660,113	36,42
660,347	36,2
660,581	34,03
660,815	34,55
661,049	34,8
661,283	31,64
661,517	30,19
661,751	29,67
661,985	28,78
662,219	29,24
662,453	27,97
662,687	29,39
662,921	24,1
663,155	23,73
663,389	16,6
663,622	16,93
663,856	18,92
664,09	15,73
664,324	14,92
664,558	14,72
664,791	14,92
665,025	14,26
665,259	15,06
665,492	14,34
665,726	16,6
665,96	16,15
666,193	14,23
666,427	13,72
666,661	11,34
666,894	7,88
667,128	5,34
667,361	7,62
667,595	6,53
667,828	5,63
668,062	4,77
668,295	4,35
668,529	5,31
668,762	5,63
668,995	4,3
669,229	8,24
669,462	8,61
669,695	8,69
669,929	8
670,162	9,97
670,395	8,46
670,629	11
670,862	11,45
671,095	7,3
671,328	7,57
671,561	3,83
671,795	2,49
672,028	3,26
672,261	2,57
672,494	3,17
672,727	-0,04
672,96	1,45
673,193	-0,23
673,426	3,56
673,659	4,25
673,892	6,12
674,125	6,37
674,358	6,41
674,591	4,29
674,824	3,7
675,057	2,88
675,29	0,29
675,523	2,15
675,755	1,09
675,988	2,33
676,221	4,99
676,454	4,14
676,687	5,99
676,919	4,82
677,152	4,62
677,385	4,62
677,617	4,95
677,85	5,31
678,083	4,8
678,315	7,18
678,548	5,88
678,78	5,37
679,013	6,8
679,246	7,92
679,478	9,19
679,711	6,1
679,943	9,56
680,175	5,88
680,408	9,97
680,64	5,91
680,873	6,31
681,105	6,05
681,338	9,44
681,57	9,52
681,802	10,53
682,034	10,78
682,267	15,92
682,499	19,65
682,731	17,2
682,964	15,84
683,196	13,84
683,428	11,88
683,66	9,72
683,892	13
684,124	16,77
684,356	19,96
684,589	21,22
684,821	20,97
685,053	21,73
685,285	23,45
685,517	26,45
685,749	27,68
685,981	30,59
686,213	31,03
686,445	31,72
686,676	28,93
686,908	31,24
687,14	30,09
687,372	32,03
687,604	27,64
687,836	30,11
688,068	30,08
688,299	29,33
688,531	27,49
688,763	31,5
688,995	30,2
689,226	34,7
689,458	30,73
689,69	27,87
689,921	27,48
690,153	28,96
690,384	32,23
690,616	31,47
690,848	33,71
691,079	28,81
691,311	24,94
691,542	22,41
691,774	19,34
692,005	20,8
692,237	23,89
692,468	21,42
692,699	20,02
692,931	19,23
693,162	16,21
693,393	15,87
693,625	12,69
693,856	12,66
694,087	12,59
694,319	12,69
694,55	11,76
694,781	11,19
695,012	10,07
695,243	9,01
695,475	8,6
695,706	8,35
695,937	7,03
696,168	6,06
696,399	2,99
696,63	2,09
696,861	2
697,092	6,4
697,323	9,21
697,554	8
697,785	7,83
698,016	8,12
698,247	7,92
698,478	8,4
698,709	8,93
698,94	11,3
699,171	11,6
699,401	5,67
699,632	7,35
699,863	4,24
700,094	4,37
700,325	8,78
700,555	10,12
700,786	12,73
701,017	14,35
701,247	13,42
701,478	13,41
701,709	14,1
701,939	14,33
702,17	16,91
702,401	19,95
702,631	22,72
702,862	23,13
703,092	20,57
703,323	26,95
703,553	31,24
703,784	36,04
704,014	39,37
704,244	39,02
704,475	39,84
704,705	43,5
704,936	47,59
705,166	49,85
705,396	53,29
705,627	58,01
705,857	61,83
706,087	66,25
706,317	66,36
706,548	70,25
706,778	73,22
707,008	75,75
707,238	78,8
707,468	76,87
707,698	76,21
707,928	76,93
708,158	77,71
708,389	78,97
708,619	80,63
708,849	81,54
709,079	85,61
709,309	86,13
709,539	85,08
709,768	86,65
709,998	90,3
710,228	91,81
710,458	89,44
710,688	84,45
710,918	82,09
711,148	79,32
711,378	76,12
711,607	71,65
711,837	69,01
712,067	67,36
712,297	63,43
712,526	60,78
712,756	58,71
712,986	52,12
713,215	45,41
713,445	44,07
713,674	41,07
713,904	38,17
714,134	38,25
714,363	34,32
714,593	32,02
714,822	29,77
715,052	28,09
715,281	26,82
715,511	22,72
715,74	19,96
715,969	14,53
716,199	11,54
716,428	9,3
716,657	7,61
716,887	6,84
717,116	1,76
717,345	1,35
717,575	-0,65
717,804	-0,12
718,033	-1,8
718,262	-2,39
718,492	-2,2
718,721	-1,93
718,95	-2,86
719,179	-5,74
719,408	-5,31
719,637	-8,28
719,866	-11,06
720,095	-8,1
720,324	-8,02
720,553	-12,28
720,782	-12,93
721,011	-14,6
721,24	-16,75
721,469	-16,62
721,698	-15,94
721,927	-16,3
722,156	-17,24
722,385	-18,55
722,613	-14,42
722,842	-13,83
723,071	-7,97
723,3	-7,38
723,529	-9,15
723,757	-9,92
723,986	-13,26
724,215	-14,55
724,443	-13,28
724,672	-11,47
724,901	-11,23
725,129	-10,62
725,358	-7,78
725,586	-9,51
725,815	-9,68
726,043	-10,28
726,272	-11,74
726,5	-12
726,729	-11,57
726,957	-14,85
727,186	-18,17
727,414	-17,58
727,642	-15,98
727,871	-14,77
728,099	-14,21
728,327	-14,67
728,556	-12,16
728,784	-12,02
729,012	-13,14
729,241	-10,97
729,469	-10,5
729,697	-13,04
729,925	-12,17
730,153	-14,14
730,381	-13,27
730,61	-13,25
730,838	-14,61
731,066	-12,87
731,294	-12,78
731,522	-16,65
731,75	-19,76
731,978	-21,09
732,206	-20,66
732,434	-23,12
732,662	-21,23
732,89	-21,96
733,118	-23,65
733,346	-22,59
733,573	-22,06
733,801	-21,74
734,029	-14,64
734,257	-13,05
734,485	-8,62
734,712	-6,15
734,94	-8
735,168	-4,47
735,396	-4,06
735,623	-6,22
735,851	-5,12
736,078	-2,73
736,306	-1,78
736,534	-1,68
736,761	-0,79
736,989	-3,7
737,216	-4,47
737,444	-7,26
737,671	-6,17
737,899	-1,13
738,126	-2,85
738,354	-1,57
738,581	-0,38
738,809	1,07
739,036	-0,58
739,263	-0,87
739,491	-2,79
739,718	-3,81
739,945	1,45
740,173	4,85
740,4	4,19
740,627	1,23
740,854	1,6
741,081	0,59
741,309	-0,94
741,536	-5,69
741,763	-6,73
741,99	-4,93
742,217	-5,46
742,444	-5,33
742,671	-3,44
742,898	-3,16
743,125	-5,87
743,352	-8,55
743,579	-8,99
743,806	-9,62
744,033	-5,95
744,26	-4,77
744,487	-6,67
744,714	-6,38
744,941	-6,65
745,167	-3,16
745,394	-4,75
745,621	-4,67
745,848	-4,59
746,075	-2,81
746,301	0,84
746,528	5,92
746,755	4,08
746,981	1,7
747,208	2,53
747,435	5,99
747,661	8,14
747,888	9,71
748,114	6,31
748,341	9,18
748,567	11,2
748,794	9,18
749,02	7,51
749,247	4,48
749,473	4,3
749,7	3,45
749,926	2,3
750,152	5,58
750,379	5,2
750,605	5,93
750,831	6,67
751,058	5,1
751,284	2,76
751,51	6,66
751,737	8,42
751,963	5,9
752,189	4,41
752,415	4,6
752,641	3,47
752,867	2,24
753,094	2,01
753,32	-0,28
753,546	-1,98
753,772	0,51
753,998	-0,3
754,224	-0,08
754,45	-1,6
754,676	-2,61
754,902	-5,09
755,128	-4,27
755,354	-5,39
755,579	-4,11
755,805	-2,23
756,031	-2,73
756,257	-3,47
756,483	-4,91
756,709	-6,77
756,934	-7,35
757,16	-8,14
757,386	-7,32
757,612	-9,43
757,837	-11,9
758,063	-9,12
758,289	-5,43
758,514	-7,08
758,74	-10,87
758,965	-14,04
759,191	-13,47
759,416	-11,72
759,642	-9,49
759,868	-9,48
760,093	-7,5
760,318	-8,81
760,544	-8,4
760,769	-10,13
760,995	-10,7
761,22	-10,99
761,445	-8,35
761,671	-5,52
761,896	-1,08
762,121	-2
762,347	-2,88
762,572	-5,82
762,797	-6,23
763,022	-6,06
763,248	-1,21
763,473	0,81
763,698	-0,18
763,923	1,34
764,148	-0,4
764,373	-1,49
764,598	0,38
764,823	3,51
765,048	0,23
765,273	-3,94
765,498	-3,1
765,723	-3,07
765,948	-0,47
766,173	-0,54
766,398	-0,6
766,623	-3,51
766,848	-3,22
767,073	-5,47
767,298	-6,02
767,522	-7,53
767,747	-6,25
767,972	-5,52
768,197	-6,93
768,421	-10,21
768,646	-13,86
768,871	-17,17
769,095	-17,38
769,32	-15,89
769,545	-16,22
769,769	-15,06
769,994	-12,29
770,218	-16,01
770,443	-15,62
770,667	-14,29
770,892	-15,32
771,116	-15,35
771,341	-13,28
771,565	-13,75
771,79	-13,98
772,014	-14,55
772,238	-15,04
772,463	-12,94
772,687	-10,97
772,911	-11,46
773,136	-13,51
773,36	-12,68
773,584	-10,9
773,808	-12,87
774,033	-12,44
774,257	-11,91
774,481	-12,84
774,705	-13,94
774,929	-15,26
775,153	-15,23
775,377	-14,63
775,602	-13,18
775,826	-11,67
776,05	-7,52
776,274	-8,82
776,498	-9,4
776,722	-10,72
776,945	-10,76
777,169	-10,53
777,393	-11,71
777,617	-11,41
777,841	-9,88
778,065	-8,58
778,289	-10,81
778,512	-11,92
778,736	-11,14
778,96	-11,17
779,184	-8,28
779,407	-9,57
779,631	-10,78
779,855	-11,64
780,078	-10,34
780,302	-12,33
780,526	-14,31
780,749	-13,65
780,973	-10,73
781,196	-10,31
781,42	-12,51
781,643	-11,63
781,867	-9,93
782,09	-12,52
782,314	-12,4
782,537	-13,65
782,76	-14,64
782,984	-15,12
783,207	-15,66
783,431	-15,01
783,654	-16,62
783,877	-19,29
784,1	-20,37
784,324	-21,06
784,547	-22,17
784,77	-27,08
784,993	-29,02
785,216	-29,14
785,44	-28,63
785,663	-30,18
785,886	-28,46
786,109	-29,05
786,332	-30,21
786,555	-29,91
786,778	-27,68
787,001	-27,97
787,224	-25,92
787,447	-23,96
787,67	-21,81
787,893	-22,83
788,116	-21,45
788,339	-19,5
788,561	-20,21
788,784	-23,3
789,007	-23,99
789,23	-24,73
789,453	-24,82
789,675	-26,83
789,898	-29,5
790,121	-30,49
790,344	-31,38
790,566	-29,75
790,789	-28,7
791,012	-27,58
791,234	-23,9
791,457	-20,51
791,679	-17,69
791,902	-16,1
792,124	-15
792,347	-16,24
792,569	-17,02
792,792	-18,69
793,014	-16,75
793,237	-15,03
793,459	-14,86
793,681	-15,42
793,904	-15,84
794,126	-17,94
794,348	-18,22
794,571	-18,55
794,793	-21,14
795,015	-22,17
795,237	-21,84
795,46	-20,62
795,682	-20,71
795,904	-17,57
796,126	-19,5
796,348	-19,26
796,57	-14,65
796,792	-13,7
797,014	-10,02
797,237	-5,94
797,459	-5,26
797,681	-4,56
797,903	-5,68
798,124	-7,52
798,346	3,86
798,568	5,63
798,79	10,62
799,012	12,42
799,234	13,41
799,456	14,59
799,678	15,66
799,899	12,38
800,121	9,67
800,343	10,45
800,565	9,82
800,786	10,27
801,008	12,72
801,23	12,6
801,451	13,73
801,673	11,57
801,895	11,3
802,116	13,28
802,338	14,36
802,559	14,35
802,781	12
803,002	15,65
803,224	17,8
803,445	13,76
803,667	15,53
803,888	13,8
804,109	11,78
804,331	12
804,552	12,02
804,773	13,56
804,995	12,49
805,216	-2,19
805,437	-3,45
805,658	-7,53
805,88	-10
806,101	-9,39
806,322	-8,92
806,543	-9,76
806,764	-11,56
806,985	-9,22
807,207	-8,75
807,428	-7,34
807,649	-10,5
807,87	-12,52
808,091	-12,51
808,312	-12,43
808,533	-6,15
808,754	-4,49
808,975	-7,89
809,195	-6,73
809,416	-5,25
809,637	-5,54
809,858	-8,7
810,079	-11,19
810,3	-8,5
810,52	-10,42
810,741	-12,25
810,962	-13,21
811,183	-13,03
811,403	-13,35
811,624	-13,49
811,845	-11,96
812,065	-8,91
812,286	-9,46
812,506	-9,77
812,727	-9,82
812,948	-7,92
813,168	-7,26
813,389	-6,72
813,609	-3,89
813,83	-5,2
814,05	-8,3
814,27	-9,41
814,491	-4,51
814,711	-5,78
814,931	-7,74
815,152	-7,57
815,372	-8,7
815,592	-9,13
815,813	-8,88
816,033	-11,31
816,253	-10,52
816,473	-10,63
816,694	-8,07
816,914	-5,44
817,134	-5,81
817,354	-6,81
817,574	-6,5
817,794	-6,95
818,014	-8,31
818,234	-7,43
818,454	-8,74
818,674	-11,07
818,894	-15,06
819,114	-11,48
819,334	-12,01
819,554	-9,86
819,774	-7,54
819,994	-9,38
820,214	-11,68
820,433	-11,42
820,653	-12,09
820,873	-8,89
821,093	-7,1
821,312	-9,7
821,532	-5,73
821,752	-3,28
821,972	-6
822,191	-5,51
822,411	-7,61
822,63	-6,06
822,85	-4,88
823,07	-7,61
823,289	-6,91
823,509	-9,1
823,728	-7,93
823,948	-9,76
824,167	-11,11
824,387	-11,58
824,606	-9,1
824,825	-10,18
825,045	-11,85
825,264	-12,26
825,483	-10,24
825,703	-7,28
825,922	-11,44
826,141	-11,74
826,361	-13,57
826,58	-19,49
826,799	-20,5
827,018	-18,52
827,237	-18,96
827,456	-15,11
827,676	-14,98
827,895	-15,3
828,114	-13,89
828,333	-14,52
828,552	-15,01
828,771	-12,72
828,99	-14,91
829,209	-13,82
829,428	-12,45
829,647	-12,7
829,866	-11,62
830,084	-11,99
830,303	-11,24
830,522	-12,36
830,741	-12,44
830,96	-10,95
831,179	-8,92
831,397	-9,99
831,616	-8,72
831,835	-9
832,053	-7,31
832,272	-8,65
832,491	-8,73
832,709	-8,03
832,928	-8,33
833,147	-6,84
833,365	-4,71
833,584	-1,63
833,802	0,13
834,021	1
834,239	0,29
834,458	-0,36
834,676	-4,41
834,894	-5,45
835,113	-8,53
835,331	-8,15
835,55	-9,22
835,768	-8,74
835,986	-6,91
836,204	-9,16
836,423	-8,98
836,641	-10,65
836,859	-12,58
837,077	-12,39
837,296	-12,91
837,514	-13,49
837,732	-13,88
837,95	-15,11
838,168	-12,99
838,386	-14,55
838,604	-11,91
838,822	-11,85
839,04	-11,56
839,258	-11,2
839,476	-10,17
839,694	-9,79
839,912	-10,6
840,13	-10,65
840,348	-7,62
840,566	-10,93
840,783	-8,58
841,001	-10,74
841,219	-10,18
841,437	-7,8
841,655	-6,66
841,872	-5,47
842,09	-6,51
842,308	-5,92
842,525	-6,84
842,743	-7,46
842,961	-8,32
843,178	-10,36
843,396	-5,22
843,613	-3,04
843,831	-1,39
844,048	-1,81
844,266	-1,94
844,483	-2,45
844,701	-4,84
844,918	-5,92
845,136	-6,86
845,353	-7,8
845,57	-6,69
845,788	-4,08
846,005	-6,73
846,222	-9,52
846,439	-6,9
846,657	-7,61
846,874	-7,63
847,091	-10,77
847,308	-8,71
847,526	-11,07
847,743	-10,6
847,96	-13,19
848,177	-13,15
848,394	-14,5
848,611	-14,3
848,828	-14,85
849,045	-16,47
849,262	-15,76
849,479	-15,8
849,696	-15,62
849,913	-17,36
850,13	-22,5
850,347	-19,22
850,564	-19,67
850,78	-21,58
850,997	-22,93
851,214	-22,35
851,431	-19,74
851,647	-22,58
851,864	-20,8
852,081	-19,55
852,298	-23,27
852,514	-25,66
852,731	-23,63
852,948	-19,08
853,164	-19,5
853,381	-18,74
853,597	-20,26
853,814	-23,72
854,03	-26,47
854,247	-25,62
854,463	-26,18
854,68	-25,42
854,896	-24,81
855,113	-24,99
855,329	-25,89
855,545	-24,12
855,762	-23,5
855,978	-26,22
856,194	-28,12
856,411	-24,75
856,627	-21,92
856,843	-20,23
857,059	-18,66
857,275	-20,52
857,492	-18,66
857,708	-13,79
857,924	-13,4
858,14	-11,37
858,356	-12,14
858,572	-11,63
858,788	-13,82
859,004	-11,41
859,22	-12,46
859,436	-12,56
859,652	-15,33
859,868	-16,92
860,084	-17,97
860,3	-16,2
860,516	-15,3
860,731	-14,03
860,947	-15,94
861,163	-13,96
861,379	-13,49
861,595	-12,82
861,81	-11,91
862,026	-10,37
862,242	-9,31
862,457	-9,73
862,673	-7,6
862,889	-7,74
863,104	-8,18
863,32	-7,94
863,535	-8,07
863,751	-13,34
863,966	-10,67
864,182	-9,62
864,397	-12,48
864,613	-13,49
864,828	-15,79
865,044	-13,8
865,259	-13,03
865,474	-13,73
865,69	-12,85
865,905	-12,03
866,12	-14,73
866,336	-15,17
866,551	-13,14
866,766	-14,26
866,981	-16,39
867,196	-17,38
867,412	-17,31
867,627	-17,19
867,842	-18,51
868,057	-18,52
868,272	-19,6
868,487	-20,35
868,702	-21,92
868,917	-24,21
869,132	-22,39
869,347	-21,21
869,562	-22,06
869,777	-23,15
869,992	-24,71
870,207	-24,92
870,422	-25,31
870,636	-26,98
870,851	-28,63
871,066	-30,02
871,281	-30,13
871,495	-29,93
871,71	-27,5
871,925	-30,35
872,14	-31,4
872,354	-33,42
872,569	-34,45
872,783	-30,45
872,998	-29,46
873,213	-30,48
873,427	-26,34
873,642	-24,19
873,856	-22,61
874,071	-23,35
874,285	-24,38
874,5	-26,09
874,714	-28,1
874,928	-29,03
875,143	-28,76
875,357	-28,71
875,571	-29,02
875,786	-29,26
876	-26,75
876,214	-24,64
876,429	-26,68
876,643	-24,65
876,857	-23,18
877,071	-20,81
877,285	-20,96
877,499	-23,47
877,714	-20,64
877,928	-19,12
878,142	-21,8
878,356	-24,22
878,57	-22,35
878,784	-19,85
878,998	-20,72
879,212	-16,99
879,426	-19,67
879,639	-17,78
879,853	-20,21
880,067	-21,07
880,281	-23,17
880,495	-21,19
880,709	-18,53
880,922	-17,9
881,136	-15,73
881,35	-12,86
881,564	-13,87
881,777	-16,57
881,991	-16,01
882,205	-13,58
882,418	-12,51
882,632	-15,16
882,845	-15,03
883,059	-13,63
883,273	-13,88
883,486	-15,26
883,7	-13,3
883,913	-14,29
884,126	-12,36
884,34	-15,42
884,553	-16,29
884,767	-11,96
884,98	-10,48
885,193	-11,8
885,407	-12,96
885,62	-11,89
885,833	-12,66
886,046	-10,84
886,26	-12,95
886,473	-11,64
886,686	-13,56
886,899	-10,81
887,112	-12,78
887,326	-16,02
887,539	-14,11
887,752	-13,73
887,965	-16,38
888,178	-12,93
888,391	-11,38
888,604	-10,67
888,817	-11,91
889,03	-10,9
889,243	-12,67
889,455	-15,1
889,668	-14,47
889,881	-12,15
890,094	-13,14
890,307	-15,58
890,52	-13,65
890,732	-13,4
890,945	-12,72
891,158	-13,43
891,37	-16,65
891,583	-18,19
891,796	-16,06
892,008	-16,56
892,221	-17,44
892,434	-22,23
892,646	-23,54
892,859	-24,04
893,071	-24,6
893,284	-23,05
893,496	-23,68
893,709	-23,38
893,921	-21,47
894,133	-22,84
894,346	-22,74
894,558	-22,07
894,771	-23,19
894,983	-21,19
895,195	-21,06
895,407	-20,32
895,62	-25,06
895,832	-23,81
896,044	-21
896,256	-21,63
896,468	-23,64
896,681	-20,92
896,893	-21,28
897,105	-21,99
897,317	-23,03
897,529	-21,52
897,741	-19,33
897,953	-15,13
898,165	-16,59
898,377	-20,19
898,589	-19,83
898,801	-19,83
899,013	-16,22
899,224	-13,98
899,436	-11,74
899,648	-11,36
899,86	-12,19
900,072	-9,85
900,283	-8,29
900,495	-7,01
900,707	-6,03
900,919	-9,77
901,13	-8,41
901,342	-9,98
901,554	-10,93
901,765	-9,13
901,977	-11,92
902,188	-11,49
902,4	-12,78
902,611	-15,08
902,823	-16,85
903,034	-19,85
903,246	-21,34
903,457	-22,43
903,669	-23,44
903,88	-22,31
904,091	-23,37
904,303	-23,59
904,514	-25,46
904,725	-22,78
904,936	-21,22
905,148	-20,42
905,359	-18,52
905,57	-19,14
905,781	-20,44
905,992	-21,86
906,204	-21,07
906,415	-21,18
906,626	-24,24
906,837	-23,02
907,048	-24,21
907,259	-24,8
907,47	-24,7
907,681	-25,91
907,892	-23,69
908,103	-24,39
908,314	-28,15
908,525	-25,94
908,735	-24,32
908,946	-23,85
909,157	-23,51
909,368	-21,01
909,579	-17,85
909,789	-20,94
910	-21,18
910,211	-19,2
910,421	-19,2
910,632	-17,44
910,843	-19,41
911,053	-15,86
911,264	-13,71
911,475	-13,06
911,685	-12,63
911,896	-11,06
912,106	-11,16
912,317	-14,29
912,527	-12,45
912,737	-13,26
912,948	-12,95
913,158	-12,71
913,369	-16,48
913,579	-14,26
913,789	-14,55
914	-9,88
914,21	-10,26
914,42	-10,9
914,63	-11,06
914,841	-9,5
915,051	-8,29
915,261	-7,52
915,471	-5
915,681	-4,18
915,891	-4,78
916,101	-7,12
916,311	-5,04
916,521	-3,38
916,731	-1,84
916,941	-0,21
917,151	-1,74
917,361	0,73
917,571	-3,99
917,781	-5,97
917,991	-8,12
918,201	-7,5
918,411	-11,59
918,621	-11,56
918,83	-9,38
919,04	-10,35
919,25	-7,48
919,46	-6,2
919,669	-8,41
919,879	-8,64
920,089	-11,21
920,298	-12,31
920,508	-14,58
920,717	-13,06
920,927	-13,65
921,136	-13,43
921,346	-15,13
921,555	-17,17
921,765	-17,04
921,974	-20,54
922,184	-24,51
922,393	-25,06
922,603	-26,39
922,812	-24,18
923,021	-24,75
923,23	-27,25
923,44	-29,65
923,649	-31,14
923,858	-31,95
924,067	-30,91
924,277	-33,12
924,486	-30,16
924,695	-31,68
924,904	-29,06
925,113	-28,33
925,322	-26,75
925,531	-26,83
925,74	-30,74
925,949	-31,9
926,158	-29,3
926,367	-28,37
926,576	-26,98
926,785	-26,97
926,994	-28,12
927,203	-26,83
927,412	-27,68
927,621	-27,63
927,83	-24,47
928,038	-25,17
928,247	-25,88
928,456	-24,64
928,665	-21,86
928,873	-20,38
929,082	-16,46
929,291	-17,68
929,499	-15,95
929,708	-16,93
929,916	-15,47
930,125	-14,64
930,333	-14,77
930,542	-13,23
930,75	-9,65
930,959	-10,86
931,167	-10,43
931,376	-12,05
931,584	-10,76
931,793	-9,88
932,001	-9,5
932,209	-10,26
932,418	-11,83
932,626	-12,82
932,834	-14,26
933,042	-17,44
933,251	-17,17
933,459	-16,39
933,667	-17,15
933,875	-16,42
934,083	-16,07
934,291	-16,53
934,499	-14,43
934,707	-15,8
934,915	-17,1
935,123	-16,32
935,331	-17,56
935,539	-21,21
935,747	-20,83
935,955	-22,48
936,163	-21,83
936,371	-21,84
936,579	-21,09
936,787	-22,59
936,995	-24,27
937,202	-27,44
937,41	-26,71
937,618	-27,34
937,826	-26,31
938,033	-30,15
938,241	-33,2
938,449	-31,62
938,656	-28,52
938,864	-28,58
939,071	-28,77
939,279	-24,45
939,486	-21,58
939,694	-22,08
939,901	-23,39
940,109	-25,16
940,316	-25,33
940,524	-26,25
940,731	-28,24
940,939	-27,39
941,146	-27,26
941,353	-27,78
941,561	-27,09
941,768	-27,14
941,975	-24,58
942,182	-25,06
942,39	-24,18
942,597	-21,5
942,804	-22,57
943,011	-22,2
943,218	-19,79
943,425	-19,32
943,632	-18,2
943,839	-18,63
944,046	-19,33
944,253	-19
944,46	-19,21
944,667	-15,37
944,874	-16,31
945,081	-15,46
945,288	-13,2
945,495	-10,96
945,702	-11,25
945,909	-13,58
946,115	-12,45
946,322	-12,67
946,529	-12,62
946,736	-11,98
946,942	-10,39
947,149	-10,3
947,356	-12,88
947,562	-13,73
947,769	-13,04
947,976	-14,73
948,182	-13,08
948,389	-13,95
948,595	-14,23
948,802	-14,05
949,008	-15,36
949,215	-14,72
949,421	-14,13
949,628	-16,74
949,834	-16,57
950,04	-17,35
950,247	-13,13
950,453	-11,59
950,659	-13,18
950,865	-10,13
951,072	-15,04
951,278	-13,95
951,484	-16,15
951,69	-19,8
951,896	-21,12
952,103	-23,44
952,309	-20,19
952,515	-20,38
952,721	-17,91
952,927	-15,98
953,133	-18,5
953,339	-19,45
953,545	-20,43
953,751	-20,11
953,957	-17,44
954,163	-18,22
954,369	-17,84
954,574	-20,66
954,78	-21,22
954,986	-19,88
955,192	-18,51
955,398	-21,4
955,603	-24,32
955,809	-22,07
956,015	-20,44
956,22	-20,49
956,426	-20,31
956,632	-26,03
956,837	-25,07
957,043	-25,91
957,248	-26,31
957,454	-25,87
957,66	-28,69
957,865	-29,24
958,07	-26,92
958,276	-28,55
958,481	-29,1
958,687	-31,31
958,892	-30,59
959,097	-30,44
959,303	-31,29
959,508	-29,97
959,713	-30,53
959,919	-29,11
960,124	-28,89
960,329	-28,06
960,534	-24,87
960,739	-24,73
960,945	-22,23
961,15	-22,57
961,355	-24,14
961,56	-27,9
961,765	-27,22
961,97	-25,43
962,175	-25,89
962,38	-28,94
962,585	-27,74
962,79	-28,66
962,995	-28,76
963,2	-31,39
963,404	-29,15
963,609	-32,26
963,814	-32,77
964,019	-33,85
964,224	-34,63
964,428	-32,85
964,633	-31,38
964,838	-31,27
965,042	-31,68
965,247	-33,72
965,452	-35,12
965,656	-33,35
965,861	-33,38
966,066	-33,8
966,27	-31,79
966,475	-28,75
966,679	-33,78
966,884	-33
967,088	-34,52
967,292	-34,74
967,497	-32,55
967,701	-32,58
967,906	-30,4
968,11	-27,61
968,314	-24,27
968,518	-26,09
968,723	-24,07
968,927	-24,28
969,131	-22,95
969,335	-18,89
969,539	-19,04
969,744	-18,51
969,948	-15,62
970,152	-14,13
970,356	-12,66
970,56	-12,61
970,764	-13,83
970,968	-12,57
971,172	-11,44
971,376	-10,84
971,58	-9,69
971,784	-9,64
971,988	-12,18
972,192	-9
972,395	-9,96
972,599	-13,22
972,803	-12,8
973,007	-10,13
973,21	-11,83
973,414	-11,17
973,618	-12,87
973,822	-13,7
974,025	-13,57
974,229	-13,78
974,432	-17,58
974,636	-20,42
974,84	-19,14
975,043	-18,36
975,247	-20,17
975,45	-22,05
975,654	-23,27
975,857	-20,97
976,06	-21,37
976,264	-22,06
976,467	-20,18
976,671	-21,04
976,874	-19,62
977,077	-21,71
977,28	-21,87
977,484	-24,37
977,687	-23,55
977,89	-21,66
978,093	-22,03
978,297	-19,89
978,5	-21,96
978,703	-20,03
978,906	-18,53
979,109	-21,13
979,312	-20,28
979,515	-22,04
979,718	-22
979,921	-20,81
980,124	-23,29
980,327	-23,85
980,53	-24,36
980,733	-22,35
980,936	-19,81
981,138	-21,74
981,341	-21,19
981,544	-21,54
981,747	-20,43
981,949	-20,96
982,152	-20,68
982,355	-21,98
982,558	-19,23
982,76	-22,43
982,963	-22,46
983,165	-22,16
983,368	-21,12
983,571	-22,96
983,773	-19,38
983,976	-19,47
984,178	-19,34
984,381	-19,23
984,583	-22,26
984,785	-22,04
984,988	-19,21
985,19	-17,76
985,392	-18,78
985,595	-21,38
985,797	-19,77
985,999	-16,74
986,202	-15,1
986,404	-15,21
986,606	-13,09
986,808	-13,46
987,01	-11,36
987,212	-12,24
987,415	-13,81
987,617	-13,26
987,819	-13,43
988,021	-12,06
988,223	-13,68
988,425	-15,73
988,627	-15,06
988,829	-20,27
989,031	-18,69
989,232	-19,24
989,434	-18,38
989,636	-18,65
989,838	-18,29
990,04	-17,16
990,242	-18,9
990,443	-20,06
990,645	-18,17
990,847	-15,18
991,048	-15,99
991,25	-17,78
991,452	-19,46
991,653	-19,75
991,855	-20,2
992,057	-20,67
992,258	-20,29
992,46	-21,11
992,661	-19,62
992,863	-20,53
993,064	-20,29
993,265	-22,38
993,467	-24,23
993,668	-20,08
993,87	-21
994,071	-20,11
994,272	-20,96
994,473	-18,56
994,675	-15,78
994,876	-14,72
995,077	-11,94
995,278	-11,04
995,48	-9,93
995,681	-11,75
995,882	-9,85
996,083	-10,46
996,284	-15,87
996,485	-14,86
996,686	-16,3
996,887	-17,86
997,088	-21,81
997,289	-23,71
997,49	-24,42
997,691	-24,7
997,892	-24,41
998,092	-18,48
998,293	-18,45
998,494	-20,71
998,695	-22,36
998,896	-20,95
999,096	-21,86
999,297	-21,23
999,498	-21,99
999,698	-25,14
999,899	-28,76
1000,1	-30,66
1000,3	-31,5
1000,501	-30,68
1000,701	-31,73
1000,902	-31,97
1001,102	-33
1001,303	-31,35
1001,503	-34,11
1001,704	-34,14
1001,904	-34,45
1002,105	-35,09
1002,305	-33,95
1002,505	-33,1
1002,706	-34
1002,906	-34,08
1003,106	-33,6
1003,306	-31,56
1003,507	-28,8
1003,707	-30,17
1003,907	-26,87
1004,107	-25,15
1004,307	-28,4
1004,507	-27,57
1004,707	-27
1004,907	-27,82
1005,107	-27,69
1005,308	-26,32
1005,507	-27,63
1005,707	-25,53
1005,907	-23,3
1006,107	-21,47
1006,307	-19,74
1006,507	-20,25
1006,707	-19,59
1006,907	-17,94
1007,106	-19,82
1007,306	-20,81
1007,506	-22,68
1007,706	-21,09
1007,905	-24,18
1008,105	-23,3
1008,305	-24,25
1008,504	-24,12
1008,704	-17,65
1008,903	-17,11
1009,103	-15,42
1009,303	-17,85
1009,502	-17,65
1009,702	-18,27
1009,901	-17,28
1010,1	-20,41
1010,3	-19,59
1010,499	-21,1
1010,699	-21,75
1010,898	-23,27
1011,097	-22,36
1011,296	-23,51
1011,496	-24,31
1011,695	-24,58
1011,894	-27,15
1012,093	-24,85
1012,293	-24,46
1012,492	-24,91
1012,691	-24,49
1012,89	-26,02
1013,089	-29,99
1013,288	-28,03
1013,487	-26,68
1013,686	-25,51
1013,885	-27,54
1014,084	-25,24
1014,283	-26,35
1014,482	-27,75
1014,681	-27,26
1014,88	-33,31
1015,078	-31,47
1015,277	-33,71
1015,476	-33,75
1015,675	-34,35
1015,873	-33,68
1016,072	-35,44
1016,271	-32,23
1016,47	-36,06
1016,668	-33,4
1016,867	-33,75
1017,065	-35,38
1017,264	-36,08
1017,463	-34,75
1017,661	-35,16
1017,86	-33,79
1018,058	-32,1
1018,256	-33,66
1018,455	-35,39
1018,653	-35,13
1018,852	-35,05
1019,05	-37,85
1019,248	-38,13
1019,447	-39,55
1019,645	-40,17
1019,843	-42,45
1020,041	-39,99
1020,24	-40,41
1020,438	-35,65
1020,636	-34,62
1020,834	-38,11
1021,032	-35,3
1021,23	-37,28
1021,428	-35,31
1021,626	-31,22
1021,824	-30,3
1022,022	-31,31
1022,22	-29,2
1022,418	-29,66
1022,616	-29,71
1022,814	-30,45
1023,012	-31,24
1023,21	-29,16
1023,408	-29,52
1023,606	-30,66
1023,803	-25,85
1024,001	-26,4
1024,199	-28,9
1024,397	-28,17
1024,594	-27,54
1024,792	-28,15
1024,99	-26,86
1025,187	-25,61
1025,385	-20,54
1025,582	-20,14
1025,78	-20,33
1025,977	-19,94
1026,175	-19,28
1026,372	-18,44
1026,57	-20,75
1026,767	-17,84
1026,965	-15,87
1027,162	-15,36
1027,359	-14,89
1027,557	-14,76
1027,754	-18,76
1027,951	-20,02
1028,148	-17,28
1028,346	-19,25
1028,543	-21,99
1028,74	-22,04
1028,937	-24,7
1029,134	-24,82
1029,331	-25,06
1029,528	-23,22
1029,725	-23,63
1029,923	-26,37
1030,12	-24,41
1030,317	-22,87
1030,513	-21,44
1030,71	-20,45
1030,907	-18,62
1031,104	-19,68
1031,301	-19,68
1031,498	-20,62
1031,695	-20,79
1031,892	-20,58
1032,088	-19,51
1032,285	-22,77
1032,482	-23,78
1032,678	-28,02
1032,875	-32,3
1033,072	-30,62
1033,268	-31,38
1033,465	-31,87
1033,662	-33,03
1033,858	-33,11
1034,055	-32,36
1034,251	-31,01
1034,448	-30,12
1034,644	-29,87
1034,84	-27,68
1035,037	-25,26
1035,233	-25,28
1035,43	-22,83
1035,626	-25,1
1035,822	-23,94
1036,019	-26,39
1036,215	-28,89
1036,411	-30,6
1036,607	-31,7
1036,803	-34,35
1037	-35,08
1037,196	-34,9
1037,392	-36,04
1037,588	-37,61
1037,784	-36,44
1037,98	-36,88
1038,176	-36,86
1038,372	-35,98
1038,568	-34,14
1038,764	-31,56
1038,96	-27,89
1039,156	-30,17
1039,352	-30,75
1039,547	-27,94
1039,743	-27,22
1039,939	-25,24
1040,135	-26,11
1040,331	-27,49
1040,526	-26,22
1040,722	-27,83
1040,918	-28,3
1041,113	-31,6
1041,309	-30,69
1041,505	-34,46
1041,7	-31,89
1041,896	-32,38
1042,091	-31,42
1042,287	-30,56
1042,482	-28,26
1042,678	-28,73
1042,873	-27,09
1043,069	-28,05
1043,264	-28,1
1043,459	-25,61
1043,655	-25,44
1043,85	-27,3
1044,045	-26,4
1044,24	-26,76
1044,436	-24,51
1044,631	-25,91
1044,826	-25,47
1045,021	-28,15
1045,216	-26,47
