Data from led6500K_USB4H112691__1__12-40-10-177.txt Node

Date: Tue Dec 17 12:40:10 CET 2024
User: Etudiants TP
Spectrometer: USB4H11269
Trigger mode: 4
Integration Time (sec): 1.000000E0
Scans to average: 1
Electric dark correction enabled: true
Nonlinearity correction enabled: false
Boxcar width: 0
XAxis mode: Wavelengths
Number of Pixels in Spectrum: 3648
>>>>>Begin Spectral Data<<<<<
286.377	-1640.76
286.631	-1640.76
286.884	-1640.76
287.138	-1675.58
287.391	-1640.76
287.644	-856.39
287.896	-641.36
288.149	700.06
288.401	575.14
288.653	-491.85
288.905	-479.57
289.157	865.95
289.409	321.19
289.661	-483.66
289.912	-772.43
290.163	478.88
290.414	784.03
290.665	-704.84
290.916	-561.48
291.166	628.39
291.417	1076.89
291.667	-653.64
291.917	-233.81
292.167	554.66
292.417	474.79
292.666	-749.9
292.916	-643.4
293.165	618.15
293.414	734.88
293.663	-885.06
293.912	-745.8
294.16	777.89
294.408	800.41
294.657	-663.88
294.905	-426.32
295.153	597.67
295.4	683.68
295.648	-803.15
295.895	-741.71
296.143	186.02
296.39	855.71
296.637	-655.69
296.884	-803.15
297.13	753.31
297.377	892.57
297.623	-604.49
297.869	-381.26
298.115	757.41
298.361	687.78
298.606	-721.23
298.852	-606.54
299.097	693.92
299.342	1070.75
299.587	-393.55
299.832	-631.12
300.077	808.61
300.322	659.1
300.566	-727.37
300.81	-469.33
301.054	698.02
301.298	835.23
301.542	-250.19
301.785	-350.54
302.029	949.92
302.272	730.78
302.515	-721.23
302.758	-536.91
303.001	765.6
303.244	704.16
303.486	-493.9
303.729	-971.08
303.971	939.68
304.213	851.61
304.455	-827.72
304.696	-391.5
304.938	317.09
305.179	908.96
305.421	-467.28
305.662	-495.95
305.903	458.4
306.143	419.49
306.384	-368.98
306.625	-518.48
306.865	495.27
307.105	282.28
307.345	-502.09
307.585	-506.19
307.825	120.49
308.064	738.98
308.304	-557.39
308.543	-797
308.782	618.15
309.021	870.05
309.26	-393.55
309.499	-549.2
309.737	972.44
309.976	720.54
310.214	-772.43
310.452	-649.55
310.69	1140.38
310.928	261.8
311.165	-659.79
311.403	-569.68
311.64	894.62
311.878	489.12
312.115	-616.78
312.351	-463.18
312.588	468.64
312.825	1011.36
313.061	-848.2
313.298	52.91
313.534	341.67
313.77	841.37
314.006	-618.83
314.241	-684.36
314.477	702.11
314.713	1314.45
314.948	-592.2
315.183	224.94
315.418	1035.93
315.653	568.99
315.888	-686.41
316.122	-414.03
316.357	335.53
316.591	872.09
316.825	-629.07
317.059	-551.24
317.293	1066.65
317.527	392.87
317.76	-627.02
317.994	-485.71
318.227	642.72
318.46	1259.16
318.693	-721.23
318.926	-495.95
319.159	159.4
319.391	532.13
319.624	-725.32
319.856	-524.62
320.088	798.37
320.321	790.17
320.552	-252.24
320.784	-618.83
321.016	863.9
321.247	-94.55
321.479	-403.79
321.71	-299.34
321.941	-108.88
322.172	1142.43
322.403	-674.12
322.633	-293.2
322.864	878.24
323.094	323.24
323.325	-26.96
323.555	-643.4
323.785	134.82
324.014	327.33
324.244	-434.51
324.474	-256.34
324.703	933.53
324.933	855.71
325.162	-469.33
325.391	-840.01
325.62	89.77
325.848	929.44
326.077	-534.86
326.306	-375.12
326.534	745.12
326.762	933.53
326.99	-641.36
327.218	-250.19
327.446	808.61
327.674	102.06
327.901	-717.13
328.129	-655.69
328.356	806.56
328.583	294.57
328.81	-667.98
329.037	-454.99
329.264	423.59
329.491	872.09
329.717	-467.28
329.944	-577.87
330.17	399.01
330.396	222.89
330.622	-633.16
330.848	-332.11
331.074	577.19
331.299	1420.95
331.525	-684.36
331.75	-581.96
331.975	1037.98
332.201	220.84
332.426	-872.78
332.65	-753.99
332.875	-143.7
333.1	442.02
333.324	-686.41
333.549	-700.75
333.773	335.53
333.997	562.85
334.221	-616.78
334.445	-524.62
334.668	540.32
334.892	1142.43
335.116	-366.93
335.339	-559.44
335.562	-12.63
335.785	532.13
336.008	-299.34
336.231	-618.83
336.454	-256.34
336.676	906.91
336.899	-534.86
337.121	-342.35
337.343	26.28
337.566	519.84
337.788	-586.06
338.009	-725.32
338.231	153.26
338.453	489.12
338.674	3268.22
338.896	-510.29
339.117	-0.34
339.338	1056.41
339.559	-655.69
339.78	-536.91
340.001	108.2
340.222	898.72
340.442	-633.16
340.663	-231.76
340.883	704.16
341.103	405.16
341.323	-569.68
341.543	-350.54
341.763	773.79
341.983	315.05
342.202	-737.61
342.422	-721.23
342.641	1126.04
342.861	437.92
343.08	-237.91
343.299	-784.71
343.518	716.45
343.736	614.05
343.955	-579.92
344.174	-655.69
344.392	734.88
344.61	110.25
344.829	-739.66
345.047	-559.44
345.265	716.45
345.483	904.86
345.7	-545.1
345.918	-90.45
346.136	83.63
346.353	921.24
346.57	-696.65
346.788	-739.66
347.005	401.06
347.222	42.67
347.438	-57.68
347.655	-557.39
347.872	290.47
348.088	1119.9
348.305	-399.7
348.521	-670.03
348.737	134.82
348.953	945.82
349.169	-141.65
349.385	-553.29
349.601	474.79
349.817	-127.32
350.032	-184.66
350.248	-311.63
350.463	1236.63
350.678	-223.57
350.893	-569.68
351.108	-696.65
351.323	226.98
351.538	847.52
351.753	-663.88
351.967	-647.5
352.182	843.42
352.396	212.65
352.61	-715.08
352.824	-491.85
353.038	597.67
353.252	765.6
353.466	-393.55
353.68	-528.72
353.894	364.2
354.107	181.93
354.32	-430.41
354.534	-596.3
354.747	724.64
354.96	-22.87
355.173	-397.65
355.386	-729.42
355.599	552.61
355.811	233.13
356.024	-739.66
356.236	-411.98
356.449	257.7
356.661	339.62
356.873	-692.55
357.085	-862.54
357.297	620.19
357.509	650.91
357.721	-667.98
357.933	-561.48
358.144	224.94
358.356	353.96
358.567	-379.22
358.778	-727.37
358.989	984.73
359.2	259.75
359.411	-485.71
359.622	-420.17
359.833	581.28
360.044	323.24
360.254	-659.79
360.465	-741.71
360.675	439.97
360.885	421.54
361.096	-844.1
361.306	-481.61
361.516	226.98
361.726	405.16
361.935	-883.02
362.145	-614.73
362.355	593.57
362.564	534.18
362.774	-837.96
362.983	-790.86
363.192	904.86
363.401	155.3
363.61	-667.98
363.819	-282.96
364.028	399.01
364.237	968.35
364.445	-547.15
364.654	-401.74
364.862	390.82
365.071	167.59
365.279	-504.14
365.487	-702.79
365.695	607.91
365.903	343.72
366.111	-700.75
366.319	-551.24
366.527	579.23
366.734	319.14
366.942	-444.75
367.149	-753.99
367.357	-485.71
367.564	951.96
367.771	-334.16
367.978	-692.55
368.185	85.67
368.392	423.59
368.599	-364.88
368.806	-590.16
369.013	-41.3
369.219	501.41
369.426	-807.24
369.632	-297.3
369.838	1146.52
370.044	702.11
370.251	-584.01
370.457	-512.33
370.663	839.33
370.868	503.46
371.074	-538.96
371.28	-645.45
371.485	-84.31
371.691	556.71
371.896	-622.92
372.102	-684.36
372.307	1080.99
372.512	798.37
372.717	-661.84
372.922	-254.29
373.127	-8.53
373.332	319.14
373.537	-471.37
373.741	-639.31
373.946	523.94
374.151	331.43
374.355	-803.15
374.559	-512.33
374.764	269.99
374.968	-368.98
375.172	-682.31
375.376	-186.71
375.58	609.95
375.784	147.11
375.987	-723.27
376.191	-557.39
376.395	202.41
376.598	286.37
376.802	-622.92
377.005	-274.77
377.208	372.39
377.412	145.06
377.615	-805.19
377.818	-639.31
378.021	175.78
378.224	-190.8
378.426	-581.96
378.629	-821.58
378.832	691.87
379.034	577.19
379.237	-897.35
379.439	-887.11
379.642	804.51
379.844	528.03
380.046	-876.87
380.248	-776.52
380.45	-78.16
380.652	-192.85
380.854	-536.91
381.056	-659.79
381.258	407.2
381.459	384.68
381.661	-786.76
381.862	-321.87
382.064	-143.7
382.265	50.86
382.467	-717.13
382.668	-543.05
382.869	788.13
383.07	448.16
383.271	-551.24
383.472	-602.44
383.673	700.06
383.874	356.01
384.074	-553.29
384.275	-774.47
384.476	546.47
384.676	1072.79
384.876	-807.24
385.077	-680.27
385.277	685.73
385.477	888.48
385.677	-799.05
385.878	-610.64
386.078	401.06
386.278	265.89
386.477	-299.34
386.677	-209.23
386.877	556.71
387.077	683.68
387.276	-397.65
387.476	-508.24
387.675	319.14
387.875	986.78
388.074	-698.7
388.273	-512.33
388.472	804.51
388.671	-194.9
388.87	-547.15
389.069	-176.47
389.268	-170.32
389.467	48.81
389.666	-762.19
389.865	-196.95
390.063	523.94
390.262	769.69
390.461	-684.36
390.659	-674.12
390.857	749.22
391.056	679.58
391.254	-680.27
391.452	-526.67
391.65	765.6
391.849	454.31
392.047	-389.46
392.245	-278.87
392.442	280.23
392.64	462.5
392.838	-248.15
393.036	-467.28
393.233	308.9
393.431	274.09
393.629	-874.82
393.826	-483.66
394.023	282.28
394.221	-133.46
394.418	-454.99
394.615	-307.54
394.812	-4.44
395.01	665.25
395.207	-579.92
395.404	-682.31
395.601	911
395.797	421.54
395.994	-753.99
396.191	-553.29
396.388	188.07
396.584	585.38
396.781	-381.26
396.977	28.33
397.174	587.43
397.37	18.09
397.567	-422.22
397.763	-676.17
397.959	374.44
398.155	315.05
398.352	-518.48
398.548	-291.15
398.744	603.81
398.94	421.54
399.136	-766.28
399.331	-254.29
399.527	347.81
399.723	476.84
399.919	-409.94
400.114	-532.81
400.31	315.05
400.505	568.99
400.701	-549.2
400.896	-567.63
401.092	200.36
401.287	306.85
401.482	-747.85
401.678	-336.21
401.873	634.53
402.068	612
402.263	-446.8
402.458	-549.2
402.653	145.06
402.848	413.35
403.043	-454.99
403.237	-635.21
403.432	112.3
403.627	-192.85
403.822	-848.2
404.016	-665.93
404.211	136.87
404.405	577.19
404.6	-190.8
404.794	-330.06
404.989	550.56
405.183	192.17
405.377	-422.22
405.571	-151.89
405.766	499.36
405.96	310.95
406.154	-551.24
406.348	-442.7
406.542	433.83
406.736	532.13
406.93	-708.94
407.124	-452.94
407.318	274.09
407.511	360.1
407.705	-450.89
407.899	-606.54
408.092	491.17
408.286	456.36
408.48	-741.71
408.673	-596.3
408.867	118.44
409.06	321.19
409.253	-371.02
409.447	-434.51
409.64	657.06
409.833	470.69
410.026	-332.11
410.22	-438.61
410.413	636.58
410.606	362.15
410.799	-756.04
410.992	-559.44
411.185	306.85
411.378	1003.16
411.571	-493.9
411.764	-399.7
411.956	562.85
412.149	392.87
412.342	-364.88
412.534	-463.18
412.727	628.39
412.92	333.48
413.112	-475.47
413.305	-270.67
413.497	808.61
413.69	624.29
413.882	-471.37
414.075	-307.54
414.267	437.92
414.459	241.32
414.652	-596.3
414.844	-526.67
415.036	364.2
415.228	708.26
415.42	-319.82
415.612	-534.86
415.804	888.48
415.997	448.16
416.188	-321.87
416.38	-184.66
416.572	106.15
416.764	683.68
416.956	-528.72
417.148	-524.62
417.34	224.94
417.531	-0.34
417.723	-516.43
417.915	-430.41
418.107	194.22
418.298	509.6
418.49	-397.65
418.681	-264.53
418.873	726.69
419.064	394.92
419.256	-487.76
419.447	-559.44
419.639	442.02
419.83	769.69
420.021	-389.46
420.213	-536.91
420.404	356.01
420.595	370.34
420.786	-328.02
420.978	-287.06
421.169	650.91
421.36	249.51
421.551	-459.09
421.742	-684.36
421.933	925.34
422.124	634.53
422.315	-446.8
422.506	-452.94
422.697	528.03
422.888	257.7
423.079	-184.66
423.27	-536.91
423.461	278.18
423.652	226.98
423.842	-584.01
424.033	-436.56
424.224	544.42
424.415	892.57
424.605	-297.3
424.796	-561.48
424.987	652.96
425.177	571.04
425.368	-719.18
425.558	-586.06
425.749	253.61
425.939	108.2
426.13	-174.42
426.32	-274.77
426.511	95.91
426.701	167.59
426.892	-418.13
427.082	-442.7
427.272	110.25
427.463	429.73
427.653	-375.12
427.843	-297.3
428.034	816.8
428.224	564.9
428.414	-618.83
428.604	-459.09
428.795	528.03
428.985	470.69
429.175	-203.09
429.365	-258.39
429.555	462.5
429.745	294.57
429.935	-420.17
430.126	-299.34
430.316	562.85
430.506	593.57
430.696	-364.88
430.886	-242
431.076	605.86
431.266	243.37
431.456	-205.14
431.645	-526.67
431.835	274.09
432.025	437.92
432.215	-512.33
432.405	-266.58
432.595	444.07
432.785	263.85
432.975	-495.95
433.164	-731.47
433.354	128.68
433.544	507.55
433.734	-602.44
433.923	-217.43
434.113	208.55
434.303	306.85
434.493	-278.87
434.682	-500.05
434.872	421.54
435.062	-20.82
435.251	-450.89
435.441	-543.05
435.631	661.15
435.82	243.37
436.01	-606.54
436.2	-411.98
436.389	198.31
436.579	732.83
436.768	-160.08
436.958	-190.8
437.147	265.89
437.337	593.57
437.527	-231.76
437.716	-536.91
437.906	663.2
438.095	323.24
438.285	-538.96
438.474	-282.96
438.664	634.53
438.853	478.88
439.043	-268.63
439.232	-672.08
439.422	530.08
439.611	437.92
439.8	-577.87
439.99	-164.18
440.179	558.75
440.369	802.46
440.558	-676.17
440.748	-442.7
440.937	261.8
441.126	-37.2
441.316	-201.04
441.505	-495.95
441.695	515.75
441.884	990.88
442.073	-395.6
442.263	-514.38
442.452	325.29
442.642	519.84
442.831	-360.78
443.02	-98.64
443.21	786.08
443.399	1220.25
443.588	-309.58
443.778	-315.73
443.967	927.39
444.156	497.32
444.346	-512.33
444.535	-545.1
444.725	935.58
444.914	519.84
445.103	-512.33
445.293	-264.53
445.482	870.05
445.671	540.32
445.861	-409.94
446.05	-190.8
446.239	693.92
446.429	210.6
446.618	-500.05
446.807	-121.17
446.997	642.72
447.186	577.19
447.376	-244.05
447.565	-131.41
447.754	972.44
447.944	913.05
448.133	-256.34
448.322	-459.09
448.512	429.73
448.701	1058.46
448.891	-254.29
449.08	-258.39
449.269	69.29
449.459	343.72
449.648	-278.87
449.838	-280.91
450.027	446.12
450.217	226.98
450.406	-454.99
450.595	-125.27
450.785	759.46
450.974	753.31
451.164	-362.83
451.353	-244.05
451.543	642.72
451.732	988.83
451.922	-371.02
452.111	-303.44
452.301	194.22
452.49	118.44
452.68	-584.01
452.869	126.63
453.059	241.32
453.249	911
453.438	-577.87
453.628	-104.79
453.817	655.01
454.007	382.63
454.197	-502.09
454.386	-315.73
454.576	900.76
454.765	732.83
454.955	-164.18
455.145	-409.94
455.334	560.8
455.524	212.65
455.714	-94.55
455.904	-459.09
456.093	1285.78
456.283	650.91
456.473	-377.17
456.663	-414.03
456.852	671.39
457.042	626.34
457.232	-276.82
457.422	304.81
457.612	675.49
457.802	923.29
457.991	-680.27
458.181	-393.55
458.371	741.02
458.561	640.67
458.751	-348.5
458.941	-459.09
459.131	532.13
459.321	409.25
459.511	-88.4
459.701	-276.82
459.891	536.23
460.081	110.25
460.271	-340.3
460.461	-463.18
460.651	1212.06
460.841	1109.66
461.032	-268.63
461.222	-422.22
461.412	407.2
461.602	1379.99
461.792	-635.21
461.983	-622.92
462.173	634.53
462.363	1093.27
462.554	-332.11
462.744	-340.3
462.934	833.18
463.125	593.57
463.315	-534.86
463.505	-319.82
463.696	808.61
463.886	183.98
464.077	-471.37
464.267	-463.18
464.458	1005.21
464.648	216.74
464.839	-233.81
465.03	-332.11
465.22	235.18
465.411	581.28
465.601	-377.17
465.792	-379.22
465.983	480.93
466.174	839.33
466.364	-590.16
466.555	-389.46
466.746	698.02
466.937	345.77
467.128	-424.27
467.319	-508.24
467.51	896.67
467.701	1486.48
467.891	-500.05
468.082	-463.18
468.274	437.92
468.465	-47.44
468.656	-225.62
468.847	-590.16
469.038	93.87
469.229	333.48
469.42	-250.19
469.612	-471.37
469.803	757.41
469.994	708.26
470.185	-315.73
470.377	-608.59
470.568	546.47
470.76	659.1
470.951	-485.71
471.142	-174.42
471.334	747.17
471.526	558.75
471.717	-194.9
471.909	-528.72
472.1	450.21
472.292	614.05
472.484	-624.97
472.675	-528.72
472.867	456.36
473.059	962.2
473.251	-346.45
473.443	-481.61
473.635	530.08
473.826	677.54
474.018	-549.2
474.21	-301.39
474.402	562.85
474.595	970.4
474.787	-469.33
474.979	-213.33
475.171	325.29
475.363	-94.55
475.555	-637.26
475.748	-401.74
475.94	773.79
476.132	286.37
476.325	-557.39
476.517	-12.63
476.71	1318.55
476.902	218.79
477.095	-561.48
477.287	-233.81
477.48	781.98
477.673	562.85
477.865	-340.3
478.058	-436.56
478.251	657.06
478.444	900.76
478.636	-323.92
478.829	-559.44
479.022	642.72
479.215	726.69
479.408	-162.13
479.601	83.63
479.794	220.84
479.988	261.8
480.181	-190.8
480.374	-254.29
480.567	661.15
480.76	1056.41
480.954	-325.97
481.147	-624.97
481.341	345.77
481.534	423.59
481.728	-270.67
481.921	-45.4
482.115	784.03
482.308	990.88
482.502	-469.33
482.696	-303.44
482.89	1369.75
483.084	681.63
483.277	-274.77
483.471	-237.91
483.665	1015.45
483.859	1666.71
484.053	-547.15
484.247	-649.55
484.442	425.64
484.636	595.62
484.83	-444.75
485.024	-172.37
485.219	552.61
485.413	431.78
485.608	-395.6
485.802	-94.55
485.997	929.44
486.191	487.08
486.386	-405.84
486.58	-274.77
486.775	759.46
486.97	933.53
487.165	-330.06
487.36	-225.62
487.555	687.78
487.75	505.51
487.945	-258.39
488.14	-463.18
488.335	347.81
488.53	401.06
488.725	-391.5
488.92	-180.56
489.116	1179.29
489.311	728.74
489.507	-547.15
489.702	231.08
489.898	1158.81
490.093	282.28
490.289	22.19
490.485	-256.34
490.68	112.3
490.876	1089.18
491.072	-424.27
491.268	-141.65
491.464	954.01
491.66	859.81
491.856	-233.81
492.052	161.45
492.248	917.15
492.445	687.78
492.641	-414.03
492.837	-280.91
493.034	1021.6
493.23	1162.9
493.427	163.5
493.623	-213.33
493.82	843.42
494.017	1230.49
494.214	-258.39
494.41	-389.46
494.607	839.33
494.804	372.39
495.001	-143.7
495.198	-168.27
495.395	906.91
495.593	816.8
495.79	-315.73
495.987	-381.26
496.184	200.36
496.382	767.65
496.579	-389.46
496.777	-217.43
496.974	1445.52
497.172	925.34
497.37	-203.09
497.568	-377.17
497.766	1525.4
497.963	691.87
498.161	-313.68
498.359	-98.64
498.558	1273.5
498.756	1052.31
498.954	-383.31
499.152	167.59
499.351	1175.19
499.549	863.9
499.747	-143.7
499.946	-196.95
500.145	507.55
500.343	618.15
500.542	-244.05
500.741	-143.7
500.94	888.48
501.139	1117.85
501.338	-239.95
501.537	130.73
501.736	1420.95
501.935	943.77
502.134	-360.78
502.334	-102.74
502.533	1150.62
502.733	1085.08
502.932	-74.07
503.132	-55.64
503.331	683.68
503.531	1078.94
503.731	-137.56
503.931	-112.98
504.131	560.8
504.331	1144.47
504.531	-137.56
504.731	-127.32
504.931	818.85
505.132	904.86
505.332	-143.7
505.532	-184.66
505.733	941.72
505.933	1355.41
506.134	-12.63
506.335	-344.4
506.536	542.37
506.736	1148.57
506.937	-112.98
507.138	-264.53
507.34	1689.23
507.541	921.24
507.742	136.87
507.943	-254.29
508.145	888.48
508.346	372.39
508.548	-340.3
508.749	-207.19
508.951	505.51
509.153	720.54
509.354	-61.78
509.556	-59.73
509.758	1113.75
509.96	298.66
510.163	112.3
510.365	-41.3
510.567	620.19
510.769	669.34
510.972	-131.41
511.174	194.22
511.377	450.21
511.58	1758.86
511.782	-184.66
511.985	-149.84
512.188	1427.09
512.391	1101.47
512.594	-274.77
512.797	-94.55
513.001	1142.43
513.204	1441.43
513.407	-41.3
513.611	-39.25
513.814	990.88
514.018	1281.69
514.222	20.14
514.425	-26.96
514.629	921.24
514.833	892.57
515.037	147.11
515.241	-192.85
515.445	593.57
515.65	620.19
515.854	-35.16
516.059	61.1
516.263	1040.03
516.468	978.59
516.672	-12.63
516.877	-106.84
517.082	544.42
517.287	1007.26
517.492	302.76
517.697	-43.35
517.902	1060.51
518.107	730.78
518.313	28.33
518.518	11.95
518.724	1478.29
518.929	831.13
519.135	40.62
519.341	-250.19
519.547	865.95
519.753	1060.51
519.959	-192.85
520.165	13.99
520.371	1298.07
520.577	1652.37
520.784	-213.33
520.99	366.25
521.197	1080.99
521.404	1037.98
521.61	-407.89
521.817	-192.85
522.024	1429.14
522.231	788.13
522.438	-487.76
522.645	454.31
522.853	751.26
523.06	1158.81
523.268	7.85
523.475	-47.44
523.683	1085.08
523.891	1138.33
524.098	-213.33
524.306	130.73
524.514	929.44
524.722	880.29
524.931	61.1
525.139	85.67
525.347	456.36
525.556	913.05
525.764	134.82
525.973	335.53
526.182	1130.14
526.391	710.3
526.6	-80.21
526.809	126.63
527.018	888.48
527.227	994.97
527.436	95.91
527.646	-127.32
527.855	1033.88
528.065	845.47
528.275	-78.16
528.484	-110.93
528.694	1226.39
528.904	1080.99
529.114	-31.06
529.325	89.77
529.535	503.46
529.745	1044.12
529.956	-43.35
530.166	-78.16
530.377	1027.74
530.588	1511.06
530.799	224.94
531.01	44.71
531.221	1330.84
531.432	1304.21
531.643	120.49
531.855	472.74
532.066	1355.41
532.278	990.88
532.489	147.11
532.701	-102.74
532.913	1431.19
533.125	1117.85
533.337	-213.33
533.549	-108.88
533.762	1302.17
533.974	556.71
534.186	-250.19
534.399	126.63
534.612	1343.13
534.825	1001.12
535.037	226.98
535.25	183.98
535.464	847.52
535.677	1414.81
535.89	-39.25
536.104	274.09
536.317	980.64
536.531	1046.17
536.744	456.36
536.958	48.81
537.172	1119.9
537.386	851.61
537.6	102.06
537.815	11.95
538.029	1293.97
538.244	1289.88
538.458	-104.79
538.673	-18.77
538.888	1052.31
539.103	1535.64
539.318	345.77
539.533	-82.26
539.748	951.96
539.963	802.46
540.179	-201.04
540.394	-188.75
540.61	499.36
540.826	884.38
541.042	118.44
541.258	-143.7
541.474	1592.98
541.69	994.97
541.906	194.22
542.123	106.15
542.339	1035.93
542.556	777.89
542.773	18.09
542.99	161.45
543.207	999.07
543.424	718.5
543.641	243.37
543.858	405.16
544.076	945.82
544.293	779.93
544.511	-37.2
544.729	40.62
544.947	900.76
545.165	1011.36
545.383	32.43
545.601	67.24
545.819	1095.32
546.038	978.59
546.256	278.18
546.475	57
546.694	1879.69
546.913	1392.28
547.132	626.34
547.351	11.95
547.57	636.58
547.79	741.02
548.009	36.52
548.229	-29.01
548.449	859.81
548.668	1367.7
548.888	263.85
549.109	151.21
549.329	1404.57
549.549	1400.47
549.77	85.67
549.99	302.76
550.211	1265.3
550.432	1676.95
550.653	16.04
550.874	247.46
551.095	1703.57
551.316	951.96
551.538	-29.01
551.759	284.33
551.981	1167
552.203	1216.15
552.424	46.76
552.646	390.82
552.869	1007.26
553.091	978.59
553.313	339.62
553.536	243.37
553.758	1384.09
553.981	1134.23
554.204	22.19
554.427	216.74
554.65	1437.33
554.873	599.71
555.097	-141.65
555.32	171.69
555.544	1474.2
555.768	1324.69
555.992	104.11
556.216	50.86
556.44	759.46
556.664	1392.28
556.888	511.65
557.113	-65.88
557.337	1810.06
557.562	1681.04
557.787	102.06
558.012	274.09
558.237	1183.38
558.462	1048.22
558.688	315.05
558.913	220.84
559.139	601.76
559.365	1257.11
559.591	100.01
559.817	208.55
560.043	1455.76
560.269	1564.31
560.496	661.15
560.722	204.46
560.949	1760.91
561.176	571.04
561.403	183.98
561.63	329.38
561.857	704.16
562.084	779.93
562.312	-12.63
562.539	317.09
562.767	1603.22
562.995	941.72
563.223	218.79
563.451	302.76
563.679	935.58
563.908	1089.18
564.136	224.94
564.365	356.01
564.594	693.92
564.823	2258.57
565.052	364.2
565.281	-119.12
565.51	1171.1
565.74	855.71
565.969	-18.77
566.199	356.01
566.429	1330.84
566.659	1310.36
566.889	114.34
567.119	282.28
567.35	1560.21
567.58	1552.02
567.811	282.28
568.042	159.4
568.273	949.92
568.504	1281.69
568.735	278.18
568.966	317.09
569.198	1101.47
569.43	1470.1
569.661	323.24
569.893	374.44
570.125	1635.99
570.358	1400.47
570.59	229.03
570.822	138.92
571.055	1451.67
571.288	1470.1
571.521	106.15
571.754	163.5
571.987	1734.29
572.22	1142.43
572.454	345.77
572.687	224.94
572.921	790.17
573.155	1162.9
573.389	904.86
573.623	568.99
573.858	994.97
574.092	1324.69
574.327	351.91
574.561	636.58
574.796	982.68
575.031	1515.16
575.266	274.09
575.502	421.54
575.737	1603.22
575.973	1236.63
576.209	278.18
576.445	300.71
576.681	1011.36
576.917	1257.11
577.153	196.26
577.39	331.43
577.626	1259.16
577.863	1330.84
578.1	216.74
578.337	581.28
578.574	1064.6
578.812	1494.68
579.049	435.88
579.287	235.18
579.525	1406.61
579.763	1486.48
580.001	200.36
580.239	243.37
580.478	1855.12
580.716	1367.7
580.955	523.94
581.194	605.86
581.433	1670.8
581.672	1183.38
581.911	327.33
582.151	294.57
582.39	1162.9
582.63	1658.51
582.87	306.85
583.11	247.46
583.35	853.66
583.591	1248.92
583.831	589.47
584.072	775.84
584.313	1400.47
584.554	1199.77
584.795	442.02
585.036	650.91
585.277	1949.32
585.519	1535.64
585.761	79.53
586.003	245.41
586.245	1441.43
586.487	1969.8
586.729	790.17
586.972	331.43
587.215	2266.76
587.457	1078.94
587.7	667.3
587.944	521.89
588.187	1336.98
588.43	1234.58
588.674	419.49
588.918	286.37
589.162	1672.85
589.406	1126.04
589.65	179.88
589.894	1113.75
590.139	1597.07
590.384	1568.4
590.629	306.85
590.874	515.75
591.119	931.48
591.364	1642.13
591.61	450.21
591.855	241.32
592.101	2004.62
592.347	1595.03
592.593	366.25
592.84	747.17
593.086	2064.01
593.333	1185.43
593.58	298.66
593.827	239.27
594.074	1420.95
594.321	1248.92
594.568	356.01
594.816	143.02
595.064	1375.89
595.312	1408.66
595.56	435.88
595.808	806.56
596.057	1664.66
596.305	1271.45
596.554	159.4
596.803	609.95
597.052	1635.99
597.301	1924.75
597.551	360.1
597.8	644.77
598.05	1554.07
598.3	1408.66
598.55	249.51
598.8	382.63
599.051	1080.99
599.301	1195.67
599.552	102.06
599.803	761.5
600.054	1592.98
600.305	1322.65
600.556	612
600.808	544.42
601.06	1228.44
601.312	1709.71
601.564	419.49
601.816	317.09
602.068	1861.26
602.321	1588.88
602.574	523.94
602.827	192.17
603.08	1371.8
603.333	1535.64
603.587	399.01
603.84	562.85
604.094	1601.17
604.348	1171.1
604.602	208.55
604.856	380.58
605.111	1595.03
605.365	1513.11
605.62	464.55
605.875	282.28
606.13	1513.11
606.386	1316.5
606.641	372.39
606.897	333.48
607.153	1259.16
607.409	1638.03
607.665	169.64
607.921	245.41
608.178	1076.89
608.435	1527.44
608.692	255.65
608.949	587.43
609.206	1724.05
609.463	1570.45
609.721	384.68
609.979	620.19
610.237	1296.02
610.495	1822.35
610.753	718.5
611.012	587.43
611.27	1779.34
611.529	1545.88
611.788	587.43
612.047	325.29
612.307	931.48
612.566	1605.27
612.826	407.2
613.086	511.65
613.346	904.86
613.606	1640.08
613.867	468.64
614.127	593.57
614.388	1015.45
614.649	1609.36
614.91	306.85
615.172	687.78
615.433	1119.9
615.695	1234.58
615.957	530.08
616.219	462.5
616.481	1754.77
616.743	1220.25
617.006	114.34
617.269	450.21
617.532	1603.22
617.795	1601.17
618.058	306.85
618.322	536.23
618.586	1466
618.849	1052.31
619.114	575.14
619.378	136.87
619.642	1486.48
619.907	1537.68
620.172	384.68
620.437	466.6
620.702	1603.22
620.967	1031.83
621.233	380.58
621.499	323.24
621.765	1232.54
622.031	1496.72
622.297	251.56
622.564	421.54
622.83	1224.34
623.097	1826.45
623.364	519.84
623.631	695.97
623.899	1527.44
624.166	1504.92
624.434	229.03
624.702	106.15
624.97	1666.71
625.239	1113.75
625.507	276.13
625.776	521.89
626.045	1087.13
626.314	1273.5
626.584	394.92
626.853	231.08
627.123	1060.51
627.393	822.94
627.663	282.28
627.933	333.48
628.204	1420.95
628.474	1377.94
628.745	216.74
629.016	495.27
629.287	1126.04
629.559	1097.37
629.83	134.82
630.102	345.77
630.374	898.72
630.646	1871.5
630.919	421.54
631.191	546.47
631.464	1070.75
631.737	945.82
632.01	159.4
632.284	261.8
632.557	1738.38
632.831	1527.44
633.105	124.58
633.379	315.05
633.654	847.52
633.928	1187.48
634.203	265.89
634.478	65.19
634.753	1298.07
635.028	1384.09
635.304	497.32
635.58	204.46
635.856	1212.06
636.132	1078.94
636.408	149.16
636.685	261.8
636.961	1113.75
637.238	1216.15
637.515	253.61
637.793	118.44
638.07	1570.45
638.348	1040.03
638.626	317.09
638.904	474.79
639.182	528.03
639.461	675.49
639.74	364.2
640.019	405.16
640.298	462.5
640.577	986.78
640.857	145.06
641.136	175.78
641.416	1085.08
641.696	1590.93
641.977	315.05
642.257	290.47
642.538	1275.54
642.819	1638.03
643.1	120.49
643.382	-59.73
643.663	1296.02
643.945	1312.41
644.227	196.26
644.509	40.62
644.792	1543.83
645.074	1160.86
645.357	110.25
645.64	-65.88
645.923	1007.26
646.207	1339.03
646.49	104.11
646.774	13.99
647.058	1056.41
647.342	1349.27
647.627	-125.27
647.911	-45.4
648.196	1396.37
648.481	1250.97
648.767	52.91
649.052	118.44
649.338	786.08
649.624	753.31
649.91	-155.99
650.196	44.71
650.483	1306.26
650.77	1355.41
651.057	372.39
651.344	208.55
651.631	1074.84
651.919	822.94
652.207	52.91
652.495	243.37
652.783	1224.34
653.071	1113.75
653.36	-196.95
653.649	24.23
653.938	941.72
654.227	1238.68
654.517	356.01
654.806	-78.16
655.096	593.57
655.387	1150.62
655.677	126.63
655.968	7.85
656.258	675.49
656.549	1431.19
656.841	210.6
657.132	77.48
657.424	741.02
657.716	1056.41
658.008	-31.06
658.3	-84.31
658.592	1060.51
658.885	1253.02
659.178	-35.16
659.471	-219.47
659.765	396.96
660.058	921.24
660.352	-147.8
660.646	-12.63
660.94	1470.1
661.235	1062.55
661.53	345.77
661.824	-334.16
662.12	1052.31
662.415	472.74
662.711	-106.84
663.006	118.44
663.302	585.38
663.599	519.84
663.895	-82.26
664.192	165.54
664.489	1228.44
664.786	1158.81
665.083	-256.34
665.381	-203.09
665.678	753.31
665.976	1085.08
666.275	-356.69
666.573	57
666.872	501.41
667.171	872.09
667.47	-272.72
667.769	-358.74
668.069	1093.27
668.368	1060.51
668.668	-483.66
668.969	-291.15
669.269	808.61
669.57	554.66
669.871	-180.56
670.172	-143.7
670.473	1056.41
670.775	1169.05
671.077	-217.43
671.379	-145.75
671.681	1064.6
671.983	827.04
672.286	-262.48
672.589	-100.69
672.892	851.61
673.196	980.64
673.499	-264.53
673.803	-143.7
674.107	1072.79
674.411	986.78
674.716	-67.92
675.021	-49.49
675.326	628.39
675.631	1121.95
675.936	-397.65
676.242	-139.6
676.548	437.92
676.854	1322.65
677.16	-422.22
677.467	-209.23
677.774	927.39
678.081	550.56
678.388	44.71
678.696	-84.31
679.004	1027.74
679.312	1308.31
679.62	-72.02
679.928	-98.64
680.237	1089.18
680.546	315.05
680.855	-69.97
681.164	-295.25
681.474	880.29
681.784	831.13
682.094	-192.85
682.404	-477.52
682.715	1146.52
683.026	335.53
683.337	-344.4
683.648	26.28
683.959	1310.36
684.271	1054.36
684.583	-188.75
684.895	-532.81
685.208	843.42
685.52	962.2
685.833	-160.08
686.146	-250.19
686.46	1089.18
686.773	704.16
687.087	-207.19
687.401	-303.44
687.716	794.27
688.03	816.8
688.345	-450.89
688.66	-166.23
688.975	1044.12
689.291	945.82
689.607	179.88
689.923	-223.57
690.239	554.66
690.555	1037.98
690.872	-237.91
691.189	-545.1
691.506	784.03
691.824	1019.55
692.142	-342.35
692.459	-176.47
692.778	448.16
693.096	913.05
693.415	-0.34
693.734	-153.94
694.053	597.67
694.372	282.28
694.692	-516.43
695.012	-235.86
695.332	472.74
695.652	675.49
695.973	-164.18
696.294	-285.01
696.615	501.41
696.936	1093.27
697.258	-667.98
697.579	-256.34
697.902	372.39
698.224	392.87
698.546	-434.51
698.869	-502.09
699.192	331.43
699.516	937.63
699.839	-373.07
700.163	-223.57
700.487	290.47
700.811	1228.44
701.136	-649.55
701.461	-323.92
701.786	728.74
702.111	1128.09
702.436	-538.96
702.762	-180.56
703.088	978.59
703.415	1285.78
703.741	-231.76
704.068	-452.94
704.395	437.92
704.722	870.05
705.05	-397.65
705.377	-401.74
705.705	712.35
706.034	636.58
706.362	-655.69
706.691	-651.6
707.02	956.06
707.349	851.61
707.679	-287.06
708.009	-467.28
708.339	781.98
708.669	685.73
709	-336.21
709.33	-569.68
709.661	601.76
709.993	530.08
710.324	-184.66
710.656	-387.41
710.988	775.84
711.321	898.72
711.653	-647.5
711.986	-379.22
712.319	69.29
712.652	896.67
712.986	-74.07
713.32	-428.37
713.654	913.05
713.988	1031.83
714.323	-373.07
714.658	-313.68
714.993	546.47
715.328	607.91
715.664	-182.61
716	-129.36
716.336	1220.25
716.673	370.34
717.009	-143.7
717.346	-182.61
717.683	1099.42
718.021	593.57
718.359	-491.85
718.697	-184.66
719.035	462.5
719.373	331.43
719.712	-299.34
720.051	-524.62
720.39	839.33
720.73	628.39
721.07	-301.39
721.41	-358.74
721.75	888.48
722.091	794.27
722.432	-358.74
722.773	-127.32
723.114	536.23
723.456	585.38
723.798	-446.8
724.14	-258.39
724.482	267.94
724.825	745.12
725.168	-160.08
725.511	-381.26
725.855	642.72
726.198	388.77
726.542	-493.9
726.887	28.33
727.231	951.96
727.576	212.65
727.921	-303.44
728.266	-635.21
728.612	528.03
728.958	870.05
729.304	-436.56
729.651	138.92
729.997	216.74
730.344	634.53
730.691	-432.46
731.039	-198.99
731.387	655.01
731.735	319.14
732.083	-280.91
732.431	-256.34
732.78	448.16
733.129	-129.36
733.479	-432.46
733.828	-237.91
734.178	474.79
734.528	97.96
734.879	-379.22
735.23	-498
735.581	753.31
735.932	446.12
736.283	-379.22
736.635	-528.72
736.987	902.81
737.34	824.99
737.692	-424.27
738.045	-557.39
738.398	523.94
738.752	784.03
739.105	-600.4
739.459	-0.34
739.814	773.79
740.168	781.98
740.523	-631.12
740.878	-233.81
741.233	513.7
741.589	868
741.945	-323.92
742.301	-373.07
742.657	945.82
743.014	392.87
743.371	-479.57
743.728	134.82
744.086	542.37
744.444	423.59
744.802	-629.07
745.16	-422.22
745.519	851.61
745.878	356.01
746.237	-586.06
746.597	-307.54
746.956	892.57
747.316	536.23
747.677	-541.01
748.037	-340.3
748.398	439.97
748.759	691.87
749.121	-133.46
749.482	-145.75
749.844	241.32
750.207	102.06
750.569	-805.19
750.932	-258.39
751.295	1140.38
751.659	585.38
752.022	-454.99
752.386	110.25
752.751	536.23
753.115	102.06
753.48	-469.33
753.845	-389.46
754.21	554.66
754.576	450.21
754.942	-684.36
755.308	-237.91
755.675	290.47
756.041	947.87
756.409	-665.93
756.776	-158.03
757.144	1095.32
757.511	704.16
757.88	-420.17
758.248	-706.89
758.617	-8.53
758.986	585.38
759.355	-287.06
759.725	-373.07
760.095	126.63
760.465	876.19
760.836	-596.3
761.206	-471.37
761.577	865.95
761.949	224.94
762.32	-299.34
762.692	-526.67
763.065	407.2
763.437	173.74
763.81	-569.68
764.183	-354.64
764.556	941.72
764.93	437.92
765.304	-86.36
765.678	-227.67
766.053	515.75
766.428	437.92
766.803	-575.82
767.178	-469.33
767.554	-76.12
767.93	329.38
768.306	-541.01
768.683	-610.64
769.06	730.78
769.437	521.89
769.814	-686.41
770.192	-600.4
770.57	421.54
770.948	1283.74
771.327	-364.88
771.706	-608.59
772.085	585.38
772.464	890.53
772.844	-405.84
773.224	-592.2
773.605	28.33
773.985	220.84
774.366	-321.87
774.748	-125.27
775.129	827.04
775.511	671.39
775.893	-430.41
776.276	-340.3
776.658	855.71
777.041	573.09
777.425	-616.78
777.808	-506.19
778.192	362.15
778.576	833.18
778.961	-706.89
779.346	-545.1
779.731	659.1
780.116	-51.54
780.502	-538.96
780.888	-463.18
781.274	419.49
781.661	132.78
782.048	-633.16
782.435	-639.31
782.823	364.2
783.21	571.04
783.598	-463.18
783.987	-440.65
784.376	802.46
784.765	269.99
785.154	-383.31
785.544	-610.64
785.933	710.3
786.324	261.8
786.714	-319.82
787.105	-678.22
787.496	542.37
787.888	251.56
788.279	-577.87
788.671	-612.68
789.064	364.2
789.456	581.28
789.849	-737.61
790.242	-657.74
790.636	161.45
791.03	657.06
791.424	-680.27
791.818	945.82
792.213	728.74
792.608	489.12
793.004	-221.52
793.399	-827.72
793.795	507.55
794.192	315.05
794.588	-495.95
794.985	-743.75
795.382	495.27
795.78	362.15
796.178	-438.61
796.576	-559.44
796.974	902.81
797.373	482.98
797.772	-545.1
798.172	-536.91
798.571	323.24
798.971	753.31
799.372	-475.47
799.772	-469.33
800.173	827.04
800.574	437.92
800.976	-545.1
801.378	-659.79
801.78	40.62
802.182	-172.37
802.585	-512.33
802.988	-577.87
803.392	229.03
803.795	120.49
804.199	-594.25
804.604	-467.28
805.008	587.43
805.413	898.72
805.819	-444.75
806.224	-672.08
806.63	478.88
807.036	552.61
807.443	-502.09
807.85	-424.27
808.257	546.47
808.664	376.48
809.072	-86.36
809.48	-328.02
809.889	698.02
810.297	652.96
810.706	-125.27
811.116	-624.97
811.526	356.01
811.936	212.65
812.346	-608.59
812.757	-586.06
813.167	376.48
813.579	298.66
813.99	-444.75
814.402	-565.58
814.814	990.88
815.227	294.57
815.64	-733.51
816.053	-553.29
816.467	675.49
816.88	415.4
817.294	-254.29
817.709	-287.06
818.124	175.78
818.539	859.81
818.954	-344.4
819.37	-217.43
819.786	91.82
820.202	556.71
820.619	-854.34
821.036	-647.5
821.453	800.41
821.871	411.3
822.289	-504.14
822.707	-610.64
823.126	513.7
823.545	42.67
823.964	-577.87
824.384	-639.31
824.804	194.22
825.224	575.14
825.645	-303.44
826.065	-631.12
826.487	689.82
826.908	741.02
827.33	-371.02
827.752	-137.56
828.175	532.13
828.598	714.4
829.021	-196.95
829.444	274.09
829.868	554.66
830.292	190.12
830.717	-729.42
831.142	-594.25
831.567	151.21
831.992	360.1
832.418	-35.16
832.844	-524.62
833.27	431.78
833.697	429.73
834.124	-749.9
834.552	-682.31
834.979	947.87
835.408	482.98
835.836	-713.03
836.265	-463.18
836.694	276.13
837.123	642.72
837.553	-686.41
837.983	-864.58
838.413	765.6
838.844	585.38
839.275	-731.47
839.706	-264.53
840.138	994.97
840.57	229.03
841.003	-532.81
841.435	-368.98
841.868	253.61
842.302	261.8
842.735	-364.88
843.169	-616.78
843.604	540.32
844.039	530.08
844.474	-717.13
844.909	-528.72
845.345	544.42
845.781	497.32
846.217	-573.77
846.654	-682.31
847.091	636.58
847.528	226.98
847.966	-692.55
848.404	-446.8
848.842	1027.74
849.281	-215.38
849.72	-483.66
850.16	-600.4
850.599	175.78
851.039	143.02
851.48	-215.38
851.921	-471.37
852.362	530.08
852.803	816.8
853.245	-792.91
853.687	-577.87
854.129	638.62
854.572	167.59
855.015	-735.56
855.459	-559.44
855.903	93.87
856.347	579.23
856.791	-520.53
857.236	-594.25
857.681	929.44
858.127	1205.91
858.572	-221.52
859.019	-536.91
859.465	710.3
859.912	454.31
860.359	-833.86
860.807	-633.16
861.255	173.74
861.703	753.31
862.151	-500.05
862.6	-86.36
863.05	609.95
863.499	226.98
863.949	-504.14
864.4	-663.88
864.85	915.1
865.301	687.78
865.752	-618.83
866.204	-598.35
866.656	226.98
867.109	767.65
867.561	-610.64
868.014	-328.02
868.468	683.68
868.921	663.2
869.376	-561.48
869.83	-588.11
870.285	450.21
870.74	183.98
871.195	-500.05
871.651	-397.65
872.107	880.29
872.564	327.33
873.021	-774.47
873.478	-794.95
873.936	726.69
874.394	640.67
874.852	-596.3
875.31	-338.26
875.769	364.2
876.229	890.53
876.688	-317.78
877.148	-536.91
877.609	331.43
878.069	249.51
878.531	-325.97
878.992	-733.51
879.454	429.73
879.916	433.83
880.378	-479.57
880.841	-551.24
881.304	-37.2
881.768	3.75
882.232	-616.78
882.696	-373.07
883.161	40.62
883.626	448.16
884.091	-411.98
884.557	-475.47
885.023	40.62
885.489	753.31
885.956	-735.56
886.423	-635.21
886.89	3.75
887.358	380.58
887.826	-565.58
888.295	-430.41
888.763	130.73
889.233	921.24
889.702	-567.63
890.172	-532.81
890.642	421.54
891.113	175.78
891.584	-196.95
892.055	-487.76
892.527	669.34
892.999	808.61
893.472	-561.48
893.944	-338.26
894.417	456.36
894.891	28.33
895.365	-305.49
895.839	-356.69
896.314	442.02
896.789	-291.15
897.264	-528.72
897.74	-694.6
898.216	765.6
898.692	581.28
899.169	-637.26
899.646	-567.63
900.123	487.08
900.601	925.34
901.079	-641.36
901.558	-411.98
902.037	779.93
902.516	446.12
902.996	-739.66
903.476	-680.27
903.956	243.37
904.437	593.57
904.918	-682.31
905.399	-751.95
905.881	591.52
906.363	413.35
906.846	-635.21
907.329	-586.06
907.812	-24.92
908.296	482.98
908.78	-782.67
909.264	-586.06
909.749	188.07
910.234	714.4
910.719	-651.6
911.205	-330.06
911.691	-115.03
912.178	497.32
912.665	-127.32
913.152	-610.64
913.64	183.98
914.128	638.62
914.616	-516.43
915.105	-665.93
915.594	407.2
916.084	898.72
916.574	-532.81
917.064	-706.89
917.555	-65.88
918.046	505.51
918.537	-115.03
919.029	-942.41
919.521	145.06
920.013	906.91
920.506	-520.53
920.999	-704.84
921.493	622.24
921.987	212.65
922.481	-338.26
922.976	-586.06
923.471	300.71
923.967	405.16
924.462	-473.42
924.959	-463.18
925.455	470.69
925.952	411.3
926.449	-661.84
926.947	-586.06
927.445	425.64
927.944	214.7
928.442	-860.49
928.942	-762.19
929.441	601.76
929.941	77.48
930.442	-657.74
930.942	-577.87
931.443	659.1
931.945	54.95
932.447	-713.03
932.949	-553.29
933.451	241.32
933.954	224.94
934.458	-483.66
934.961	-588.11
935.465	163.5
935.97	122.54
936.475	-389.46
936.98	-672.08
937.486	-168.27
937.992	50.86
938.498	-608.59
939.005	-549.2
939.512	208.55
940.019	495.27
940.527	-475.47
941.035	-399.7
941.544	573.09
942.053	370.34
942.562	-307.54
943.072	-303.44
943.582	616.1
944.093	319.14
944.604	-774.47
945.115	-682.31
945.627	761.5
946.139	902.81
946.651	-569.68
947.164	-520.53
947.677	487.08
948.191	372.39
948.705	-694.6
949.219	-803.15
949.734	183.98
950.249	552.61
950.765	-635.21
951.281	-612.68
951.797	1363.61
952.314	675.49
952.831	-610.64
953.348	-852.3
953.866	589.47
954.384	216.74
954.903	-645.45
955.422	-823.62
955.941	284.33
956.461	364.2
956.981	-602.44
957.502	-459.09
958.023	552.61
958.544	468.64
959.066	-430.41
959.588	-733.51
960.11	120.49
960.633	714.4
961.156	-573.77
961.68	-498
962.204	734.88
962.729	-45.4
963.253	-602.44
963.779	44.71
964.304	548.51
964.83	777.89
965.357	-772.43
965.883	-518.48
966.411	415.4
966.938	591.52
967.466	-508.24
967.994	-829.77
968.523	112.3
969.052	863.9
969.582	-651.6
970.112	-627.02
970.642	65.19
971.173	745.12
971.704	-618.83
972.235	-397.65
972.767	573.09
973.3	269.99
973.832	-418.13
974.365	-751.95
974.899	439.97
975.433	505.51
975.967	-733.51
976.502	-332.11
977.037	413.35
977.572	896.67
978.108	-684.36
978.644	-778.57
979.181	1046.17
979.718	532.13
980.255	-938.31
980.793	-444.75
981.331	-295.25
981.87	675.49
982.409	-553.29
982.948	-336.21
983.488	269.99
984.028	831.13
984.569	-430.41
985.11	-598.35
985.651	757.41
986.193	503.46
986.735	-813.38
987.278	-700.75
987.821	-141.65
988.364	306.85
988.908	-389.46
989.452	-700.75
989.997	-395.6
990.542	503.46
991.088	-563.53
991.633	-250.19
992.18	259.75
992.726	-82.26
993.273	-553.29
993.821	-446.8
994.369	321.19
994.917	777.89
995.465	-848.2
996.014	-831.82
996.564	583.33
997.114	233.13
997.664	-340.3
998.215	-733.51
998.766	429.73
999.317	-74.07
999.869	-495.95
1000.421	-692.55
1000.974	609.95
1001.527	562.85
1002.081	-631.12
1002.635	-336.21
1003.189	513.7
1003.744	675.49
1004.299	-835.91
1004.854	-551.24
1005.41	822.94
1005.967	265.89
1006.523	-510.29
1007.081	-430.41
1007.638	444.07
1008.196	456.36
1008.755	-706.89
1009.313	-541.01
1009.873	700.06
1010.432	18.09
1010.992	-307.54
1011.553	-487.76
1012.114	437.92
1012.675	-61.78
1013.237	-332.11
1013.799	-231.76
1014.361	444.07
1014.924	-117.08
1015.487	-684.36
1016.051	-475.47
1016.615	749.22
1017.18	513.7
1017.745	-686.41
1018.31	-168.27
1018.876	796.32
1019.442	448.16
1020.009	-477.52
1020.576	-753.99
1021.143	233.13
1021.711	661.15
1022.28	-602.44
1022.848	-655.69
1023.417	695.97
1023.987	341.67
1024.557	-635.21
1025.127	-641.36
1025.698	-45.4
1026.269	3.75
1026.841	-778.57
1027.413	-403.79
1027.985	161.45
1028.558	308.9
1029.131	-696.65
1029.705	-418.13
1030.279	450.21
1030.854	456.36
1031.429	-731.47
1032.004	-211.28
1032.58	648.86
1033.156	-29.01
1033.733	-629.07
1034.31	-610.64
1034.887	571.04
1035.465	650.91
1036.043	-1016.13
1036.622	-487.76
1037.201	208.55
1037.781	657.06
1038.361	-690.51
1038.941	-770.38
1039.522	429.73
1040.103	794.27
1040.685	-598.35
1041.267	-319.82
1041.85	1187.48
1042.433	579.23
1043.016	-684.36
1043.6	-485.71
1044.184	-287.06
1044.769	597.67
1045.354	-534.86
1045.939	-731.47
1046.525	298.66
1047.111	466.6
1047.698	-467.28
1048.285	-788.81
1048.873	571.04
1049.461	-12.63
1050.049	-680.27
1050.638	-592.2
1051.228	65.19
1051.817	779.93
1052.407	-674.12
1052.998	-377.17
1053.589	487.08
1054.18	634.53
1054.772	-942.41
1055.365	-643.4
1055.957	427.68
1056.55	151.21
1057.144	-547.15
1057.738	-723.27
1058.333	130.73
1058.927	114.34
1059.523	-541.01
1060.118	-733.51
1060.715	-65.88
1061.311	585.38
1061.908	-727.37
1062.506	-352.59
1063.103	609.95
1063.702	52.91
1064.3	-887.11
1064.9	-684.36
1065.499	978.59
1066.099	87.72
1066.7	-606.54
1067.301	-872.78
1067.902	700.06
1068.504	691.87
1069.106	-282.96
1069.709	-430.41
1070.312	806.56
1070.915	431.78
1071.519	-635.21
1072.123	-401.74
1072.728	581.28
1073.333	337.57
1073.939	-258.39
1074.545	-571.72
1075.152	669.34
1075.759	153.26
1076.366	-790.86
1076.974	-364.88
1077.582	296.61
1078.191	614.05
1078.8	-479.57
1079.41	-885.06
1080.02	399.01
1080.63	435.88
1081.241	-74.07
1081.852	-872.78
1082.464	341.67
1083.076	343.72
1083.689	-610.64
1084.302	-622.92
1084.915	702.11
1085.529	474.79
1086.144	-538.96
1086.759	-475.47
1087.374	149.16
1087.99	339.62
1088.606	-676.17
1089.222	-487.76
1089.839	609.95
1090.457	300.71
1091.075	-532.81
1091.693	-893.26
1092.312	497.32
1092.931	831.13
1093.551	-680.27
1094.171	-323.92
1094.792	409.25
1095.413	159.4
1096.034	-592.2
1096.656	-528.72
1097.278	622.24
1097.901	265.89
1098.524	-690.51
1099.148	-321.87
1099.772	997.02
1100.397	343.72
1101.022	-786.76
1101.647	-504.14
1102.273	511.65
1102.899	652.96
1103.526	-940.36
1104.153	-508.24
1104.781	659.1
1105.409	769.69
1106.038	-745.8
1106.667	-819.53
1107.296	159.4
1107.926	85.67
1108.556	-174.42
1109.187	-551.24
1109.818	407.2
1110.45	626.34
1111.082	-495.95
1111.715	-590.16
1112.348	519.84
1112.981	274.09
1113.615	-356.69
1114.25	-508.24
1114.885	224.94
1115.52	163.5
1116.156	-821.58
1116.792	-520.53
1117.428	495.27
1118.066	118.44
1118.703	-313.68
1119.341	-659.79
1119.98	700.06
1120.618	839.33
1121.258	-686.41
1121.898	-743.75
1122.538	399.01
1123.179	-74.07
1123.82	-467.28
1124.461	-491.85
1125.103	702.11
1125.746	216.74
1126.389	-389.46
1127.032	-725.32
1127.676	487.08
1128.32	886.43
1128.965	-549.2
1129.61	-457.04
1130.256	204.46
1130.902	700.06
1131.549	-631.12
1132.196	-643.4
1132.844	788.13
1133.491	650.91
1134.14	-600.4
1134.789	-504.14
1135.438	1080.99
1136.088	175.78
1136.738	-725.32
1137.389	-760.14
1138.04	550.56
1138.692	917.15
1139.344	-733.51
1139.996	-596.3
1140.649	491.17
1141.303	683.68
1141.957	-508.24
1142.611	-536.91
1143.266	470.69
1143.921	360.1
1144.577	-581.96
1145.233	-633.16
1145.89	106.15
1146.547	552.61
1147.205	-772.43
1147.863	-512.33
1148.521	413.35
1149.18	718.5
1149.84	-780.62
1150.5	-758.09
1151.16	364.2
1151.821	691.87
1152.482	-608.59
1153.144	5.8
1153.806	392.87
1154.469	505.51
1155.132	-749.9
1155.796	-471.37
1156.46	564.9
1157.124	962.2
1157.789	-698.7
1158.455	-659.79
1159.121	339.62
1159.787	151.21
1160.454	-448.85
1161.121	-541.01
1161.789	347.81
1162.457	620.19
1163.126	-575.82
1163.795	-543.05
1164.465	415.4
1165.135	333.48
1165.806	-479.57
1166.477	-512.33
1167.148	-340.3
1167.82	439.97
1168.493	-794.95
1169.166	-524.62
1169.839	143.02
1170.513	470.69
1171.187	-737.61
1171.862	-655.69
1172.537	243.37
1173.213	423.59
1173.889	-692.55
1174.566	-674.12
1175.243	833.18
1175.921	265.89
1176.599	-362.83
1177.278	-411.98
1177.957	-53.59
1178.636	880.29
1179.316	-305.49
1179.997	-815.43
1180.678	456.36
1181.359	736.93
1182.041	-829.77
1182.723	-782.67
1183.406	695.97
1184.089	145.06
1184.773	-762.19
1185.457	-842.06
1186.142	194.22
1186.827	1449.62
1187.513	-684.36
1188.199	-250.19
1188.886	151.21
1189.573	296.61
1190.26	-549.2
1190.948	-635.21
1191.637	44.71
1192.326	206.5
1193.015	-715.08
1193.705	-784.71
1194.396	108.2
1195.087	284.33
1195.778	-495.95
1196.47	-782.67
1197.162	407.2
1197.855	519.84
1198.548	-713.03
1199.242	-919.88
1199.936	485.03
1200.631	636.58
1201.326	-844.1
1202.022	-706.89
1202.718	743.07
1203.415	386.72
1204.112	-909.64
1204.81	-577.87
1205.508	87.72
1206.206	1013.4
1206.905	-651.6
1207.605	-721.23
1208.305	313
1209.005	407.2
1209.706	-758.09
1210.408	-706.89
1211.11	284.33
1211.812	425.64
1212.515	-485.71
1213.218	-614.73
1213.922	376.48
1214.627	341.67
1215.331	-549.2
1216.037	-590.16
1216.743	63.15
1217.449	394.92
1218.156	-463.18
1218.863	-414.03
1219.571	202.41
1220.279	824.99
1220.988	-694.6
1221.697	-584.01
1222.406	581.28
1223.117	190.12
1223.827	-502.09
1224.538	-624.97
1225.25	290.47
1225.962	499.36
1226.675	-979.27
1227.388	-463.18
1228.101	243.37
1228.815	24.23
1229.53	-536.91
1230.245	-422.22
1230.961	456.36
1231.677	255.65
1232.393	-528.72
1233.11	-520.53
1233.828	984.73
1234.546	556.71
1235.264	-518.48
1235.983	-340.3
1236.702	1062.55
1237.422	333.48
1238.143	-368.98
1238.864	-684.36
1239.585	675.49
1240.307	-266.58
1241.029	-794.95
1241.752	-368.98
1242.476	609.95
1243.2	884.38
1243.924	-520.53
1244.649	-467.28
1245.374	689.82
1246.1	913.05
1246.826	-788.81
1247.553	-631.12
1248.28	495.27
1249.008	523.94
1249.737	-807.24
1250.465	-444.75
1251.195	528.03
1251.925	753.31
1252.655	-635.21
1253.386	-348.5
1254.117	405.16
1254.849	48.81
1255.581	-606.54
1256.314	-379.22
1257.047	781.98
1257.781	505.51
1258.515	-620.88
1259.25	-123.22
1259.985	437.92
1260.721	370.34
1261.457	-495.95
1262.194	-938.31
1262.931	304.81
1263.669	851.61
1264.407	-428.37
1265.146	-733.51
1265.885	583.33
1266.625	226.98
1267.365	-543.05
1268.106	-692.55
1268.847	493.22
1269.589	296.61
1270.331	-373.07
1271.074	-485.71
1271.817	415.4
1272.561	487.08
1273.305	-360.78
1274.05	-405.84
1274.795	509.6
1275.541	267.94
1276.287	-807.24
1277.034	-684.36
1277.781	81.58
1278.529	499.36
1279.277	-827.72
1280.026	-809.29
1280.775	798.37
1281.525	-420.17
1282.275	-911.69
1283.026	-244.05
1283.777	476.84
1284.529	392.87
1285.281	-473.42
1286.034	-854.34
1286.788	824.99
1287.541	396.96
1288.296	-975.17
1289.051	-381.26
1289.806	390.82
1290.562	593.57
1291.318	-739.66
1292.075	-598.35
1292.832	824.99
1293.59	853.66
1294.349	-717.13
1295.108	-633.16
1295.867	939.68
1296.627	573.09
1297.387	-739.66
1298.148	-504.14
1298.91	282.28
1299.672	161.45
1300.434	-653.64
1301.197	-799.05
1301.961	1289.88
1302.725	319.14
1303.489	-393.55
1304.254	-627.02
1305.02	405.16
1305.786	786.08
1306.552	-958.79
1307.319	-901.45
1308.087	849.57
1308.855	745.12
1309.624	-635.21
1310.393	-549.2
1311.162	-168.27
1311.933	652.96
1312.703	-581.96
1313.474	-428.37
1314.246	345.77
1315.018	595.62
1315.791	-131.41
1316.564	-682.31
1317.338	655.01
1318.112	222.89
1318.887	-803.15
1319.662	-581.96
1320.438	427.68
1321.214	222.89
1321.991	-397.65
1322.769	-766.28
1323.546	491.17
1324.325	52.91
1325.104	-762.19
1325.883	-551.24
1326.663	-86.36
1327.444	419.49
1328.224	-633.16
1329.006	-393.55
1329.788	392.87
1330.571	339.62
1331.354	-239.95
1332.137	-692.55
1332.921	781.98
1333.706	-33.11
1334.491	-354.64
1335.277	-500.05
1336.063	128.68
1336.849	167.59
1337.637	-674.12
1338.424	-688.46
1339.213	945.82
1340.001	904.86
1340.791	-692.55
1341.581	-389.46
1342.371	523.94
1343.162	335.53
1343.953	-586.06
1344.745	-530.77
1345.537	507.55
1346.33	552.61
1347.124	-700.75
1347.918	-422.22
1348.712	994.97
1349.507	523.94
1350.303	-592.2
1351.099	-422.22
1351.896	65.19
1352.693	-135.51
1353.49	-493.9
1354.289	-590.16
1355.087	464.55
1355.887	716.45
1356.686	-610.64
1357.487	-592.2
1358.288	69.29
1359.089	347.81
1359.891	-143.7
1360.693	-600.4
1361.496	-102.74
1362.3	321.19
1363.104	-743.75
1363.908	-741.71
1364.713	874.14
1365.519	994.97
1366.325	-618.83
1367.131	-764.23
1367.939	329.38
1368.746	898.72
1369.555	-987.46
1370.363	-475.47
1371.173	888.48
1371.982	1289.88
1372.793	-696.65
1373.604	-860.49
1374.415	585.38
1375.227	810.65
1376.039	-749.9
1376.852	-618.83
1377.666	945.82
1378.48	431.78
1379.295	-778.57
1380.11	-813.38
1380.925	-53.59
1381.742	1011.36
1382.558	-594.25
1383.376	-575.82
1384.193	421.54
1385.012	192.17
1385.831	-702.79
1386.65	-506.19
1387.47	192.17
1388.29	200.36
1389.111	-627.02
1389.933	-864.58
1390.755	743.07
1391.578	343.72
1392.401	-868.68
1393.225	-672.08
1394.049	843.42
1394.873	347.81
1395.699	-655.69
1396.525	-500.05
1397.351	712.35
1398.178	13.99
1399.005	-553.29
1399.833	-971.08
1400.662	554.66
1401.491	896.67
1402.321	-610.64
1403.151	-555.34
1403.981	392.87
1404.813	519.84
1405.644	-411.98
1406.477	-692.55
1407.309	380.58
1408.143	1029.79
1408.977	-649.55
1409.811	-602.44
1410.646	855.71
1411.482	710.3
1412.318	-508.24
1413.155	-637.26
1413.992	777.89
1414.829	61.1
1415.668	-561.48
1416.506	-328.02
1417.346	749.22
1418.186	450.21
1419.026	-723.27
1419.867	-897.35
1420.709	685.73
1421.551	632.48
1422.393	-786.76
1423.236	-360.78
1424.08	351.91
1424.924	448.16
1425.769	-737.61
1426.614	-692.55
1427.46	534.18
1428.307	298.66
1429.154	-788.81
1430.001	-864.58
1430.849	347.81
1431.698	278.18
1432.547	-807.24
1433.397	-887.11
1434.247	726.69
1435.098	976.54
1435.949	-586.06
1436.801	-612.68
1437.653	114.34
1438.506	566.95
1439.36	-934.22
1440.214	-745.8
1441.069	634.53
1441.924	429.73
1442.78	-631.12
1443.636	-753.99
1444.493	339.62
1445.35	470.69
1446.208	-479.57
1447.067	-692.55
1447.926	521.89
1448.785	878.24
1449.645	-651.6
1450.506	-696.65
1451.367	282.28
1452.229	87.72
1453.091	-690.51
1453.954	-307.54
1454.818	204.46
1455.682	454.31
1456.546	-670.03
1457.412	-782.67
1458.277	773.79
1459.143	347.81
1460.01	-438.61
1460.878	-749.9
1461.745	380.58
1462.614	97.96
1463.483	-909.64
1464.352	-463.18
1465.223	814.75
1466.093	618.15
1466.964	-782.67
1467.836	-827.72
1468.709	743.07
1469.581	429.73
1470.455	-414.03
1471.329	-649.55
1472.203	120.49
1473.079	202.41
1473.954	-289.1
1474.831	-766.28
1475.707	83.63
1476.585	325.29
1477.463	-809.29
1478.341	-616.78
1479.22	48.81
1480.1	474.79
1480.98	-852.3
1481.861	-715.08
1482.742	501.41
1483.624	564.9
1484.506	-454.99
1485.389	-483.66
1486.273	126.63
1487.157	241.32
1488.041	-702.79
1488.926	-848.2
1489.812	509.6
1490.699	349.86
1491.585	-657.74
1492.473	-577.87
1493.361	-192.85
1494.249	294.57
1495.139	-407.89
1496.028	-551.24
1496.919	97.96
1497.809	487.08
1498.701	-682.31
1499.593	-543.05
1500.485	218.79
1501.378	714.4
1502.272	-389.46
1503.166	-590.16
1504.061	714.4
1504.956	487.08
1505.852	-667.98
1506.749	-756.04
1507.646	458.4
1508.543	450.21
1509.442	-854.34
1510.34	-82.26
1511.24	1066.65
1512.14	304.81
1513.04	-708.94
1513.941	-844.1
1514.843	1265.3
1515.745	-4.44
1516.648	-667.98
1517.551	-792.91
1518.455	-86.36
1519.359	-198.99
1520.264	-741.71
1521.17	-807.24
1522.076	257.7
1522.983	474.79
1523.89	-786.76
1524.798	-467.28
1525.706	394.92
1526.615	1408.66
1527.525	-819.53
1528.435	-659.79
1529.346	612
1530.257	71.34
1531.169	-463.18
1532.081	-733.51
1532.994	997.02
1533.908	241.32
1534.822	-635.21
1535.737	-532.81
1536.652	452.26
1537.568	278.18
1538.484	-637.26
1539.401	-971.08
1540.319	906.91
1541.237	34.47
1542.156	-743.75
1543.075	-624.97
1543.995	1011.36
1544.916	1001.12
1545.837	-692.55
1546.758	-725.32
1547.68	704.16
1548.603	695.97
1549.527	-543.05
1550.451	-790.86
1551.375	466.6
1552.3	759.46
1553.226	-962.89
1554.152	-840.01
1555.079	863.9
1556.006	267.94
1556.934	-442.7
1557.863	-561.48
1558.792	972.44
1559.722	165.54
1560.652	-467.28
1561.583	-856.39
1562.514	44.71
1563.446	89.77
1564.379	-1026.37
1565.312	-463.18
1566.246	784.03
1567.18	376.48
1568.115	-520.53
1569.051	-688.46
1569.987	806.56
1570.924	1044.12
1571.861	-782.67
1572.799	-627.02
1573.737	710.3
1574.676	388.77
1575.616	-520.53
1576.556	-610.64
1577.497	-90.45
1578.438	243.37
1579.38	-774.47
1580.323	-543.05
1581.266	511.65
1582.21	804.51
1583.154	-799.05
1584.099	-817.48
1585.044	472.74
1585.99	767.65
1586.937	-377.17
1587.884	-530.77
1588.832	317.09
1589.78	929.44
1590.729	-725.32
1591.679	-393.55
1592.629	405.16
1593.58	528.03
1594.531	-569.68
1595.483	-448.85
1596.435	233.13
1597.388	57
1598.342	-344.4
1599.296	-473.42
1600.251	501.41
1601.207	794.27
1602.163	-498
1603.119	-655.69
1604.077	775.84
1605.034	935.58
1605.993	-504.14
1606.952	-4.44
1607.911	218.79
1608.872	489.12
1609.832	-770.38
1610.794	-840.01
1611.756	573.09
1612.718	544.42
1613.681	-307.54
1614.645	-577.87
1615.609	775.84
1616.574	196.26
1617.54	-164.18
1618.506	-651.6
1619.472	765.6
1620.44	753.31
1621.408	-166.23
1622.376	-485.71
1623.345	431.78
1624.315	800.41
1625.285	-500.05
1626.256	-438.61
1627.227	523.94
1628.199	-82.26
1629.172	-422.22
1630.145	-393.55
1631.119	480.93
1632.094	1046.17
1633.069	-565.58
1634.044	-377.17
1635.02	177.83
1635.997	749.22
1636.975	-600.4
1637.953	-807.24
1638.931	964.25
1639.911	83.63
1640.89	-756.04
1641.871	-532.81
1642.852	503.46
1643.833	468.64
1644.816	-778.57
1645.798	-880.97
1646.782	1027.74
1647.766	128.68
1648.75	-713.03
1649.736	-647.5
1650.721	50.86
1651.708	308.9
1652.695	-631.12
1653.682	-536.91
1654.671	470.69
1655.66	638.62
1656.649	-676.17
1657.639	-649.55
1658.63	65.19
1659.621	247.46
1660.613	-840.01
1661.605	-805.19
1662.598	224.94
1663.592	294.57
1664.586	-969.03
1665.581	-778.57
1666.576	157.35
1667.572	333.48
1668.569	-624.97
1669.566	-684.36
1670.564	489.12
1671.563	704.16
1672.562	-719.18
1673.562	-328.02
1674.562	394.92
1675.563	497.32
1676.564	-424.27
1677.566	-549.2
1678.569	945.82
1679.572	-330.06
1680.576	-516.43
1681.581	-692.55
1682.586	224.94
1683.592	601.76
1684.598	-575.82
1685.605	-426.32
1686.613	612
1687.621	315.05
1688.63	-514.38
1689.639	-405.84
1690.649	276.13
1691.66	351.91
1692.671	-489.81
1693.683	-651.6
1694.696	110.25
1695.709	382.63
1696.722	-665.93
1697.737	-590.16
1698.752	134.82
1699.767	450.21
1700.783	-606.54
1701.8	-430.41
1702.818	401.06
1703.836	-12.63
1704.854	-819.53
1705.873	-678.22
1706.893	192.17
1707.914	380.58
1708.935	-571.72
1709.956	-657.74
1710.979	267.94
1712.002	388.77
1713.025	-618.83
1714.049	-524.62
1715.074	493.22
1716.099	636.58
1717.125	-745.8
1718.152	-794.95
1719.179	85.67
1720.207	628.39
1721.235	-76.12
1722.265	-262.48
1723.294	358.05
1724.325	257.7
1725.355	-432.46
1726.387	-483.66
1727.419	421.54
1728.452	718.5
1729.485	-442.7
1730.519	-788.81
1731.554	87.72
1732.589	386.72
1733.625	-735.56
1734.662	-596.3
1735.699	-8.53
1736.736	677.54
1737.775	-753.99
1738.814	-631.12
1739.853	181.93
1740.894	175.78
1741.934	-459.09
1742.976	-745.8
1744.018	519.84
1745.061	360.1
1746.104	-704.84
1747.148	-729.42
1748.193	300.71
1749.238	421.54
1750.284	-434.51
1751.33	-721.23
1752.377	603.81
1753.425	1085.08
1754.473	-592.2
1755.522	-600.4
1756.572	847.52
1757.622	577.19
1758.673	-815.43
1759.724	-528.72
1760.776	784.03
1761.829	788.13
1762.882	-348.5
1763.936	-749.9
1764.991	73.39
1766.046	988.83
1767.102	-414.03
1768.158	-782.67
1769.215	470.69
1770.273	558.75
1771.331	-463.18
1772.39	-676.17
1773.45	497.32
1774.51	476.84
1775.571	-704.84
1776.632	-51.54
1777.694	257.7
1778.757	499.36
1779.82	-436.56
1780.884	-586.06
1781.949	130.73
1783.014	546.47
1784.08	-864.58
1785.147	-635.21
1786.214	220.84
1787.282	179.88
1788.35	-514.38
1789.419	-397.65
1790.489	708.26
1791.559	401.06
1792.63	-717.13
1793.702	-375.12
1794.774	331.43
1795.847	568.99
1796.92	-397.65
1797.994	-432.46
1799.069	548.51
1800.144	1224.34
1801.22	-764.23
1802.297	-307.54
1803.374	46.76
1804.452	429.73
1805.531	-692.55
1806.61	-266.58
1807.69	607.91
1808.77	-20.82
1809.851	-446.8
1810.933	-852.3
1812.015	691.87
1813.098	128.68
1814.182	-641.36
1815.266	-504.14
1816.351	439.97
1817.437	460.45
1818.523	-493.9
1819.61	-495.95
1820.697	396.96
1821.785	1144.47
1822.874	-469.33
1823.963	-655.69
1825.053	220.84
1826.144	560.8
1827.235	-493.9
1828.327	-551.24
1829.42	339.62
1830.513	-149.84
1831.607	-696.65
1832.701	-610.64
1833.796	263.85
1834.892	732.83
1835.989	-774.47
1837.086	-790.86
1838.183	427.68
1839.282	323.24
1840.381	-618.83
1841.48	-577.87
1842.581	495.27
1843.682	986.78
1844.783	-293.2
1845.885	-446.8
1846.988	698.02
1848.092	485.03
1849.196	-366.93
1850.301	-352.59
1851.406	40.62
1852.512	1074.84
1853.619	-610.64
1854.726	-655.69
1855.834	140.97
1856.943	650.91
1858.052	-596.3
1859.162	-506.19
1860.273	366.25
1861.384	761.5
1862.496	-561.48
1863.608	-657.74
1864.721	462.5
1865.835	206.5
1866.95	-672.08
1868.065	-635.21
1869.181	200.36
1870.297	698.02
1871.414	-352.59
1872.532	-762.19
1873.65	171.69
1874.769	257.7
1875.889	-700.75
1877.009	-274.77
1878.13	460.45
1879.252	904.86
1880.374	-526.67
1881.497	-678.22
1882.62	396.96
1883.745	224.94
1884.87	-717.13
1885.995	-870.73
1887.121	267.94
1888.248	116.39
1889.376	-731.47
1890.504	-696.65
1891.632	431.78
1892.762	231.08
1893.892	-674.12
1895.023	-424.27
1896.154	198.31
1897.286	267.94
1898.419	-639.31
1899.552	-495.95
1900.686	683.68
1901.821	532.13
1902.956	-596.3
1904.092	-493.9
1905.229	882.33
1906.366	554.66
1907.504	-708.94
1908.643	-653.64
1909.782	560.8
