Data from FLMT021711__21__17-57-00-201.txt Node

Date: Tue Nov 05 17:57:00 CET 2024
User: Etudiants TP
Spectrometer: FLMT02171
Trigger mode: 0
Integration Time (sec): 1,000000E-1
Scans to average: 5
Electric dark correction enabled: true
Nonlinearity correction enabled: false
Boxcar width: 15
XAxis mode: Wavelengths
Number of Pixels in Spectrum: 3648
>>>>>Begin Spectral Data<<<<<
194,658	-66,78
194,923	-61,94
195,188	-54,76
195,453	-55,2
195,717	-49,33
195,982	-48,49
196,247	-46,28
196,512	-49,16
196,777	-46,53
197,042	-43,94
197,307	-45,25
197,572	-40,12
197,837	-40,13
198,101	-37,26
198,366	-34,85
198,631	-32,8
198,896	-26,65
199,161	-19,47
199,425	-12,41
199,69	-2,76
199,955	-3,76
200,22	-6,53
200,484	-7,4
200,749	-8,91
201,014	-7,81
201,278	-6,88
201,543	-6,31
201,807	-5,23
202,072	-3,93
202,337	-3,16
202,601	-2,52
202,866	-5,07
203,13	-5,23
203,395	-7
203,659	-6,9
203,924	-9,05
204,189	-7,79
204,453	-6,5
204,717	-3,34
204,982	-3,19
205,246	-2,37
205,511	0,23
205,775	-0,18
206,04	4,97
206,304	3,81
206,568	4,8
206,833	4,39
207,097	5,55
207,361	7,42
207,626	12,37
207,89	12,63
208,154	13,87
208,419	15,7
208,683	16,07
208,947	19,14
209,211	19,61
209,476	19,56
209,74	21,96
210,004	19,93
210,268	19,95
210,532	22,88
210,796	22,89
211,061	23,76
211,325	24,64
211,589	23,05
211,853	24,4
212,117	25,86
212,381	26,24
212,645	27,22
212,909	27,46
213,173	24,65
213,437	24,03
213,701	24,6
213,965	23,2
214,229	18,89
214,493	20,38
214,757	20,38
215,021	20,93
215,285	24,85
215,549	27,24
215,813	23,31
216,077	22,48
216,34	23,42
216,604	21,99
216,868	22,31
217,132	23,52
217,396	22,8
217,659	21,54
217,923	15,74
218,187	16,8
218,451	16,74
218,714	13,64
218,978	14,72
219,242	16,51
219,505	16,25
219,769	17,39
220,033	18,02
220,296	18,96
220,56	20,01
220,824	16,05
221,087	16,02
221,351	16,81
221,614	16,89
221,878	17,63
222,142	16,62
222,405	15,87
222,669	18,01
222,932	13,92
223,196	11,22
223,459	8,32
223,722	9,11
223,986	8,95
224,249	8,02
224,513	8,98
224,776	10,01
225,04	10,2
225,303	8,95
225,566	8,5
225,83	11,21
226,093	13,75
226,356	12,75
226,62	10,51
226,883	13,2
227,146	13,33
227,409	13,18
227,673	11,21
227,936	10,57
228,199	10,37
228,462	7,84
228,725	6,88
228,989	7,81
229,252	9,01
229,515	14,75
229,778	14,41
230,041	14,27
230,304	12,13
230,567	14,83
230,83	12,11
231,093	15
231,356	14,63
231,619	19,03
231,882	17,95
232,145	19,92
232,408	19,97
232,671	18,14
232,934	17,36
233,197	16,33
233,46	14,61
233,723	15,49
233,986	13,47
234,249	12,18
234,512	13,43
234,775	17,88
235,037	16,18
235,3	14,79
235,563	14,99
235,826	16,29
236,089	18,81
236,351	17,63
236,614	20
236,877	20,31
237,14	22,53
237,402	20,94
237,665	13,96
237,928	12,23
238,19	10,16
238,453	13,16
238,716	10,91
238,978	10,67
239,241	9,83
239,503	13,19
239,766	9,67
240,029	6,84
240,291	9,92
240,554	9,05
240,816	8,44
241,079	9,29
241,341	8,85
241,604	8,2
241,866	5,4
242,129	5,57
242,391	7,93
242,653	5,98
242,916	5,79
243,178	5,59
243,441	6,99
243,703	5,33
243,965	2,74
244,228	1,99
244,49	2,94
244,752	3,89
245,015	4,13
245,277	5,64
245,539	6,05
245,801	7,41
246,064	7,9
246,326	6,58
246,588	5,91
246,85	9,04
247,112	9,18
247,374	11,38
247,637	13,66
247,899	13,2
248,161	13,43
248,423	7,89
248,685	8,61
248,947	8,8
249,209	10,3
249,471	9,89
249,733	11,48
249,995	10,51
250,257	11,38
250,519	9,42
250,781	13,3
251,043	10,02
251,305	11,61
251,567	12,55
251,829	13,33
252,091	14,07
252,353	11,09
252,615	11,18
252,876	7,81
253,138	6,37
253,4	2,45
253,662	3,81
253,924	5,72
254,185	7,12
254,447	8,13
254,709	7,92
254,971	7,96
255,232	9,68
255,494	6,74
255,756	5
256,017	6,05
256,279	6,96
256,541	6,74
256,802	6,69
257,064	7,29
257,326	4,95
257,587	7,12
257,849	9,13
258,11	11,83
258,372	13,04
258,633	14,85
258,895	12,63
259,156	11,72
259,418	10,73
259,679	6,92
259,941	5,49
260,202	8,7
260,464	12,05
260,725	10,66
260,987	10,73
261,248	9,15
261,509	9,7
261,771	7,56
262,032	9,66
262,293	8,54
262,555	8,13
262,816	6,31
263,077	3,74
263,338	2,91
263,6	3,73
263,861	1,84
264,122	0,15
264,383	2,21
264,645	3,2
264,906	1,52
265,167	0,79
265,428	-0,13
265,689	0,66
265,95	-3,69
266,211	-2,65
266,473	-4,28
266,734	-7,79
266,995	-9,04
267,256	-7,74
267,517	-6,37
267,778	-2,87
268,039	-1,42
268,3	-3,15
268,561	-6,33
268,822	-2,46
269,083	-5,49
269,344	-5,58
269,604	-6,28
269,865	-5,47
270,126	-9,62
270,387	-7,8
270,648	-6,16
270,909	-4,55
271,17	-4,58
271,43	-8,75
271,691	-11,3
271,952	-11,75
272,213	-7,8
272,473	-9,88
272,734	-7,17
272,995	-5,24
273,256	-3,28
273,516	-0,09
273,777	-3,06
274,038	0,75
274,298	-3,08
274,559	-3,25
274,82	1,2
275,08	3,04
275,341	5,58
275,601	6,44
275,862	5,5
276,122	5,92
276,383	5,02
276,643	7,48
276,904	5,33
277,164	9,73
277,425	11,22
277,685	15,68
277,946	15,9
278,206	17,19
278,467	18,57
278,727	18,38
278,987	17,13
279,248	16,71
279,508	18,71
279,768	21,42
280,029	22,12
280,289	16,88
280,549	16,03
280,81	14,39
281,07	14,49
281,33	14,96
281,59	12,83
281,851	15,65
282,111	14,5
282,371	14,39
282,631	15,49
282,891	14,56
283,151	12,31
283,412	8,96
283,672	6,36
283,932	5,48
284,192	6,92
284,452	6,39
284,712	3,3
284,972	2,7
285,232	-0
285,492	0,99
285,752	-3,07
286,012	3,54
286,272	6,35
286,532	2,33
286,792	2,01
287,052	3,94
287,312	4,65
287,571	3,86
287,831	5,12
288,091	2,39
288,351	4,36
288,611	8,1
288,871	8,27
289,13	7,69
289,39	4,48
289,65	4,85
289,91	0,83
290,17	2,33
290,429	5,96
290,689	4,16
290,949	1,74
291,208	4,4
291,468	7,82
291,728	10,63
291,987	13,17
292,247	9,12
292,506	11,79
292,766	14,5
293,026	12,87
293,285	15,57
293,545	17,72
293,804	18,05
294,064	13,95
294,323	10,45
294,583	11,26
294,842	10,95
295,102	11,71
295,361	11,23
295,621	11,58
295,88	10,58
296,139	10,76
296,399	11,97
296,658	6,17
296,917	6,48
297,177	3,71
297,436	5,69
297,695	5,7
297,955	8,82
298,214	8,41
298,473	9,83
298,732	11,73
298,992	13,41
299,251	11,37
299,51	6,92
299,769	7,31
300,028	6,66
300,287	8,38
300,547	8,46
300,806	6,9
301,065	9,92
301,324	10,15
301,583	6,1
301,842	3,38
302,101	0,73
302,36	1,44
302,619	0,8
302,878	1,32
303,137	-1,57
303,396	-0,23
303,655	1,87
303,914	0,03
304,173	1,15
304,432	-1,34
304,691	2,39
304,95	0,3
305,208	5,38
305,467	5,41
305,726	4,49
305,985	5,88
306,244	6,62
306,503	5,93
306,761	4,49
307,02	2,22
307,279	3,35
307,537	5,24
307,796	0,98
308,055	-2,77
308,314	-1,55
308,572	-3,77
308,831	-2,18
309,09	-1,9
309,348	-0,71
309,607	-0,17
309,865	3,93
310,124	3,76
310,382	4,56
310,641	6,2
310,9	5,51
311,158	6,18
311,417	6,28
311,675	6,57
311,933	5,91
312,192	8,03
312,45	8,46
312,709	8,94
312,967	8,38
313,226	7,98
313,484	7,22
313,742	5,59
314,001	2,5
314,259	0,98
314,517	1,59
314,776	4,23
315,034	6,69
315,292	5,55
315,55	2,44
315,809	3,08
316,067	4,63
316,325	2,67
316,583	3,46
316,841	1,83
317,1	-0,95
317,358	-5,62
317,616	-6,6
317,874	-7,29
318,132	-7,13
318,39	-7,12
318,648	-7,94
318,906	-9,23
319,164	-9,04
319,422	-10,34
319,68	-12,87
319,938	-11,54
320,196	-11,72
320,454	-9,6
320,712	-9,67
320,97	-9,04
321,228	-11,46
321,486	-9,89
321,744	-7,75
322,002	-5,1
322,26	-5,58
322,517	-6,34
322,775	-10,15
323,033	-11,81
323,291	-10,05
323,549	-6,28
323,806	-5,27
324,064	-4,27
324,322	-1,32
324,58	-2,66
324,837	-1,73
325,095	-2,14
325,353	0,86
325,61	2,83
325,868	2,66
326,126	4,55
326,383	4,3
326,641	3,55
326,898	6,95
327,156	7,22
327,413	6,91
327,671	7,77
327,928	10,16
328,186	9,62
328,443	8,07
328,701	11,06
328,958	12,34
329,216	12,91
329,473	11,1
329,731	11,86
329,988	11,01
330,245	12,78
330,503	13,72
330,76	14,9
331,017	17,65
331,275	14,5
331,532	14,2
331,789	12,21
332,047	11,37
332,304	8,39
332,561	8,56
332,818	9,24
333,076	11,09
333,333	11,25
333,59	11,21
333,847	11,95
334,104	9,74
334,361	8,41
334,618	7,33
334,876	4,6
335,133	4,3
335,39	3,1
335,647	4,36
335,904	1,02
336,161	-2,38
336,418	-2,41
336,675	-7,25
336,932	-5,86
337,189	-5,65
337,446	-6,38
337,703	-8,65
337,96	-11,68
338,216	-12,57
338,473	-15,2
338,73	-15,45
338,987	-16,63
339,244	-12,73
339,501	-14,74
339,757	-13,26
340,014	-12,37
340,271	-11,78
340,528	-10,99
340,785	-8,37
341,041	-8,52
341,298	-10,26
341,555	-10,65
341,811	-11,64
342,068	-13,32
342,325	-12,56
342,581	-8,84
342,838	-7,32
343,094	-8,24
343,351	-8,02
343,608	-9,96
343,864	-8,17
344,121	-5,66
344,377	-6,2
344,634	-6,7
344,89	-9,24
345,147	-10,9
345,403	-9,83
345,66	-8,02
345,916	-4,97
346,172	-5,86
346,429	-6,81
346,685	-7,07
346,942	-6,98
347,198	-11,18
347,454	-9,79
347,711	-9,88
347,967	-12,38
348,223	-11,96
348,48	-12,14
348,736	-8,23
348,992	-6,78
349,248	-3,96
349,504	-3,84
349,761	-3,1
350,017	-2,16
350,273	-2,91
350,529	-4,3
350,785	-5,66
351,041	-5,75
351,297	-4,47
351,554	-6,46
351,81	-7,94
352,066	-8,98
352,322	-9,34
352,578	-8,1
352,834	-7,52
353,09	-6,62
353,346	-4,85
353,602	-6,76
353,858	-8,95
354,114	-9,95
354,369	-8,44
354,625	-7,05
354,881	-9,05
355,137	-7,16
355,393	-8,42
355,649	-7,63
355,905	-5,78
356,16	-5,51
356,416	-4,48
356,672	-12,42
356,928	-12,67
357,183	-14,05
357,439	-14,36
357,695	-17,11
357,951	-12,89
358,206	-12,77
358,462	-13,04
358,718	-13,77
358,973	-11,25
359,229	-10,2
359,484	-8,48
359,74	-6,48
359,996	-5,12
360,251	-1,82
360,507	-2,44
360,762	-3,46
361,018	-1,77
361,273	-5,31
361,529	-4,67
361,784	-4,66
362,04	-3,27
362,295	-3,73
362,55	-3,53
362,806	-1,62
363,061	-0,52
363,316	2,27
363,572	2,04
363,827	2,36
364,082	-0,22
364,338	0,44
364,593	1,02
364,848	1,15
365,104	0,42
365,359	3,03
365,614	5,27
365,869	2,32
366,124	3,01
366,38	1,01
366,635	2,58
366,89	3,37
367,145	2,81
367,4	6,46
367,655	6,55
367,91	5,91
368,165	4,17
368,42	2,02
368,675	4,72
368,93	5,18
369,185	2,83
369,44	3,55
369,695	6,82
369,95	6,04
370,205	6,58
370,46	4,93
370,715	5,01
370,97	5,4
371,225	4,58
371,48	6,55
371,734	7,66
371,989	8,94
372,244	8,42
372,499	9,83
372,754	9,3
373,008	6,56
373,263	1,65
373,518	3,95
373,773	2,43
374,027	0,67
374,282	3,87
374,537	4,64
374,791	4,62
375,046	4,16
375,301	2,01
375,555	0,1
375,81	1,91
376,064	3,64
376,319	7,04
376,573	4,84
376,828	0,13
377,082	4,79
377,337	2,66
377,591	-0,68
377,846	0,9
378,1	2,18
378,355	3,2
378,609	2,61
378,863	-0,45
379,118	0,81
379,372	-1,34
379,627	-3,37
379,881	-4,66
380,135	-5,16
380,389	-4,19
380,644	-5,1
380,898	-3,2
381,152	-0,02
381,407	-1,49
381,661	0,87
381,915	2,83
382,169	3,05
382,423	3,18
382,677	1,63
382,932	2,83
383,186	4,11
383,44	5,38
383,694	7,34
383,948	4,05
384,202	2,76
384,456	5,09
384,71	8,73
384,964	8,24
385,218	9,85
385,472	11,12
385,726	11,01
385,98	10,46
386,234	11,06
386,488	8,46
386,742	9,99
386,996	8,51
387,249	9,04
387,503	10,92
387,757	11,57
388,011	12,28
388,265	10,22
388,518	11,73
388,772	13,88
389,026	13,47
389,28	10,84
389,533	10,66
389,787	12,23
390,041	9,62
390,295	8,75
390,548	8,63
390,802	10,63
391,055	8,28
391,309	7,78
391,563	4,69
391,816	6,9
392,07	5,61
392,323	5,92
392,577	7,36
392,83	7,1
393,084	12,73
393,337	15,84
393,591	15,74
393,844	15,01
394,098	17,05
394,351	21,46
394,604	23,86
394,858	25,28
395,111	26,43
395,364	23,25
395,618	25,78
395,871	23,33
396,124	23,52
396,378	22,64
396,631	22,06
396,884	19,37
397,137	19,91
397,391	20,78
397,644	17,73
397,897	19,22
398,15	20,25
398,403	21,49
398,657	19,79
398,91	20,55
399,163	20,52
399,416	20,31
399,669	18,37
399,922	17,1
400,175	15,44
400,428	13,12
400,681	14,3
400,934	9,99
401,187	8,98
401,44	8,5
401,693	7,27
401,946	4,45
402,199	-0,37
402,452	-2,29
402,704	-6,56
402,957	-8,15
403,21	-4,93
403,463	-6,83
403,716	-4,82
403,969	-3,99
404,221	-4,76
404,474	-3,32
404,727	1,29
404,98	4,2
405,232	3,95
405,485	6,24
405,738	7,79
405,99	7,75
406,243	8,78
406,496	10,31
406,748	10,13
407,001	9,46
407,253	10,58
407,506	10,7
407,759	12,09
408,011	9,01
408,264	9,62
408,516	10,52
408,769	8,54
409,021	9,04
409,274	8,65
409,526	11,16
409,778	11,25
410,031	15,14
410,283	15,21
410,536	20,51
410,788	19,79
411,04	19,11
411,293	21,33
411,545	21,87
411,797	20,9
412,049	21,08
412,302	21,21
412,554	21,51
412,806	19,54
413,058	16,59
413,311	16,83
413,563	15,73
413,815	15,6
414,067	13,19
414,319	12,04
414,571	12,01
414,823	9,89
415,075	8,62
415,328	9,32
415,58	12,9
415,832	16,37
416,084	17,2
416,336	15,09
416,588	19,57
416,84	17,41
417,091	21,39
417,343	18,34
417,595	19,74
417,847	19,65
418,099	21,76
418,351	20,69
418,603	22,31
418,855	22,85
419,106	22,81
419,358	22,42
419,61	22,64
419,862	23,16
420,114	21,65
420,365	21,06
420,617	21,82
420,869	20,42
421,12	19,81
421,372	19,96
421,624	18,72
421,875	18,84
422,127	16,86
422,379	17,29
422,63	21,61
422,882	21,13
423,133	21,19
423,385	20,4
423,636	20,81
423,888	22,96
424,139	24,39
424,391	21,72
424,642	21,02
424,894	18,25
425,145	18,08
425,396	15,34
425,648	18,05
425,899	16,37
426,151	16,3
426,402	17,06
426,653	16,89
426,905	16,09
427,156	13,7
427,407	13,04
427,658	11,91
427,91	10,25
428,161	9,16
428,412	10,74
428,663	12,54
428,914	13,64
429,166	15,21
429,417	16,82
429,668	15,66
429,919	12,69
430,17	12,42
430,421	11,38
430,672	14,4
430,923	14,06
431,174	13,41
431,425	12,56
431,676	10,34
431,927	8,3
432,178	8,34
432,429	8,08
432,68	8,01
432,931	11,71
433,182	14,75
433,433	11,58
433,683	12,78
433,934	11,17
434,185	7,18
434,436	6,3
434,687	8,01
434,937	10,7
435,188	10,53
435,439	11,71
435,69	13,76
435,94	12,03
436,191	12,76
436,442	13,42
436,692	11,52
436,943	8,53
437,194	6,95
437,444	10,05
437,695	14,57
437,945	14,58
438,196	13,88
438,447	12,71
438,697	13,56
438,948	12,39
439,198	9,87
439,449	7,74
439,699	7,47
439,949	8,12
440,2	7,72
440,45	9,23
440,701	8,45
440,951	8,55
441,201	10,31
441,452	8,68
441,702	8,39
441,952	11,03
442,203	11,65
442,453	8,81
442,703	9,49
442,953	11,55
443,204	12,52
443,454	10,66
443,704	12,4
443,954	9,64
444,204	10,08
444,455	13,16
444,705	15,61
444,955	16,38
445,205	15,23
445,455	13,34
445,705	14,38
445,955	14,52
446,205	15,21
446,455	16,62
446,705	18,69
446,955	20,76
447,205	22,96
447,455	25,97
447,705	24,55
447,955	25,16
448,205	26,06
448,454	25,5
448,704	26,17
448,954	24,6
449,204	25,21
449,454	28,38
449,704	28,33
449,953	29,17
450,203	33,09
450,453	31,7
450,703	33,96
450,952	32,47
451,202	34,15
451,452	34,78
451,701	38,02
451,951	42,39
452,201	41,91
452,45	41,64
452,7	44,61
452,949	44,65
453,199	45,39
453,448	48,61
453,698	51,31
453,947	50,43
454,197	49,22
454,446	48,06
454,696	50,52
454,945	50,26
455,195	49,93
455,444	51,2
455,693	54,87
455,943	53,48
456,192	54,75
456,442	55,15
456,691	56,17
456,94	56,33
457,189	53,8
457,439	56,28
457,688	56,94
457,937	56,9
458,186	57,58
458,436	57,35
458,685	60,2
458,934	59,35
459,183	58,63
459,432	60,53
459,681	60,23
459,93	59,08
460,179	59,57
460,429	57,4
460,678	61,68
460,927	64,84
461,176	62,71
461,425	61,81
461,674	64,21
461,923	64,62
462,172	64,68
462,42	63,66
462,669	66,03
462,918	64,94
463,167	64,48
463,416	61,88
463,665	62,05
463,914	62,17
464,162	61,79
464,411	63,52
464,66	65,49
464,909	65,64
465,158	65,37
465,406	64,68
465,655	66,03
465,904	68,03
466,152	68,15
466,401	67,65
466,65	69,8
466,898	69,38
467,147	64,12
467,395	63,21
467,644	65,72
467,893	64,3
468,141	62,97
468,39	59,15
468,638	56,17
468,887	54,58
469,135	54,16
469,384	53,91
469,632	53,84
469,88	52,51
470,129	53,81
470,377	51,41
470,626	54,48
470,874	57,66
471,122	58,28
471,371	57,52
471,619	56,29
471,867	58,43
472,115	58,21
472,364	55,51
472,612	56,47
472,86	55,22
473,108	55,8
473,356	55
473,605	54,29
473,853	50,6
474,101	48,25
474,349	46,85
474,597	48,92
474,845	48,39
475,093	46,57
475,341	44,27
475,589	44,69
475,837	46,05
476,085	47,92
476,333	47,15
476,581	48,67
476,829	47,63
477,077	49,69
477,325	49,71
477,573	52,14
477,821	49,96
478,069	50,17
478,317	49,39
478,564	50,47
478,812	48,66
479,06	47,29
479,308	46,33
479,555	45,4
479,803	43,42
480,051	45,77
480,299	47,44
480,546	46,82
480,794	44,6
481,042	44,33
481,289	42,21
481,537	43,37
481,784	43,15
482,032	46,06
482,28	45,84
482,527	46,23
482,775	47,53
483,022	47,87
483,27	49,39
483,517	53,26
483,765	51,28
484,012	50,48
484,259	48,31
484,507	50,48
484,754	50,07
485,002	50,18
485,249	49,11
485,496	52,44
485,744	51,17
485,991	50,18
486,238	47,52
486,486	51,21
486,733	52,61
486,98	55,96
487,227	53,91
487,474	56,22
487,722	57,5
487,969	54,68
488,216	55,52
488,463	55,87
488,71	54,69
488,957	54,98
489,204	56,12
489,451	59,08
489,699	58,29
489,946	54,46
490,193	54,22
490,44	53,49
490,687	53,88
490,934	51,35
491,18	47,24
491,427	49,59
491,674	53,06
491,921	54,33
492,168	53,36
492,415	51,83
492,662	53,09
492,909	54,13
493,155	53,1
493,402	51,97
493,649	49,68
493,896	51,56
494,142	46,89
494,389	47,1
494,636	45,31
494,883	44,77
495,129	42,09
495,376	40,8
495,623	43,1
495,869	45,25
496,116	47,29
496,362	48,81
496,609	52,88
496,855	57,75
497,102	56,55
497,348	56,68
497,595	59,11
497,841	63,27
498,088	62,42
498,334	61,11
498,581	61,56
498,827	62,32
499,074	62,84
499,32	64
499,566	68,25
499,813	68,62
500,059	66,83
500,305	67,39
500,552	68,02
500,798	66,46
501,044	71,77
501,29	71,96
501,537	69,07
501,783	72,18
502,029	75,6
502,275	73,49
502,521	72,76
502,767	74,73
503,013	78,03
503,26	74,07
503,506	71,17
503,752	73,07
503,998	71,89
504,244	70,85
504,49	67,86
504,736	69,01
504,982	67,92
505,228	69,97
505,474	71,63
505,72	73,15
505,966	72,68
506,211	74,72
506,457	75,19
506,703	72,58
506,949	71,21
507,195	68,5
507,441	65,66
507,686	68,26
507,932	67,73
508,178	69,06
508,424	67,9
508,669	64,98
508,915	66,6
509,161	69,74
509,406	71,21
509,652	69,46
509,898	72,87
510,143	73,43
510,389	72,41
510,634	68,42
510,88	72,94
511,125	75
511,371	74,62
511,616	75,04
511,862	72,3
512,107	69,27
512,353	69,91
512,598	71,99
512,844	69,68
513,089	66,07
513,335	67,29
513,58	67,98
513,825	68,8
514,071	68,36
514,316	68,21
514,561	69,15
514,806	67,93
515,052	70,96
515,297	70,22
515,542	71,88
515,787	72,07
516,033	75,86
516,278	76,69
516,523	75,35
516,768	73,21
517,013	70,6
517,258	70,53
517,503	69,72
517,748	68,9
517,993	67,66
518,238	67,16
518,483	65,53
518,728	63,82
518,973	61,91
519,218	61,5
519,463	63,34
519,708	64,15
519,953	62,75
520,198	60,63
520,443	63,22
520,688	67,4
520,933	66,07
521,177	66,86
521,422	64,9
521,667	67,41
521,912	67,63
522,157	64,46
522,401	67,08
522,646	67,99
522,891	67,52
523,135	67,04
523,38	67,01
523,625	65,07
523,869	66,27
524,114	68,34
524,358	68,78
524,603	68,8
524,848	67,18
525,092	66,29
525,337	70,36
525,581	72,59
525,826	75,98
526,07	77,19
526,315	79,36
526,559	78,68
526,803	77,28
527,048	80,79
527,292	79,96
527,537	80,69
527,781	80,81
528,025	78,12
528,269	78,61
528,514	78,96
528,758	78,46
529,002	78,41
529,247	80,98
529,491	81,44
529,735	85,86
529,979	85,41
530,223	85,55
530,467	84,23
530,712	82,51
530,956	82,27
531,2	83,51
531,444	82,1
531,688	82,88
531,932	82,28
532,176	84,05
532,42	85,67
532,664	86,78
532,908	83,42
533,152	82,05
533,396	80,93
533,64	80,3
533,884	77,19
534,128	77,02
534,371	78,71
534,615	78,03
534,859	78,97
535,103	77,32
535,347	76,81
535,59	78,97
535,834	74,32
536,078	76,16
536,322	77,08
536,565	80,59
536,809	78,63
537,053	79,62
537,296	77,62
537,54	76,21
537,784	74,45
538,027	76,52
538,271	75,79
538,514	73,71
538,758	73,14
539,001	70,73
539,245	71,43
539,488	72,15
539,732	73,83
539,975	74,18
540,219	75,9
540,462	76,42
540,706	78,44
540,949	77,26
541,192	78,75
541,436	85,8
541,679	92,08
541,922	92,88
542,166	88,73
542,409	88,04
542,652	89,47
542,895	90,89
543,139	91,1
543,382	95,65
543,625	94,81
543,868	94,66
544,111	91,76
544,354	90,03
544,598	89,44
544,841	90,2
545,084	90,62
545,327	91,22
545,57	92,12
545,813	94,52
546,056	96,24
546,299	96,33
546,542	100,26
546,785	101,59
547,028	102,21
547,271	100,72
547,514	99,63
547,756	97,42
547,999	99,36
548,242	101,4
548,485	100,38
548,728	99,89
548,971	93,98
549,213	93,42
549,456	92,43
549,699	93,27
549,942	93,64
550,184	92,99
550,427	92,9
550,67	92,89
550,912	87,79
551,155	88,57
551,398	88,33
551,64	88,17
551,883	89,47
552,125	88,93
552,368	89,53
552,61	87,07
552,853	89,45
553,095	88,04
553,338	87,09
553,58	86,77
553,823	86,2
554,065	87,16
554,308	83,4
554,55	81,08
554,792	79,75
555,035	78,65
555,277	78,66
555,519	77,24
555,762	73,27
556,004	74,07
556,246	69,98
556,488	72,28
556,731	68,32
556,973	69,25
557,215	68,46
557,457	70,58
557,699	73,53
557,941	71,06
558,183	71,18
558,426	74,66
558,668	70,71
558,91	72,21
559,152	72,38
559,394	71,55
559,636	73,37
559,878	73,02
560,12	73,63
560,362	73,78
560,604	74,1
560,845	72,85
561,087	71,19
561,329	73,9
561,571	71,9
561,813	72,83
562,055	72,46
562,297	72,81
562,538	74,88
562,78	77,42
563,022	76,29
563,264	78,53
563,505	78,41
563,747	80,82
563,989	77,82
564,23	77,41
564,472	76,52
564,714	79,48
564,955	79,95
565,197	78,27
565,438	81,2
565,68	83,85
565,921	81,87
566,163	84,49
566,404	81,73
566,646	84,68
566,887	86,2
567,129	87,69
567,37	86,32
567,612	88,26
567,853	86,08
568,094	86,67
568,336	88,22
568,577	89,54
568,818	89,59
569,06	86,7
569,301	84,74
569,542	86,54
569,783	87,74
570,025	87,23
570,266	87,76
570,507	89,2
570,748	88,6
570,989	89,93
571,23	91,93
571,472	92,46
571,713	92,23
571,954	92,77
572,195	91,28
572,436	92,56
572,677	93,95
572,918	94,69
573,159	92,25
573,4	90,9
573,641	90,71
573,882	93,33
574,123	91,07
574,364	85,93
574,604	86,09
574,845	85,15
575,086	85,18
575,327	85,32
575,568	84,87
575,809	84,36
576,049	84,7
576,29	81,96
576,531	88,95
576,771	92,69
577,012	93,1
577,253	93,76
577,494	93,81
577,734	92,89
577,975	93,89
578,215	93,68
578,456	91,41
578,697	91,79
578,937	94,58
579,178	94,3
579,418	94,09
579,659	93,81
579,899	89,1
580,14	87,87
580,38	87,97
580,62	88,58
580,861	91,83
581,101	91,24
581,342	90,94
581,582	86,21
581,822	88,83
582,063	87,67
582,303	89,02
582,543	89,29
582,783	91,33
583,024	93,07
583,264	96,33
583,504	93,55
583,744	96,13
583,984	92,75
584,224	93,14
584,465	93,87
584,705	94,18
584,945	94,44
585,185	95,12
585,425	96,36
585,665	96,43
585,905	96,68
586,145	96,27
586,385	94,56
586,625	97,89
586,865	95,8
587,105	96,33
587,345	98,55
587,585	99,19
587,824	97,96
588,064	98,25
588,304	96,7
588,544	96,41
588,784	93,76
589,024	96,36
589,263	96,82
589,503	95,3
589,743	98,84
589,982	98,15
590,222	98,23
590,462	95,89
590,701	92,55
590,941	96,5
591,181	95,21
591,42	95,55
591,66	96,74
591,899	99,29
592,139	98,99
592,378	99,33
592,618	96,93
592,857	96,86
593,097	97,47
593,336	98,99
593,576	98,81
593,815	100,15
594,055	98,91
594,294	101,43
594,533	101,23
594,773	101,32
595,012	102,26
595,251	102,86
595,491	106,31
595,73	108,78
595,969	111,47
596,208	114,5
596,447	121,37
596,687	122,19
596,926	122,44
597,165	117,58
597,404	119,78
597,643	119,39
597,882	118,32
598,121	118,74
598,36	119,67
598,599	121,05
598,838	120,26
599,077	117,24
599,316	117,01
599,555	115,8
599,794	116,63
600,033	119,05
600,272	118,44
600,511	116,59
600,75	116,72
600,989	117,23
601,228	116,51
601,466	115,85
601,705	115,09
601,944	115,21
602,183	117,73
602,422	116,4
602,66	115,84
602,899	113,49
603,138	113,15
603,376	111,41
603,615	110,63
603,854	107,58
604,092	107,2
604,331	109,59
604,569	111,65
604,808	110,3
605,047	111,28
605,285	111,59
605,524	111,69
605,762	109,3
606	111,25
606,239	112,37
606,477	113,35
606,716	109,05
606,954	108,32
607,193	104,14
607,431	100,28
607,669	100,19
607,908	100,18
608,146	102,79
608,384	102,48
608,622	103,12
608,861	103,34
609,099	102,98
609,337	102,81
609,575	102,29
609,813	102,9
610,052	101,55
610,29	96,01
610,528	93,89
610,766	93,27
611,004	93,03
611,242	91,72
611,48	91,32
611,718	89,17
611,956	88,82
612,194	87,58
612,432	85,93
612,67	85,9
612,908	88,48
613,146	86,2
613,384	83,31
613,621	81,82
613,859	81,11
614,097	80,51
614,335	80,91
614,573	82,21
614,811	84,06
615,048	82,1
615,286	82,29
615,524	79,4
615,761	76,3
615,999	74,81
616,237	73,87
616,474	76,08
616,712	77,73
616,95	75,4
617,187	73,77
617,425	75,3
617,662	77,31
617,9	76,27
618,137	73,66
618,375	72,44
618,612	69,81
618,85	72,04
619,087	74,28
619,325	73,7
619,562	71,78
619,799	69,9
620,037	69,16
620,274	66,32
620,511	68,38
620,749	65,36
620,986	64,12
621,223	62,16
621,461	62,57
621,698	63,28
621,935	62,53
622,172	61,35
622,409	64,23
622,647	62,64
622,884	62,25
623,121	64,17
623,358	63,38
623,595	63,55
623,832	62,57
624,069	59,04
624,306	57,92
624,543	60,41
624,78	61,44
625,017	61,07
625,254	62,91
625,491	65,84
625,728	67,85
625,965	69,05
626,202	66,96
626,438	64,37
626,675	63,11
626,912	65,2
627,149	66,14
627,386	65,93
627,622	64,73
627,859	64,38
628,096	66,18
628,333	66,73
628,569	67,74
628,806	68,9
629,043	68,8
629,279	70,41
629,516	72,35
629,752	67,55
629,989	69,23
630,225	66,3
630,462	65,26
630,699	65,35
630,935	65,62
631,171	64,38
631,408	64,69
631,644	63,28
631,881	59,94
632,117	57,88
632,354	59,24
632,59	56,73
632,826	55,95
633,063	54,3
633,299	55,47
633,535	53,36
633,771	51,34
634,008	53,81
634,244	54,06
634,48	51,58
634,716	53,15
634,953	53,27
635,189	51,97
635,425	53,67
635,661	55,25
635,897	54,44
636,133	54,73
636,369	55,31
636,605	51,49
636,841	49,96
637,077	50,95
637,313	50,27
637,549	52,59
637,785	52,15
638,021	52,23
638,257	51,05
638,493	52,81
638,729	51,84
638,965	55,96
639,2	58,11
639,436	57,87
639,672	57,32
639,908	55,9
640,144	60,16
640,379	63,35
640,615	60,09
640,851	61,62
641,086	63,86
641,322	62
641,558	61,7
641,793	63,93
642,029	62,57
642,264	60,63
642,5	61,4
642,736	56,94
642,971	58,69
643,207	56,84
643,442	53,17
643,678	52,81
643,913	55,56
644,148	54,57
644,384	58,26
644,619	58,2
644,855	58,21
645,09	60,19
645,325	59,98
645,561	60,1
645,796	57,58
646,031	59,92
646,266	56,64
646,502	54,78
646,737	55,28
646,972	54,09
647,207	55,34
647,442	52,12
647,678	48,7
647,913	52,52
648,148	53,73
648,383	51,66
648,618	52,1
648,853	53,11
649,088	55,17
649,323	56,31
649,558	57,57
649,793	57,63
650,028	58,17
650,263	53,06
650,498	55,62
650,733	55,51
650,968	53,99
651,202	54,81
651,437	53,28
651,672	49,04
651,907	48,14
652,142	48,13
652,376	48,13
652,611	49,56
652,846	49,19
653,081	47,7
653,315	46,54
653,55	45,77
653,785	45,41
654,019	46,5
654,254	45,9
654,488	46,87
654,723	43,73
654,958	41,69
655,192	39,16
655,427	35,92
655,661	37,51
655,896	38,92
656,13	40,27
656,364	35,94
656,599	33,58
656,833	43,03
657,068	44,06
657,302	45,64
657,536	44,57
657,771	45,37
658,005	46,96
658,239	47,06
658,474	43,49
658,708	45,89
658,942	46,47
659,176	45,71
659,41	44,11
659,645	42,74
659,879	41,64
660,113	38,84
660,347	40,13
660,581	39,04
660,815	39,77
661,049	38,13
661,283	35,99
661,517	34,45
661,751	33,16
661,985	31,26
662,219	32,22
662,453	31,01
662,687	32,05
662,921	28,7
663,155	28,35
663,389	21,82
663,622	21,15
663,856	22,27
664,09	13,02
664,324	12,64
664,558	11,61
664,791	12,2
665,025	10,94
665,259	12
665,492	11,61
665,726	14,73
665,96	13,61
666,193	11,65
666,427	12,16
666,661	11,26
666,894	10,57
667,128	10,33
667,361	13,44
667,595	12,41
667,828	11,28
668,062	10,52
668,295	10,61
668,529	10,56
668,762	10,51
668,995	9,56
669,229	14,2
669,462	15,9
669,695	16,48
669,929	14,44
670,162	15,26
670,395	13,26
670,629	14,65
670,862	16,72
671,095	13,9
671,328	14,13
671,561	10,88
671,795	12,09
672,028	11,89
672,261	13,34
672,494	12,76
672,727	10,52
672,96	11,94
673,193	10,13
673,426	15,02
673,659	16,28
673,892	16,81
674,125	15,93
674,358	14,74
674,591	13,16
674,824	12,75
675,057	12,74
675,29	12,39
675,523	15,09
675,755	14,01
675,988	15,39
676,221	18,35
676,454	16,87
676,687	16,24
676,919	15,94
677,152	17,73
677,385	17,06
677,617	17,92
677,85	19,3
678,083	18,5
678,315	21,38
678,548	18,57
678,78	18,48
679,013	17,76
679,246	18,05
679,478	17,98
679,711	15,84
679,943	18,1
680,175	13,89
680,408	18,57
680,64	12,54
680,873	12,34
681,105	12,83
681,338	15,49
681,57	14,19
681,802	15,91
682,034	16,18
682,267	18,91
682,499	19,91
682,731	16,11
682,964	14,39
683,196	12,94
683,428	10,53
683,66	8,69
683,892	12,55
684,124	13,75
684,356	16,35
684,589	17,77
684,821	14,99
685,053	15,05
685,285	15,43
685,517	16,83
685,749	18,72
685,981	19,71
686,213	20,16
686,445	20,57
686,676	16,97
686,908	18,16
687,14	18,46
687,372	20,93
687,604	17,1
687,836	19,18
688,068	18,49
688,299	17,68
688,531	14,87
688,763	20,72
688,995	18,33
689,226	19,95
689,458	18,1
689,69	15,99
689,921	15,31
690,153	16,02
690,384	16,18
690,616	13,87
690,848	14,78
691,079	11,23
691,311	8,72
691,542	5,25
691,774	2,54
692,005	6,4
692,237	8,7
692,468	6,14
692,699	5,42
692,931	5,72
693,162	4,76
693,393	3,02
693,625	1,65
693,856	4,3
694,087	4,57
694,319	4,32
694,55	3,14
694,781	3,12
695,012	2,77
695,243	2,14
695,475	0,84
695,706	0,52
695,937	-0,74
696,168	-1,31
696,399	-3,1
696,63	-3,23
696,861	-2,37
697,092	2,51
697,323	4,5
697,554	6,98
697,785	9,3
698,016	10,57
698,247	8,75
698,478	10,92
698,709	13,63
698,94	17,17
699,171	16,54
699,401	12,89
699,632	16,14
699,863	12,73
700,094	12,83
700,325	14,55
700,555	16,08
700,786	18,85
701,017	17,91
701,247	18,02
701,478	18,07
701,709	18,66
701,939	17,08
702,17	20,04
702,401	21,81
702,631	24
702,862	22,96
703,092	18,86
703,323	22,12
703,553	23,51
703,784	23,1
704,014	23,17
704,244	18,55
704,475	18,54
704,705	18,37
704,936	17,97
705,166	16,88
705,396	17,69
705,627	17,41
705,857	16,51
706,087	15,95
706,317	12,68
706,548	10,61
706,778	8,59
707,008	9,71
707,238	9,79
707,468	7,96
707,698	5,93
707,928	3,95
708,158	1,54
708,389	0,06
708,619	-0,95
708,849	-2,42
709,079	-0,82
709,309	-4,45
709,539	-7,54
709,768	-7,91
709,998	-5,04
710,228	-4,71
710,458	-6,8
710,688	-9,46
710,918	-8,69
711,148	-9,2
711,378	-8,75
711,607	-9,8
711,837	-10,14
712,067	-9,28
712,297	-10,5
712,526	-10
712,756	-8,84
712,986	-11,37
713,215	-12,57
713,445	-11,27
713,674	-9,35
713,904	-8,97
714,134	-5,7
714,363	-6,74
714,593	-7,14
714,822	-8,15
715,052	-8,59
715,281	-5,83
715,511	-7,32
715,74	-7,42
715,969	-8,27
716,199	-9,43
716,428	-8,12
716,657	-7,23
716,887	-4,71
717,116	-7,51
717,345	-6,08
717,575	-4,52
717,804	-3,92
718,033	-6,34
718,262	-6,34
718,492	-5,84
718,721	-5,32
718,95	-5,49
719,179	-8,07
719,408	-7
719,637	-10,9
719,866	-12,48
720,095	-11,77
720,324	-13,48
720,553	-17,06
720,782	-18,33
721,011	-18,7
721,24	-21,8
721,469	-22,39
721,698	-21,69
721,927	-20,19
722,156	-20,88
722,385	-22,69
722,613	-18,24
722,842	-16,67
723,071	-14,98
723,3	-12,85
723,529	-13,93
723,757	-14,36
723,986	-18,1
724,215	-18,83
724,443	-17,06
724,672	-16,24
724,901	-14,74
725,129	-12,49
725,358	-8,86
725,586	-11,07
725,815	-10,83
726,043	-11,96
726,272	-13,26
726,5	-12,88
726,729	-10,74
726,957	-14,51
727,186	-15,58
727,414	-13,97
727,642	-10,56
727,871	-8,97
728,099	-8,89
728,327	-9,18
728,556	-7,37
728,784	-7,45
729,012	-9,4
729,241	-5,3
729,469	-5,91
729,697	-9,71
729,925	-10,3
730,153	-9,77
730,381	-10,92
730,61	-10,57
730,838	-12,56
731,066	-12,53
731,294	-12,03
731,522	-16,5
731,75	-20,42
731,978	-21,53
732,206	-22,65
732,434	-25,04
732,662	-22,56
732,89	-25,08
733,118	-24,24
733,346	-23,39
733,573	-22,82
733,801	-22,3
734,029	-14,4
734,257	-14,12
734,485	-11,91
734,712	-11,16
734,94	-13,09
735,168	-10,46
735,396	-9,84
735,623	-12,91
735,851	-11
736,078	-9,09
736,306	-10,39
736,534	-10,06
736,761	-8,27
736,989	-11,62
737,216	-11,76
737,444	-11,64
737,671	-11,11
737,899	-5,25
738,126	-4,59
738,354	-4,66
738,581	-2,77
738,809	-1,34
739,036	-3,7
739,263	-3,24
739,491	-5,44
739,718	-5,18
739,945	-0,91
740,173	-0,91
740,4	-0,46
740,627	-3,02
740,854	-3,27
741,081	-6,34
741,309	-7,04
741,536	-9,21
741,763	-11,49
741,99	-10,86
742,217	-11,21
742,444	-12,48
742,671	-8,55
742,898	-9,37
743,125	-11,07
743,352	-13,7
743,579	-13,42
743,806	-14,72
744,033	-10,21
744,26	-10,59
744,487	-12,4
744,714	-11,61
744,941	-12,28
745,167	-9,35
745,394	-10,66
745,621	-10,66
745,848	-10,5
746,075	-6,61
746,301	-3,33
746,528	-0
746,755	-1,27
746,981	-1,62
747,208	0,38
747,435	3,7
747,661	5,19
747,888	6,67
748,114	3,85
748,341	6,36
748,567	7,68
748,794	6,86
749,02	7,72
749,247	4,79
749,473	5,23
749,7	4,24
749,926	3,21
750,152	7,3
750,379	8,47
750,605	8,71
750,831	8,56
751,058	5,71
751,284	3,95
751,51	7,57
751,737	8,93
751,963	6,2
752,189	5,69
752,415	6,43
752,641	5,03
752,867	4,69
753,094	2,42
753,32	1,97
753,546	0,9
753,772	1,68
753,998	0,28
754,224	-0,85
754,45	-2,41
754,676	-3,17
754,902	-4,53
755,128	-4,55
755,354	-5,4
755,579	-4,29
755,805	-3,34
756,031	-5,71
756,257	-5,39
756,483	-5,26
756,709	-7,1
756,934	-6,7
757,16	-9,27
757,386	-8,89
757,612	-11,2
757,837	-12,48
758,063	-10,38
758,289	-7,74
758,514	-9,89
758,74	-14,55
758,965	-16,38
759,191	-15,77
759,416	-14,68
759,642	-12,22
759,868	-12,22
760,093	-10,07
760,318	-11,88
760,544	-11,63
760,769	-11,29
760,995	-12,8
761,22	-13,24
761,445	-12,91
761,671	-10,44
761,896	-7,39
762,121	-6,48
762,347	-6,97
762,572	-10,29
762,797	-9,56
763,022	-8,65
763,248	-5,38
763,473	-5,16
763,698	-5,84
763,923	-4,85
764,148	-5,78
764,373	-6,86
764,598	-4,88
764,823	-2,98
765,048	-4,41
765,273	-6,33
765,498	-7,07
765,723	-4,88
765,948	-3,4
766,173	-4,58
766,398	-3,12
766,623	-6,57
766,848	-6,79
767,073	-9,18
767,298	-10,55
767,522	-11,87
767,747	-11,01
767,972	-9,65
768,197	-10,15
768,421	-10,95
768,646	-14,02
768,871	-18,52
769,095	-17,83
769,32	-16,46
769,545	-15,31
769,769	-13,95
769,994	-11,69
770,218	-13,93
770,443	-13,57
770,667	-10,82
770,892	-11,56
771,116	-11,91
771,341	-9,8
771,565	-9,87
771,79	-8,94
772,014	-10,14
772,238	-11,56
772,463	-8,8
772,687	-9,13
772,911	-9,53
773,136	-12,46
773,36	-11,18
773,584	-7,34
773,808	-9,81
774,033	-9,15
774,257	-8,54
774,481	-9,18
774,705	-10,91
774,929	-10,44
775,153	-9,49
775,377	-8,16
775,602	-7,54
775,826	-5,68
776,05	-3,9
776,274	-5,31
776,498	-5,74
776,722	-6,59
776,945	-6,01
777,169	-6,57
777,393	-7,64
777,617	-9,98
777,841	-8,68
778,065	-6,13
778,289	-8,33
778,512	-8,67
778,736	-8,79
778,96	-9,53
779,184	-6,28
779,407	-8,91
779,631	-7,6
779,855	-8
780,078	-5,67
780,302	-8,65
780,526	-11,95
780,749	-10,77
780,973	-8,14
781,196	-7,65
781,42	-8,85
781,643	-8,62
781,867	-9,34
782,09	-12,21
782,314	-13,71
782,537	-14,66
782,76	-16,08
782,984	-16,25
783,207	-16,21
783,431	-16,43
783,654	-19,05
783,877	-21,69
784,1	-22,65
784,324	-23,64
784,547	-23,5
784,77	-27,19
784,993	-29,72
785,216	-30,33
785,44	-30,32
785,663	-32,54
785,886	-28,24
786,109	-29,04
786,332	-28,82
786,555	-29,08
786,778	-27,86
787,001	-28,45
787,224	-25,81
787,447	-23,81
787,67	-22,14
787,893	-23,14
788,116	-23,49
788,339	-21,52
788,561	-20,9
788,784	-23,37
789,007	-24,68
789,23	-25,62
789,453	-25,83
789,675	-26,07
789,898	-27,44
790,121	-30,47
790,344	-30,19
790,566	-27,45
790,789	-26,61
791,012	-26,07
791,234	-23,31
791,457	-20,22
791,679	-19,44
791,902	-18,04
792,124	-17,22
792,347	-17,82
792,569	-16,34
792,792	-19,74
793,014	-16,96
793,237	-15,09
793,459	-14,63
793,681	-13,94
793,904	-15,32
794,126	-17,33
794,348	-19,34
794,571	-18,47
794,793	-20,07
795,015	-18,73
795,237	-20,24
795,46	-20,84
795,682	-20,07
795,904	-16,62
796,126	-17,66
796,348	-17,9
796,57	-14,38
796,792	-13,95
797,014	-8,87
797,237	-6,95
797,459	-5,28
797,681	-4,3
797,903	-4,67
798,124	-4,47
798,346	6,5
798,568	7,65
798,79	10,58
799,012	12,33
799,234	13,08
799,456	13,68
799,678	15,26
799,899	12,03
800,121	10
800,343	7,34
800,565	7,19
800,786	7,48
801,008	8,53
801,23	9,31
801,451	9,49
801,673	7,64
801,895	6,89
802,116	9,55
802,338	11,53
802,559	11,37
802,781	10,43
803,002	13,45
803,224	16,72
803,445	13,03
803,667	14,61
803,888	12,58
804,109	11,78
804,331	10,08
804,552	9,1
804,773	11,18
804,995	9,57
805,216	-5,06
805,437	-6,36
805,658	-9,44
805,88	-11,81
806,101	-10,48
806,322	-10,49
806,543	-11,54
806,764	-13,86
806,985	-12,49
807,207	-10,2
807,428	-11,35
807,649	-13,75
807,87	-15,54
808,091	-14,8
808,312	-14,4
808,533	-8,45
808,754	-7,5
808,975	-9,87
809,195	-8,84
809,416	-8,02
809,637	-9,37
809,858	-11,65
810,079	-15,66
810,3	-11,96
810,52	-12,87
810,741	-14,8
810,962	-16,37
811,183	-16,23
811,403	-14,99
811,624	-15,75
811,845	-14,44
812,065	-11,7
812,286	-10,81
812,506	-10,07
812,727	-10,65
812,948	-10
813,168	-9,58
813,389	-10,22
813,609	-8,12
813,83	-9,35
814,05	-10,85
814,27	-9,95
814,491	-5,81
814,711	-5,84
814,931	-8,87
815,152	-8,78
815,372	-10,73
815,592	-11,26
815,813	-12,16
816,033	-13,24
816,253	-11,88
816,473	-12,29
816,694	-10,31
816,914	-7,97
817,134	-10,27
817,354	-12,68
817,574	-12,11
817,794	-11,41
818,014	-12,42
818,234	-13,43
818,454	-14,43
818,674	-16,93
818,894	-19,43
819,114	-16,07
819,334	-17,02
819,554	-13,78
819,774	-11,99
819,994	-14,19
820,214	-14,36
820,433	-14,75
820,653	-14,96
820,873	-12,62
821,093	-12,47
821,312	-14,78
821,532	-12,11
821,752	-9,58
821,972	-12,3
822,191	-11,78
822,411	-12,68
822,63	-11,44
822,85	-11,84
823,07	-15,46
823,289	-13,35
823,509	-15,45
823,728	-13,93
823,948	-14,82
824,167	-14,88
824,387	-13,71
824,606	-12,91
824,825	-14,11
825,045	-14,42
825,264	-14,97
825,483	-12,91
825,703	-10,83
825,922	-14,36
826,141	-14,31
826,361	-14,53
826,58	-18,92
826,799	-19,6
827,018	-18,71
827,237	-18,23
827,456	-16,78
827,676	-16,68
827,895	-15,8
828,114	-13,67
828,333	-14,3
828,552	-12,99
828,771	-11,82
828,99	-14,92
829,209	-14,6
829,428	-12,22
829,647	-12,57
829,866	-9,81
830,084	-10,51
830,303	-10,22
830,522	-10,75
830,741	-9,86
830,96	-10,35
831,179	-10,07
831,397	-11,99
831,616	-11,04
831,835	-11,49
832,053	-10,52
832,272	-11
832,491	-9,97
832,709	-9,19
832,928	-9,19
833,147	-10,83
833,365	-9,09
833,584	-5,18
833,802	-2,72
834,021	-1,46
834,239	-0,36
834,458	-1,87
834,676	-6,02
834,894	-6,5
835,113	-7,28
835,331	-9,03
835,55	-8,75
835,768	-7,64
835,986	-6,51
836,204	-7,76
836,423	-6,13
836,641	-8,33
836,859	-9,2
837,077	-8,38
837,296	-8,91
837,514	-10,67
837,732	-11,01
837,95	-13
838,168	-9,17
838,386	-10,06
838,604	-7,88
838,822	-7,43
839,04	-7,32
839,258	-7,85
839,476	-7,4
839,694	-7,23
839,912	-7,1
840,13	-8,68
840,348	-7,42
840,566	-11,24
840,783	-10,23
841,001	-11,7
841,219	-11,81
841,437	-11,2
841,655	-11,2
841,872	-12,36
842,09	-12,51
842,308	-12,12
842,525	-11,12
842,743	-9,49
842,961	-10,64
843,178	-14,04
843,396	-9,41
843,613	-8,51
843,831	-7,57
844,048	-8,27
844,266	-7,33
844,483	-7,55
844,701	-8,65
844,918	-10,5
845,136	-11,61
845,353	-13,18
845,57	-12,4
845,788	-10,13
846,005	-11,99
846,222	-12,55
846,439	-11,19
846,657	-10,99
846,874	-9,77
847,091	-11,72
847,308	-9,53
847,526	-11,81
847,743	-12,92
847,96	-12,75
848,177	-11,52
848,394	-11,08
848,611	-11,51
848,828	-11,61
849,045	-12,59
849,262	-12,39
849,479	-14,53
849,696	-16,46
849,913	-16,61
850,13	-20,48
850,347	-17,98
850,564	-19,24
850,78	-19,89
850,997	-21,61
851,214	-20,83
851,431	-18,87
851,647	-22,08
851,864	-20,5
852,081	-18,08
852,298	-21,41
852,514	-22,94
852,731	-20,73
852,948	-18,41
853,164	-18,83
853,381	-19,41
853,597	-21,28
853,814	-23,25
854,03	-27,23
854,247	-25,29
854,463	-24,25
854,68	-25,14
854,896	-23,7
855,113	-23,84
855,329	-22,08
855,545	-19,88
855,762	-20,66
855,978	-24,03
856,194	-25,67
856,411	-21,86
856,627	-19,33
856,843	-19,29
857,059	-18,44
857,275	-18,96
857,492	-18,39
857,708	-13,89
857,924	-12,54
858,14	-10,27
858,356	-10,24
858,572	-10,07
858,788	-12,96
859,004	-10,9
859,22	-11,89
859,436	-12,94
859,652	-15,74
859,868	-16,71
860,084	-17,2
860,3	-15,83
860,516	-16,04
860,731	-14,6
860,947	-17,39
861,163	-15,04
861,379	-14,13
861,595	-13,77
861,81	-12,8
862,026	-14,18
862,242	-14,95
862,457	-15,56
862,673	-12,68
862,889	-12,36
863,104	-11,77
863,32	-13,07
863,535	-11,61
863,751	-15,81
863,966	-13,49
864,182	-10,89
864,397	-14,13
864,613	-16,08
864,828	-18,36
865,044	-16,51
865,259	-14,42
865,474	-14,56
865,69	-14,25
865,905	-14,21
866,12	-16,02
866,336	-16,1
866,551	-14,02
866,766	-14,81
866,981	-15,83
867,196	-16,21
867,412	-14,72
867,627	-14,53
867,842	-15,84
868,057	-16,6
868,272	-17,66
868,487	-18,6
868,702	-20,84
868,917	-21,03
869,132	-18,41
869,347	-19,39
869,562	-19,64
869,777	-20,6
869,992	-22,04
870,207	-22,87
870,422	-22,35
870,636	-24,38
870,851	-25,73
871,066	-27,01
871,281	-27,86
871,495	-28,58
871,71	-27,33
871,925	-30,22
872,14	-30,86
872,354	-33,45
872,569	-33,79
872,783	-31,72
872,998	-30,46
873,213	-32,35
873,427	-28,51
873,642	-28,19
873,856	-26,79
874,071	-27,37
874,285	-27,54
874,5	-29,41
874,714	-29,79
874,928	-29,64
875,143	-30,67
875,357	-29,03
875,571	-30,69
875,786	-29,9
876	-26,45
876,214	-24,84
876,429	-27,96
876,643	-26,77
876,857	-24,96
877,071	-24,12
877,285	-24,49
877,499	-27,48
877,714	-24,25
877,928	-20,71
878,142	-21,23
878,356	-21,93
878,57	-20,28
878,784	-18,65
878,998	-18,17
879,212	-15,77
879,426	-18,3
879,639	-17,07
879,853	-17,55
880,067	-18,87
880,281	-19,97
880,495	-18,79
880,709	-17,59
880,922	-17,13
881,136	-14,88
881,35	-12,93
881,564	-14,01
881,777	-16,2
881,991	-14,4
882,205	-10,86
882,418	-10,77
882,632	-12,75
882,845	-13,37
883,059	-11,77
883,273	-11,73
883,486	-14,04
883,7	-11,64
883,913	-10,94
884,126	-10,41
884,34	-14,3
884,553	-16,47
884,767	-14,17
884,98	-14,61
885,193	-15,4
885,407	-15,21
885,62	-13,47
885,833	-13,88
886,046	-12,23
886,26	-14,95
886,473	-15,18
886,686	-15,54
886,899	-13,5
887,112	-14,38
887,326	-16,3
887,539	-14,72
887,752	-15,13
887,965	-18,39
888,178	-16,61
888,391	-16,23
888,604	-17,3
888,817	-20,12
889,03	-20,8
889,243	-24,39
889,455	-26,51
889,668	-25,48
889,881	-22,31
890,094	-22,26
890,307	-25,12
890,52	-24,63
890,732	-22,92
890,945	-21,84
891,158	-20,93
891,37	-21,83
891,583	-21,24
891,796	-19,62
892,008	-22,08
892,221	-22,01
892,434	-25,31
892,646	-25,7
892,859	-25,39
893,071	-24,01
893,284	-22,01
893,496	-23,46
893,709	-23,73
893,921	-23,56
894,133	-23,6
894,346	-24,25
894,558	-22,98
894,771	-22,98
894,983	-19,68
895,195	-19,35
895,407	-18,17
895,62	-21,17
895,832	-18,17
896,044	-15,32
896,256	-16,09
896,468	-18,27
896,681	-17,03
896,893	-16,51
897,105	-16,18
897,317	-17,28
897,529	-14,51
897,741	-13,37
897,953	-12,14
898,165	-12,99
898,377	-15,93
898,589	-14,23
898,801	-14,6
899,013	-12,68
899,224	-10,91
899,436	-10,03
899,648	-10,6
899,86	-12,63
900,072	-8,49
900,283	-7,82
900,495	-4,95
900,707	-5,76
900,919	-8,83
901,13	-6,9
901,342	-8,67
901,554	-8,96
901,765	-5,97
901,977	-8,11
902,188	-7,67
902,4	-10,13
902,611	-11,71
902,823	-12,93
903,034	-15,6
903,246	-16,36
903,457	-17,75
903,669	-19,76
903,88	-19,93
904,091	-21,28
904,303	-21,42
904,514	-22,32
904,725	-20,08
904,936	-18,91
905,148	-19,37
905,359	-17,79
905,57	-18,13
905,781	-19,48
905,992	-19,55
906,204	-19,34
906,415	-19,52
906,626	-22,63
906,837	-19,99
907,048	-21,27
907,259	-22,03
907,47	-22,13
907,681	-24,77
907,892	-22,72
908,103	-24,25
908,314	-28,49
908,525	-27,09
908,735	-25,85
908,946	-26,36
909,157	-27,3
909,368	-25,11
909,579	-23,75
909,789	-25,84
910	-26,86
910,211	-24,96
910,421	-24,72
910,632	-22,39
910,843	-25,46
911,053	-21,59
911,264	-20,06
911,475	-19,31
911,685	-18,71
911,896	-19,44
912,106	-18,67
912,317	-20,48
912,527	-18,42
912,737	-19,24
912,948	-18,51
913,158	-18,16
913,369	-22,64
913,579	-20,54
913,789	-19,3
914	-14,31
914,21	-13,28
914,42	-14,66
914,63	-15,82
914,841	-15,66
915,051	-13,44
915,261	-13,8
915,471	-9,47
915,681	-8,08
915,891	-8,14
916,101	-9,37
916,311	-8,84
916,521	-6,07
916,731	-4,87
916,941	-2,91
917,151	-4,81
917,361	-1,71
917,571	-6,05
917,781	-8,35
917,991	-11,88
918,201	-12,04
918,411	-13,58
918,621	-14,2
918,83	-13,04
919,04	-15,31
919,25	-12,04
919,46	-10,2
919,669	-12,12
919,879	-11,64
920,089	-13,35
920,298	-14,95
920,508	-15,84
920,717	-15,16
920,927	-15,86
921,136	-14,53
921,346	-14,31
921,555	-17,57
921,765	-16,93
921,974	-19,98
922,184	-22,62
922,393	-23,42
922,603	-23,17
922,812	-20,25
923,021	-21,65
923,23	-23,29
923,44	-26,69
923,649	-27,22
923,858	-28,11
924,067	-28,38
924,277	-30,4
924,486	-26,88
924,695	-27,11
924,904	-25,76
925,113	-25,44
925,322	-23,46
925,531	-24,1
925,74	-27,21
925,949	-29,17
926,158	-27,27
926,367	-25,88
926,576	-25,53
926,785	-26,47
926,994	-28
927,203	-27,62
927,412	-26,97
927,621	-26,75
927,83	-24,07
928,038	-24,89
928,247	-26,34
928,456	-25,83
928,665	-24,64
928,873	-24,06
929,082	-21,87
929,291	-22,35
929,499	-21,83
929,708	-23,3
929,916	-22,88
930,125	-24,17
930,333	-25,3
930,542	-22,79
930,75	-19,95
930,959	-19,11
931,167	-19
931,376	-20,84
931,584	-19,99
931,793	-20,48
932,001	-20,46
932,209	-22,58
932,418	-24,68
932,626	-26,17
932,834	-28,16
933,042	-31,01
933,251	-30,18
933,459	-30,4
933,667	-30,2
933,875	-30,35
934,083	-30,14
934,291	-30,27
934,499	-28,78
934,707	-28,72
934,915	-28,81
935,123	-27,66
935,331	-27,11
935,539	-29,98
935,747	-32
935,955	-31,88
936,163	-31,67
936,371	-30,73
936,579	-27,94
936,787	-27,45
936,995	-29,4
937,202	-31,43
937,41	-31,84
937,618	-33,3
937,826	-31,15
938,033	-35,56
938,241	-37,28
938,449	-34,26
938,656	-31,23
938,864	-29,41
939,071	-29,43
939,279	-26,22
939,486	-23,56
939,694	-24,6
939,901	-25,54
940,109	-25,81
940,316	-26,07
940,524	-26,96
940,731	-28,11
940,939	-26,28
941,146	-25,1
941,353	-25,82
941,561	-24,25
941,768	-25,07
941,975	-22,39
942,182	-21,25
942,39	-20,39
942,597	-17,18
942,804	-16,62
943,011	-16,97
943,218	-15,8
943,425	-16,06
943,632	-14,91
943,839	-16,07
944,046	-16,11
944,253	-16,18
944,46	-15,06
944,667	-12,63
944,874	-14,63
945,081	-12,37
945,288	-11,9
945,495	-9,28
945,702	-10,39
945,909	-12,41
946,115	-10,85
946,322	-11,28
946,529	-11,93
946,736	-11,59
946,942	-10,24
947,149	-11,22
947,356	-13,47
947,562	-15,92
947,769	-16,21
947,976	-18,88
948,182	-17,16
948,389	-19,79
948,595	-20
948,802	-19,38
949,008	-21,29
949,215	-20,88
949,421	-22,7
949,628	-23,8
949,834	-22,28
950,04	-23,33
950,247	-19,44
950,453	-17,02
950,659	-18,85
950,865	-17,11
951,072	-21,23
951,278	-18,24
951,484	-21,76
951,69	-25,02
951,896	-25,02
952,103	-25,29
952,309	-23,94
952,515	-23,92
952,721	-21,49
952,927	-19,97
953,133	-21,7
953,339	-22,19
953,545	-21,82
953,751	-20,12
953,957	-16,27
954,163	-17,45
954,369	-16,19
954,574	-19,13
954,78	-16,75
954,986	-15,03
955,192	-13,54
955,398	-14,36
955,603	-16,35
955,809	-13,84
956,015	-12,99
956,22	-13,15
956,426	-12,24
956,632	-16,6
956,837	-17,56
957,043	-17,72
957,248	-16,94
957,454	-17,49
957,66	-20,36
957,865	-19,16
958,07	-17,88
958,276	-20,49
958,481	-21,86
958,687	-23,5
958,892	-23,33
959,097	-25,16
959,303	-25,72
959,508	-25,48
959,713	-26,74
959,919	-27,13
960,124	-28,22
960,329	-28,5
960,534	-25,1
960,739	-23,49
960,945	-20,16
961,15	-20,96
961,355	-23,66
961,56	-28,21
961,765	-29,07
961,97	-27,57
962,175	-25,84
962,38	-29,32
962,585	-29,23
962,79	-30,2
962,995	-30,59
963,2	-31,25
963,404	-30,01
963,609	-32,3
963,814	-31,22
964,019	-34,27
964,224	-36,68
964,428	-34,37
964,633	-33,07
964,838	-32,05
965,042	-31,29
965,247	-32,55
965,452	-30,96
965,656	-29,41
965,861	-27,65
966,066	-27,04
966,27	-23,78
966,475	-19,79
966,679	-24,78
966,884	-24,45
967,088	-27,78
967,292	-29,49
967,497	-29,19
967,701	-29,62
967,906	-27,45
968,11	-24,39
968,314	-22,58
968,518	-25,41
968,723	-21,54
968,927	-21,09
969,131	-19,43
969,335	-15,95
969,539	-14,91
969,744	-14,31
969,948	-11,88
970,152	-9,92
970,356	-7,99
970,56	-7,39
970,764	-9,14
970,968	-6,99
971,172	-7,57
971,376	-7,58
971,58	-5,94
971,784	-5,99
971,988	-8,62
972,192	-7,17
972,395	-8,25
972,599	-13,39
972,803	-15,76
973,007	-13,79
973,21	-13,52
973,414	-14,09
973,618	-14,48
973,822	-13,39
974,025	-12,89
974,229	-12,71
974,432	-16,78
974,636	-19,03
974,84	-17,29
975,043	-19,17
975,247	-20,37
975,45	-21,71
975,654	-20,36
975,857	-19,63
976,06	-20
976,264	-21,55
976,467	-20,33
976,671	-20,96
976,874	-19,9
977,077	-20,82
977,28	-22,06
977,484	-22,66
977,687	-22,14
977,89	-20,58
978,093	-21,14
978,297	-19,93
978,5	-21,65
978,703	-21,16
978,906	-19,22
979,109	-19,85
979,312	-17,74
979,515	-18,65
979,718	-17,84
979,921	-18,76
980,124	-21,5
980,327	-20,21
980,53	-22,04
980,733	-19,72
980,936	-16,96
981,138	-19,61
981,341	-19,02
981,544	-18,58
981,747	-19,68
981,949	-23
982,152	-21,86
982,355	-23,87
982,558	-20,77
982,76	-24,9
982,963	-24,75
983,165	-24,25
983,368	-23,52
983,571	-23,15
983,773	-20,6
983,976	-21,52
984,178	-21,75
984,381	-21,51
984,583	-23,93
984,785	-23,99
984,988	-21,46
985,19	-18,87
985,392	-20,07
985,595	-22,2
985,797	-23,05
985,999	-20,5
986,202	-17,46
986,404	-17,75
986,606	-15,08
986,808	-15,41
987,01	-13,28
987,212	-15,57
987,415	-15,93
987,617	-14,55
987,819	-15,31
988,021	-14,39
988,223	-16,19
988,425	-18,31
988,627	-16,46
988,829	-20,83
989,031	-17,58
989,232	-18,73
989,434	-18,23
989,636	-17,7
989,838	-18,41
990,04	-18,22
990,242	-17,88
990,443	-19,34
990,645	-17,7
990,847	-15,26
991,048	-14,82
991,25	-16,18
991,452	-18,13
991,653	-18,67
991,855	-19,04
992,057	-19,65
992,258	-18,78
992,46	-19,63
992,661	-19,01
992,863	-21,54
993,064	-21
993,265	-22,39
993,467	-23,66
993,668	-21,74
993,87	-21,26
994,071	-20,81
994,272	-20,33
994,473	-18,01
994,675	-17,37
994,876	-18,12
995,077	-18,57
995,278	-17,76
995,48	-15,75
995,681	-17,73
995,882	-16,75
996,083	-17,8
996,284	-21,7
996,485	-21,34
996,686	-22,94
996,887	-23,46
997,088	-26,21
997,289	-28
997,49	-29,12
997,691	-27,92
997,892	-27,74
998,092	-24,33
998,293	-23,55
998,494	-25,72
998,695	-27,82
998,896	-23,67
999,096	-24,11
999,297	-23,61
999,498	-25,98
999,698	-27,68
999,899	-29,85
1000,1	-32,26
1000,3	-33,34
1000,501	-34,49
1000,701	-34,85
1000,902	-35,31
1001,102	-36,4
1001,303	-33,94
1001,503	-36,6
1001,704	-35,99
1001,904	-35,53
1002,105	-35,83
1002,305	-34,03
1002,505	-34,79
1002,706	-36,93
1002,906	-36,57
1003,106	-38,42
1003,306	-37,11
1003,507	-35,04
1003,707	-35,29
1003,907	-33,25
1004,107	-31,98
1004,307	-33,56
1004,507	-32,52
1004,707	-31,66
1004,907	-31,99
1005,107	-34,13
1005,308	-33,32
1005,507	-33,2
1005,707	-29,79
1005,907	-28,8
1006,107	-26,51
1006,307	-25,49
1006,507	-26,58
1006,707	-25,82
1006,907	-24,44
1007,106	-25,5
1007,306	-23,59
1007,506	-22,09
1007,706	-22,03
1007,905	-24,69
1008,105	-23,83
1008,305	-25,87
1008,504	-26,75
1008,704	-21,14
1008,903	-19,46
1009,103	-17,69
1009,303	-19,78
1009,502	-20,65
1009,702	-21,16
1009,901	-19,57
1010,1	-23,38
1010,3	-21,74
1010,499	-23,2
1010,699	-24,45
1010,898	-25,83
1011,097	-25,48
1011,296	-25,21
1011,496	-26,43
1011,695	-27,45
1011,894	-29,84
1012,093	-26,32
1012,293	-26,91
1012,492	-26,71
1012,691	-25,64
1012,89	-26,19
1013,089	-28,98
1013,288	-26,78
1013,487	-26,59
1013,686	-27,73
1013,885	-29,12
1014,084	-26,27
1014,283	-27,12
1014,482	-26,57
1014,681	-25,73
1014,88	-29,61
1015,078	-28,81
1015,277	-30,7
1015,476	-29,72
1015,675	-28,6
1015,873	-27,72
1016,072	-30,04
1016,271	-27,88
1016,47	-32,17
1016,668	-29,47
1016,867	-29,77
1017,065	-31,19
1017,264	-31,95
1017,463	-32,26
1017,661	-32,22
1017,86	-31,64
1018,058	-29,27
1018,256	-30,96
1018,455	-31,1
1018,653	-30,9
1018,852	-29,72
1019,05	-31,42
1019,248	-33,48
1019,447	-34,63
1019,645	-35,78
1019,843	-37,12
1020,041	-33,93
1020,24	-36,3
1020,438	-32,08
1020,636	-33
1020,834	-36,18
1021,032	-32,67
1021,23	-34,13
1021,428	-33,05
1021,626	-30,48
1021,824	-30,76
1022,022	-32,52
1022,22	-29,9
1022,418	-28,43
1022,616	-28,5
1022,814	-29,19
1023,012	-30,02
1023,21	-26,5
1023,408	-25,36
1023,606	-26,1
1023,803	-21,12
1024,001	-20,43
1024,199	-24,04
1024,397	-23,86
1024,594	-24,81
1024,792	-27,26
1024,99	-27,23
1025,187	-26,15
1025,385	-21,28
1025,582	-21,11
1025,78	-20,8
1025,977	-20,43
1026,175	-20,68
1026,372	-20,53
1026,57	-24,58
1026,767	-21,12
1026,965	-19,35
1027,162	-20,28
1027,359	-19,43
1027,557	-18,01
1027,754	-19,73
1027,951	-19,54
1028,148	-16,95
1028,346	-19,8
1028,543	-23,52
1028,74	-23,14
1028,937	-25,62
1029,134	-25,63
1029,331	-27,73
1029,528	-27,42
1029,725	-28,12
1029,923	-31,07
1030,12	-27,49
1030,317	-24,85
1030,513	-23,39
1030,71	-21,51
1030,907	-18,61
1031,104	-19,24
1031,301	-19,93
1031,498	-21,28
1031,695	-21,85
1031,892	-22,51
1032,088	-20,24
1032,285	-22,87
1032,482	-21,92
1032,678	-23,89
1032,875	-25,85
1033,072	-25,62
1033,268	-25,74
1033,465	-26,78
1033,662	-29,97
1033,858	-29,98
1034,055	-30,74
1034,251	-29,26
1034,448	-28,49
1034,644	-27,11
1034,84	-24,69
1035,037	-22,13
1035,233	-21,48
1035,43	-20,34
1035,626	-21,1
1035,822	-21,87
1036,019	-24,19
1036,215	-28,61
1036,411	-30,72
1036,607	-32,21
1036,803	-35,81
1037	-36,2
1037,196	-37,6
1037,392	-37,66
1037,588	-39,73
1037,784	-38,3
1037,98	-39,15
1038,176	-41,84
1038,372	-41,04
1038,568	-40,51
1038,764	-38,87
1038,96	-37
1039,156	-38,19
1039,352	-39,27
1039,547	-36,47
1039,743	-34,2
1039,939	-32,27
1040,135	-32,61
1040,331	-34
1040,526	-31,58
1040,722	-33,55
1040,918	-34,35
1041,113	-37,35
1041,309	-37,53
1041,505	-39,73
1041,7	-38,52
1041,896	-37,6
1042,091	-37,59
1042,287	-37,51
1042,482	-36,35
1042,678	-36,71
1042,873	-34,59
1043,069	-35,66
1043,264	-34,32
1043,459	-32,92
1043,655	-30,84
1043,85	-32,15
1044,045	-29,72
1044,24	-28,23
1044,436	-26,56
1044,631	-27,18
1044,826	-26,59
1045,021	-29,54
1045,216	-28,31
