Data from FLMT021711__16__17-56-19-592.txt Node

Date: Tue Nov 05 17:56:19 CET 2024
User: Etudiants TP
Spectrometer: FLMT02171
Trigger mode: 0
Integration Time (sec): 1,000000E-1
Scans to average: 5
Electric dark correction enabled: true
Nonlinearity correction enabled: false
Boxcar width: 15
XAxis mode: Wavelengths
Number of Pixels in Spectrum: 3648
>>>>>Begin Spectral Data<<<<<
194,658	-60,73
194,923	-58,11
195,188	-51,59
195,453	-50,91
195,717	-45,22
195,982	-44,37
196,247	-43,92
196,512	-46,95
196,777	-45,41
197,042	-43,38
197,307	-43,08
197,572	-39,39
197,837	-40
198,101	-37,47
198,366	-34,67
198,631	-34,09
198,896	-26,89
199,161	-20,12
199,425	-12,83
199,69	-4,28
199,955	-4,63
200,22	-8,16
200,484	-7,36
200,749	-7,67
201,014	-7,25
201,278	-8,14
201,543	-6,49
201,807	-8,1
202,072	-6,22
202,337	-5,75
202,601	-5,91
202,866	-6,34
203,13	-5,57
203,395	-7,67
203,659	-8,24
203,924	-10,48
204,189	-9,97
204,453	-6,93
204,717	-5,08
204,982	-3,2
205,246	-2,31
205,511	-0,75
205,775	-1,57
206,04	4,53
206,304	3,72
206,568	6,3
206,833	7,48
207,097	6,74
207,361	8,4
207,626	11,42
207,89	11,91
208,154	12,89
208,419	14,61
208,683	13,5
208,947	15,84
209,211	15,79
209,476	15,82
209,74	15,84
210,004	17,2
210,268	15,32
210,532	20,05
210,796	20,25
211,061	19,69
211,325	20,28
211,589	19,28
211,853	21,2
212,117	21,06
212,381	21,67
212,645	22,15
212,909	22,58
213,173	20,17
213,437	21
213,701	21,26
213,965	22,98
214,229	17,66
214,493	18,68
214,757	16,2
215,021	15,96
215,285	19,68
215,549	20,6
215,813	18,05
216,077	17,41
216,34	19,22
216,604	19,48
216,868	20,48
217,132	20,57
217,396	18,41
217,659	18,89
217,923	14,14
218,187	14,36
218,451	14,85
218,714	11,82
218,978	11,51
219,242	15,99
219,505	16,07
219,769	17,17
220,033	16,86
220,296	19,24
220,56	20,42
220,824	16,68
221,087	18,92
221,351	18,1
221,614	16,96
221,878	18,25
222,142	15,14
222,405	15,19
222,669	17,99
222,932	15,39
223,196	13,33
223,459	8,86
223,722	11,01
223,986	10,12
224,249	9,02
224,513	9,61
224,776	8,65
225,04	8,77
225,303	7,9
225,566	8,38
225,83	10,79
226,093	14,87
226,356	12,1
226,62	10,8
226,883	10,87
227,146	12,35
227,409	10,18
227,673	8,68
227,936	7,73
228,199	7,23
228,462	4,9
228,725	3,67
228,989	3,44
229,252	3,3
229,515	8,16
229,778	7,49
230,041	6,25
230,304	5,46
230,567	6,66
230,83	4,17
231,093	7,05
231,356	6,63
231,619	13,65
231,882	11,05
232,145	12,8
232,408	11,72
232,671	11,05
232,934	10,73
233,197	9,11
233,46	8,57
233,723	10,73
233,986	9,26
234,249	7,36
234,512	9,54
234,775	14,75
235,037	14,8
235,3	13,98
235,563	13,83
235,826	15,63
236,089	18,41
236,351	18,65
236,614	21,55
236,877	21,97
237,14	24,9
237,402	24,58
237,665	17,58
237,928	18,12
238,19	15,72
238,453	19,15
238,716	18,66
238,978	18,42
239,241	15,72
239,503	19,56
239,766	15,25
240,029	13,62
240,291	16,78
240,554	17,03
240,816	15,78
241,079	16,18
241,341	15,88
241,604	15,63
241,866	11,21
242,129	11,48
242,391	13,16
242,653	11,77
242,916	11,12
243,178	10,32
243,441	11,32
243,703	10,58
243,965	7,64
244,228	7,53
244,49	7,27
244,752	7,87
245,015	8,71
245,277	9,88
245,539	8,46
245,801	10,41
246,064	8,75
246,326	9,49
246,588	8,68
246,85	11,53
247,112	11,27
247,374	13,57
247,637	14,74
247,899	14,18
248,161	14,6
248,423	9,21
248,685	11,09
248,947	9,95
249,209	10,44
249,471	10,99
249,733	12,01
249,995	11,69
250,257	11,06
250,519	10,41
250,781	13,6
251,043	10,4
251,305	12,63
251,567	14,2
251,829	13,72
252,091	13,89
252,353	9,9
252,615	10,1
252,876	7,34
253,138	4,62
253,4	0,88
253,662	2,94
253,924	5,4
254,185	6,86
254,447	5,92
254,709	5,76
254,971	6,66
255,232	9,04
255,494	7,83
255,756	4,77
256,017	5,39
256,279	6,42
256,541	6,58
256,802	5,5
257,064	8,76
257,326	6,87
257,587	8,12
257,849	8,71
258,11	12,31
258,372	12,47
258,633	13,14
258,895	12,19
259,156	11,92
259,418	9,79
259,679	5,18
259,941	3,64
260,202	6,41
260,464	9,83
260,725	9,26
260,987	8,15
261,248	8,41
261,509	9,97
261,771	7,76
262,032	9,2
262,293	9,37
262,555	10,28
262,816	7,3
263,077	3,76
263,338	0,97
263,6	1,67
263,861	2,14
264,122	1,31
264,383	2,77
264,645	4,59
264,906	4,16
265,167	3,35
265,428	3,33
265,689	4,39
265,95	1,35
266,211	2,46
266,473	2,78
266,734	-0,95
266,995	-4,28
267,256	-4,53
267,517	-2,54
267,778	0,89
268,039	2,53
268,3	0,9
268,561	-2,76
268,822	0,89
269,083	-1,36
269,344	-2,91
269,604	-4,37
269,865	-3,71
270,126	-6,61
270,387	-5,56
270,648	-3,84
270,909	-3,73
271,17	-4,37
271,43	-7,77
271,691	-11,84
271,952	-13,31
272,213	-11,16
272,473	-13,4
272,734	-12,4
272,995	-12,62
273,256	-12,7
273,516	-9,4
273,777	-12,19
274,038	-9,21
274,298	-12,51
274,559	-13,06
274,82	-7,51
275,08	-4,45
275,341	-1,98
275,601	-3,38
275,862	-6,12
276,122	-5,48
276,383	-5,31
276,643	-1,39
276,904	-3,02
277,164	1,15
277,425	2,23
277,685	6,79
277,946	6,91
278,206	6,63
278,467	8,09
278,727	6,78
278,987	7,2
279,248	7,01
279,508	8,6
279,768	11,94
280,029	13,89
280,289	9,95
280,549	8,78
280,81	8,63
281,07	8,81
281,33	11,1
281,59	9,23
281,851	11,45
282,111	11,53
282,371	11,43
282,631	14,24
282,891	11,62
283,151	9,67
283,412	7,51
283,672	7,82
283,932	8,82
284,192	10
284,452	8,93
284,712	4,64
284,972	2,56
285,232	0,85
285,492	3,46
285,752	1
286,012	7,48
286,272	10,22
286,532	6,13
286,792	6,47
287,052	7,44
287,312	7,51
287,571	7,2
287,831	7,49
288,091	4,86
288,351	5,05
288,611	9,33
288,871	8,69
289,13	8,07
289,39	3,08
289,65	4,59
289,91	2,18
290,17	3,35
290,429	6,01
290,689	2,21
290,949	-0,49
291,208	1,67
291,468	5,05
291,728	6,39
291,987	7,65
292,247	5,65
292,506	7,72
292,766	12,04
293,026	11,09
293,285	11,58
293,545	14,18
293,804	13,2
294,064	9,06
294,323	7,68
294,583	10,47
294,842	10,79
295,102	11,23
295,361	12,67
295,621	14,07
295,88	14,92
296,139	14,69
296,399	16,76
296,658	11,88
296,917	11,77
297,177	10,11
297,436	12,63
297,695	9,88
297,955	13,32
298,214	11,25
298,473	12,81
298,732	15,99
298,992	20,02
299,251	18,57
299,51	14,03
299,769	13,73
300,028	13,64
300,287	14,84
300,547	14,32
300,806	11,55
301,065	14,74
301,324	16,55
301,583	12,16
301,842	9,57
302,101	7,59
302,36	7,7
302,619	6,54
302,878	6,59
303,137	4,62
303,396	6,19
303,655	7,4
303,914	4,6
304,173	5,72
304,432	4,82
304,691	8,68
304,95	7,66
305,208	12,46
305,467	12,79
305,726	14,03
305,985	13,3
306,244	14,69
306,503	14,09
306,761	11,65
307,02	8,57
307,279	9,33
307,537	10,54
307,796	7,36
308,055	5,19
308,314	4,32
308,572	2,9
308,831	4,21
309,09	4,09
309,348	4,08
309,607	4,64
309,865	7,83
310,124	7,09
310,382	8,34
310,641	9,12
310,9	8
311,158	9,52
311,417	8,07
311,675	8,24
311,933	8,58
312,192	10,49
312,45	9,92
312,709	8,66
312,967	7,12
313,226	6,84
313,484	5,49
313,742	1,84
314,001	-1,24
314,259	-2,1
314,517	-2,33
314,776	0,5
315,034	1,75
315,292	0,53
315,55	-1,32
315,809	-1,33
316,067	-0,41
316,325	-0,18
316,583	1,46
316,841	-0,38
317,1	-2,09
317,358	-4,42
317,616	-6,21
317,874	-7,42
318,132	-7,71
318,39	-8,7
318,648	-10,25
318,906	-10,61
319,164	-11,13
319,422	-11,46
319,68	-12,42
319,938	-11
320,196	-11,49
320,454	-10,31
320,712	-10,47
320,97	-10,4
321,228	-12,93
321,486	-9,64
321,744	-7,11
322,002	-4,08
322,26	-5,41
322,517	-5,66
322,775	-8,99
323,033	-10,5
323,291	-9,53
323,549	-6,68
323,806	-4,76
324,064	-4,39
324,322	-3,28
324,58	-5,4
324,837	-3,36
325,095	-4,76
325,353	-4,97
325,61	-2,11
325,868	-2,43
326,126	-0,65
326,383	-1,98
326,641	-2,78
326,898	-1,21
327,156	-1,9
327,413	-1,18
327,671	-1,01
327,928	0,88
328,186	0,41
328,443	-0,61
328,701	2,08
328,958	3,49
329,216	3,78
329,473	0,79
329,731	2,66
329,988	3,16
330,245	5,15
330,503	6,15
330,76	6,33
331,017	10,44
331,275	8,58
331,532	7,2
331,789	5,66
332,047	5,01
332,304	2,32
332,561	2,51
332,818	2,17
333,076	3,41
333,333	6,4
333,59	5,9
333,847	7,62
334,104	6,63
334,361	6,75
334,618	5,64
334,876	4,17
335,133	5,01
335,39	2,14
335,647	3,23
335,904	-0,43
336,161	-1,74
336,418	-0,74
336,675	-4,98
336,932	-4,4
337,189	-3,94
337,446	-3,48
337,703	-5,9
337,96	-9,96
338,216	-10,3
338,473	-13,04
338,73	-11,81
338,987	-13,35
339,244	-9,75
339,501	-12,49
339,757	-11,82
340,014	-10,66
340,271	-9,65
340,528	-7,12
340,785	-4,14
341,041	-3,47
341,298	-6,64
341,555	-7,76
341,811	-8,04
342,068	-8,9
342,325	-9,17
342,581	-5,26
342,838	-2,88
343,094	-3,04
343,351	-2,27
343,608	-4,7
343,864	-2,9
344,121	-2,22
344,377	-3,2
344,634	-3,17
344,89	-4,19
345,147	-4,18
345,403	-5,26
345,66	-5,12
345,916	-3,08
346,172	-4,03
346,429	-5,03
346,685	-7,64
346,942	-7,95
347,198	-12,96
347,454	-9,41
347,711	-9,45
347,967	-12,93
348,223	-12,31
348,48	-13,89
348,736	-10,83
348,992	-10,5
349,248	-7,97
349,504	-7,76
349,761	-7,94
350,017	-8,29
350,273	-7,53
350,529	-8,71
350,785	-10,82
351,041	-11,13
351,297	-9,5
351,554	-10,96
351,81	-11,94
352,066	-13,03
352,322	-13,22
352,578	-10,88
352,834	-10,44
353,09	-10,97
353,346	-10,85
353,602	-12,05
353,858	-12,53
354,114	-13,37
354,369	-10,89
354,625	-7,78
354,881	-8,7
355,137	-5
355,393	-5,09
355,649	-4,54
355,905	-2,24
356,16	-2,1
356,416	-1,96
356,672	-8,39
356,928	-7,85
357,183	-7,6
357,439	-8,07
357,695	-9,77
357,951	-5,4
358,206	-6,6
358,462	-7,09
358,718	-7,95
358,973	-7
359,229	-6,9
359,484	-6,67
359,74	-4,37
359,996	-3,48
360,251	0,23
360,507	-0,84
360,762	-1,36
361,018	0,03
361,273	-1,55
361,529	-0,88
361,784	-0,67
362,04	0,21
362,295	0,03
362,55	0,62
362,806	3,22
363,061	3,49
363,316	3,44
363,572	4,06
363,827	5,23
364,082	2,17
364,338	2,08
364,593	2,08
364,848	2,39
365,104	-0,59
365,359	2,86
365,614	3,31
365,869	0,93
366,124	2,54
366,38	1,24
366,635	2,63
366,89	2,99
367,145	2,03
367,4	6,95
367,655	6,9
367,91	7,27
368,165	4,82
368,42	1,72
368,675	2,34
368,93	2,86
369,185	0,32
369,44	0,34
369,695	2,12
369,95	1,74
370,205	-0,12
370,46	-1,85
370,715	-3,19
370,97	-1,93
371,225	-2,38
371,48	-0,55
371,734	0,23
371,989	2,14
372,244	2,99
372,499	4,24
372,754	3,04
373,008	2,11
373,263	-1,75
373,518	0,47
373,773	-1,26
374,027	-2,63
374,282	0,48
374,537	1,09
374,791	2,06
375,046	1,63
375,301	-0,8
375,555	-2,2
375,81	-1,3
376,064	-1,34
376,319	2,89
376,573	1,84
376,828	-1,16
377,082	5,61
377,337	3,25
377,591	-0,74
377,846	0,6
378,1	3,24
378,355	2,57
378,609	1,52
378,863	-2,11
379,118	-0,78
379,372	-3,14
379,627	-5,68
379,881	-7,32
380,135	-8,53
380,389	-8,52
380,644	-8,25
380,898	-7,16
381,152	-6,77
381,407	-6,46
381,661	-2,26
381,915	-1,47
382,169	-2,74
382,423	-3,91
382,677	-6,94
382,932	-7,23
383,186	-6
383,44	-6,58
383,694	-5,28
383,948	-5,89
384,202	-7,75
384,456	-4,78
384,71	-2,24
384,964	-4,82
385,218	-1,25
385,472	0,57
385,726	-0,83
385,98	0,08
386,234	0,56
386,488	-2
386,742	-0,83
386,996	-3,47
387,249	-3,42
387,503	-1,02
387,757	0,12
388,011	1,32
388,265	1,72
388,518	2,56
388,772	5,15
389,026	7,31
389,28	4,42
389,533	-0,22
389,787	2,26
390,041	1,16
390,295	2,66
390,548	3,66
390,802	7,36
391,055	5,96
391,309	4,62
391,563	2,88
391,816	3,64
392,07	3,27
392,323	3,18
392,577	4,06
392,83	5,73
393,084	10,4
393,337	14,09
393,591	14,97
393,844	14,82
394,098	18,36
394,351	23,03
394,604	24,22
394,858	25,98
395,111	26,99
395,364	25,22
395,618	28,09
395,871	25,13
396,124	24,62
396,378	24,22
396,631	24,05
396,884	21,2
397,137	20,64
397,391	23,14
397,644	19,66
397,897	19,54
398,15	19,34
398,403	22,26
398,657	19,92
398,91	19,39
399,163	21,11
399,416	21,55
399,669	20,22
399,922	17,81
400,175	16,15
400,428	13,36
400,681	12,31
400,934	7,94
401,187	6,3
401,44	6,61
401,693	4,47
401,946	1,59
402,199	-3,16
402,452	-4,31
402,704	-7,17
402,957	-8,14
403,21	-8,57
403,463	-10,48
403,716	-8,46
403,969	-7,96
404,221	-8,65
404,474	-8,62
404,727	-5,97
404,98	-3,16
405,232	-3,23
405,485	-1,43
405,738	0,15
405,99	0,67
406,243	0,84
406,496	3,33
406,748	3,51
407,001	3,1
407,253	2,13
407,506	2,18
407,759	4,06
408,011	1,91
408,264	2,79
408,516	3,87
408,769	2,66
409,021	3,73
409,274	4,8
409,526	7,25
409,778	6,61
410,031	9,85
410,283	10,41
410,536	15,18
410,788	13,97
411,04	15,04
411,293	16,69
411,545	16,81
411,797	16,11
412,049	14,91
412,302	16,04
412,554	17,9
412,806	16,27
413,058	13,38
413,311	14,35
413,563	13,31
413,815	12,74
414,067	10,32
414,319	9,16
414,571	9,86
414,823	8,04
415,075	8,09
415,328	9,2
415,58	13,72
415,832	15,48
416,084	16,56
416,336	15,64
416,588	19,25
416,84	17,61
417,091	19,05
417,343	14,51
417,595	16,61
417,847	17,41
418,099	18,37
418,351	16,51
418,603	19,52
418,855	19,53
419,106	18,45
419,358	20,42
419,61	19,6
419,862	21,88
420,114	18,64
420,365	16,55
420,617	16,8
420,869	16,12
421,12	15,55
421,372	17,26
421,624	16,21
421,875	16,98
422,127	13,62
422,379	13,84
422,63	16,33
422,882	14,91
423,133	14,76
423,385	13,3
423,636	13,89
423,888	15,13
424,139	16,76
424,391	13,86
424,642	12,1
424,894	10,76
425,145	11,45
425,396	8,86
425,648	10,74
425,899	8,74
426,151	9,7
426,402	8,86
426,653	8,81
426,905	8,66
427,156	4,62
427,407	5,21
427,658	4,06
427,91	3,12
428,161	3,41
428,412	5,57
428,663	6,44
428,914	6,75
429,166	7,22
429,417	9,04
429,668	7,02
429,919	6,07
430,17	4,58
430,421	4,46
430,672	6,53
430,923	6,54
431,174	5,05
431,425	5,12
431,676	4,62
431,927	0,91
432,178	2,99
432,429	3,69
432,68	2,51
432,931	4,82
433,182	7,78
433,433	4,09
433,683	5,11
433,934	4,85
434,185	3,4
434,436	2,62
434,687	2,99
434,937	6,45
435,188	4,76
435,439	3,04
435,69	4,95
435,94	3,81
436,191	3,48
436,442	4,98
436,692	3,47
436,943	-0,89
437,194	-3,3
437,444	-1,13
437,695	2,52
437,945	3,51
438,196	1,83
438,447	2,06
438,697	2,3
438,948	1,88
439,198	-0,35
439,449	-4,62
439,699	-3,15
439,949	-3,93
440,2	-5,09
440,45	-4,63
440,701	-5,28
440,951	-6,58
441,201	-4,1
441,452	-5,7
441,702	-6,95
441,952	-5,12
442,203	-5,2
442,453	-7,44
442,703	-9,07
442,953	-6,6
443,204	-5,01
443,454	-7,33
443,704	-7,97
443,954	-11,24
444,204	-11,68
444,455	-10,82
444,705	-7,63
444,955	-7,01
445,205	-7,32
445,455	-9,94
445,705	-9,83
445,955	-9,8
446,205	-10,05
446,455	-10,09
446,705	-9,92
446,955	-9,33
447,205	-7,13
447,455	-5,63
447,705	-6,81
447,955	-7,32
448,205	-6,41
448,454	-6,69
448,704	-5,78
448,954	-8,32
449,204	-7,43
449,454	-6,66
449,704	-9,28
449,953	-8,5
450,203	-5,78
450,453	-6,52
450,703	-5,56
450,952	-6,22
451,202	-3,54
451,452	-3,1
451,701	0,57
451,951	3,25
452,201	2,99
452,45	2,43
452,7	3,77
452,949	2,94
453,199	2,82
453,448	3,76
453,698	5,42
453,947	3,99
454,197	3,83
454,446	1,74
454,696	5,74
454,945	5,78
455,195	4,52
455,444	4,68
455,693	8,42
455,943	7,02
456,192	8,31
456,442	8,66
456,691	8,81
456,94	8,85
457,189	7,38
457,439	10,32
457,688	11,36
457,937	11,02
458,186	11,18
458,436	10,13
458,685	12,62
458,934	10,83
459,183	10,89
459,432	12,71
459,681	12,93
459,93	11,25
460,179	10,65
460,429	8,78
460,678	12,43
460,927	15,19
461,176	14,13
461,425	13,68
461,674	17,12
461,923	15,7
462,172	16,07
462,42	13,47
462,669	15,29
462,918	14,58
463,167	15,1
463,416	12,84
463,665	14,19
463,914	14,11
464,162	12,46
464,411	15,11
464,66	15,95
464,909	14,96
465,158	14,75
465,406	13,94
465,655	15,84
465,904	18,92
466,152	20,01
466,401	19,45
466,65	21,93
466,898	20,11
467,147	16,4
467,395	16,22
467,644	20,68
467,893	20,36
468,141	19,35
468,39	16,5
468,638	14,8
468,887	15,58
469,135	15,48
469,384	13,12
469,632	15,22
469,88	16,13
470,129	17,25
470,377	14,29
470,626	17,81
470,874	20,27
471,122	22,11
471,371	19,7
471,619	19,69
471,867	22,69
472,115	21,77
472,364	20,04
472,612	22,66
472,86	21,04
473,108	22,41
473,356	22,18
473,605	20,9
473,853	18,19
474,101	16,81
474,349	15,92
474,597	19,69
474,845	19,25
475,093	18,67
475,341	15,81
475,589	17,15
475,837	19,99
476,085	20,95
476,333	19,79
476,581	20,86
476,829	20,56
477,077	23,28
477,325	23,1
477,573	25,02
477,821	24,07
478,069	24,25
478,317	23,21
478,564	24,18
478,812	21,14
479,06	20,53
479,308	17,67
479,555	17,03
479,803	15,53
480,051	18,1
480,299	18,11
480,546	19,45
480,794	17,01
481,042	17,59
481,289	16,89
481,537	18,52
481,784	17,99
482,032	19,59
482,28	18,06
482,527	17,34
482,775	18,04
483,022	19,17
483,27	20,17
483,517	22,7
483,765	21,71
484,012	22,72
484,259	19,66
484,507	22,89
484,754	24,4
485,002	24,82
485,249	23,65
485,496	26,55
485,744	27,92
485,991	28,21
486,238	25,33
486,486	30,24
486,733	30,72
486,98	34,8
487,227	34,11
487,474	36,29
487,722	39,11
487,969	36,91
488,216	36,02
488,463	35,35
488,71	33,25
488,957	32,41
489,204	33,07
489,451	33,99
489,699	33,14
489,946	32,35
490,193	32,52
490,44	31,01
490,687	32,71
490,934	30,3
491,18	27,34
491,427	31,36
491,674	33,31
491,921	34,05
492,168	32,7
492,415	29,59
492,662	30,46
492,909	33,4
493,155	32,96
493,402	32,14
493,649	29,99
493,896	31,41
494,142	27,23
494,389	28,21
494,636	26,28
494,883	23,47
495,129	22,03
495,376	19,25
495,623	23,38
495,869	25,79
496,116	27,72
496,362	29,87
496,609	34,6
496,855	38,65
497,102	40,13
497,348	40,61
497,595	42,49
497,841	46,34
498,088	47,36
498,334	46,05
498,581	45,81
498,827	46,14
499,074	46,14
499,32	48,31
499,566	53,57
499,813	53,67
500,059	53,05
500,305	54,47
500,552	52,44
500,798	51,75
501,044	55,78
501,29	54,36
501,537	52,74
501,783	55,9
502,029	60,28
502,275	58,77
502,521	59,27
502,767	60,57
503,013	65,03
503,26	62,77
503,506	59,86
503,752	62,13
503,998	61,27
504,244	62
504,49	60,33
504,736	62,4
504,982	61,69
505,228	63,49
505,474	65,53
505,72	67,76
505,966	67,83
506,211	71,64
506,457	72,53
506,703	70,76
506,949	69,86
507,195	67,51
507,441	65,21
507,686	68,58
507,932	67,62
508,178	71,56
508,424	71,34
508,669	69,35
508,915	71,57
509,161	74,61
509,406	75,43
509,652	75,19
509,898	79,08
510,143	80,88
510,389	81,66
510,634	78,45
510,88	81,63
511,125	85,9
511,371	88,14
511,616	89,73
511,862	87,17
512,107	85,58
512,353	86,12
512,598	88,44
512,844	86,73
513,089	83,34
513,335	84,57
513,58	85,48
513,825	86,63
514,071	86,32
514,316	86,77
514,561	88,4
514,806	88,77
515,052	93,12
515,297	92,75
515,542	93,87
515,787	94,5
516,033	97,35
516,278	99,71
516,523	100,67
516,768	100,37
517,013	98,6
517,258	98,12
517,503	99,54
517,748	101,1
517,993	101,31
518,238	102,49
518,483	102,51
518,728	102,04
518,973	99,23
519,218	99,54
519,463	101,44
519,708	101,22
519,953	101,01
520,198	103,08
520,443	106,26
520,688	110,18
520,933	108,93
521,177	108,58
521,422	106,48
521,667	111,2
521,912	111,21
522,157	107,98
522,401	111,77
522,646	112,37
522,891	114,12
523,135	115,63
523,38	116,04
523,625	114,43
523,869	116,55
524,114	118,06
524,358	117,22
524,603	118,75
524,848	117,46
525,092	117,43
525,337	120,12
525,581	121,69
525,826	123,55
526,07	124,86
526,315	125,94
526,559	127,39
526,803	125,85
527,048	129,25
527,292	131,35
527,537	131,41
527,781	129,53
528,025	127,07
528,269	129,36
528,514	129,68
528,758	129,84
529,002	131,47
529,247	134,89
529,491	134,44
529,735	139,84
529,979	139,04
530,223	139,48
530,467	136,93
530,712	135,99
530,956	134,71
531,2	136,54
531,444	134,54
531,688	136,7
531,932	137,27
532,176	137,63
532,42	139,04
532,664	140,05
532,908	136,63
533,152	135,95
533,396	136,11
533,64	134,11
533,884	131,81
534,128	131,42
534,371	134,8
534,615	136,2
534,859	134,88
535,103	134,87
535,347	134,92
535,59	137,67
535,834	132,73
536,078	134,88
536,322	136,76
536,565	140,47
536,809	137,66
537,053	140,48
537,296	137,85
537,54	137,6
537,784	136,66
538,027	138,47
538,271	138,35
538,514	137,92
538,758	136,69
539,001	135,17
539,245	133,92
539,488	134,58
539,732	136,87
539,975	138,11
540,219	140,76
540,462	142,81
540,706	144,98
540,949	144,74
541,192	147,22
541,436	153,73
541,679	157,64
541,922	158,32
542,166	153,28
542,409	154,16
542,652	155,28
542,895	156,88
543,139	157
543,382	163,4
543,625	162,48
543,868	162,24
544,111	159,44
544,354	157,44
544,598	155,63
544,841	157,13
545,084	156,95
545,327	157,3
545,57	158,97
545,813	160,2
546,056	160,5
546,299	161,82
546,542	164,23
546,785	167,93
547,028	170,06
547,271	169,08
547,514	168,41
547,756	165,3
547,999	165,65
548,242	166,35
548,485	163,4
548,728	163,19
548,971	158,71
549,213	160,09
549,456	158,22
549,699	159,37
549,942	159,38
550,184	159,02
550,427	159,67
550,67	160,18
550,912	154,52
551,155	156,32
551,398	155,81
551,64	155,53
551,883	156,14
552,125	156,9
552,368	157,25
552,61	153,52
552,853	155,67
553,095	152,81
553,338	152,81
553,58	153,5
553,823	151,64
554,065	154,46
554,308	150,56
554,55	147,7
554,792	147,06
555,035	146,64
555,277	145,27
555,519	145,28
555,762	143,01
556,004	145
556,246	142,06
556,488	143,29
556,731	138,31
556,973	141,15
557,215	139,83
557,457	141,41
557,699	143,95
557,941	141,41
558,183	140,9
558,426	144,32
558,668	141,15
558,91	142,95
559,152	142,4
559,394	142,63
559,636	144,48
559,878	145,26
560,12	146,34
560,362	148,39
560,604	150,79
560,845	150,59
561,087	150,45
561,329	153,04
561,571	150,14
561,813	150,5
562,055	150,11
562,297	151,59
562,538	153,13
562,78	157,14
563,022	155,09
563,264	157,39
563,505	157,06
563,747	157,29
563,989	156,74
564,23	158,08
564,472	155,35
564,714	159,68
564,955	159,98
565,197	156,29
565,438	158,38
565,68	161,62
565,921	159,68
566,163	161,54
566,404	161,28
566,646	165,32
566,887	168,29
567,129	169,27
567,37	169,12
567,612	171,68
567,853	169,44
568,094	171,11
568,336	172,74
568,577	174,04
568,818	175,75
569,06	174,11
569,301	173,17
569,542	175,11
569,783	176,32
570,025	177,3
570,266	176,46
570,507	179,26
570,748	179,12
570,989	181,59
571,23	185,06
571,472	184,85
571,713	184,68
571,954	186,6
572,195	184,24
572,436	186,49
572,677	190,04
572,918	192,45
573,159	190,35
573,4	188,84
573,641	188,39
573,882	189,03
574,123	187,01
574,364	181,45
574,604	181,88
574,845	179,78
575,086	180,37
575,327	180,23
575,568	179,22
575,809	176,87
576,049	175,03
576,29	171,93
576,531	179,71
576,771	184,18
577,012	186,07
577,253	186,28
577,494	185,36
577,734	185,85
577,975	186,17
578,215	185,63
578,456	182,09
578,697	181,74
578,937	183,24
579,178	183,37
579,418	182,21
579,659	182,11
579,899	178,27
580,14	177,65
580,38	175,6
580,62	176,15
580,861	181,25
581,101	181,91
581,342	181,96
581,582	178,62
581,822	182,29
582,063	181,79
582,303	183,32
582,543	182,99
582,783	184,18
583,024	186,34
583,264	190,2
583,504	187,87
583,744	191,05
583,984	185,79
584,224	183,4
584,465	181,43
584,705	181,92
584,945	182,17
585,185	182,64
585,425	183,08
585,665	182,4
585,905	183,77
586,145	183,03
586,385	181,07
586,625	183,61
586,865	183,59
587,105	183,09
587,345	184,82
587,585	184,3
587,824	183,66
588,064	182,63
588,304	179,01
588,544	179,71
588,784	175,88
589,024	178,36
589,263	177,19
589,503	174,71
589,743	176,94
589,982	175,83
590,222	176,68
590,462	173,6
590,701	170,52
590,941	174,64
591,181	172,75
591,42	172,63
591,66	175,02
591,899	178,48
592,139	176,89
592,378	177,27
592,618	174,57
592,857	174,48
593,097	174,45
593,336	174,02
593,576	174
593,815	175,37
594,055	174,71
594,294	175,07
594,533	174,12
594,773	173,42
595,012	175,13
595,251	176,15
595,491	179,74
595,73	182,88
595,969	181,77
596,208	184,79
596,447	189,4
596,687	190,92
596,926	190,66
597,165	186,35
597,404	190,44
597,643	187,68
597,882	185,01
598,121	186,61
598,36	187,16
598,599	188,31
598,838	187,95
599,077	184,89
599,316	184,8
599,555	183,92
599,794	184,23
600,033	187,26
600,272	187,5
600,511	186,07
600,75	187,5
600,989	189,28
601,228	188,99
601,466	187,42
601,705	187,46
601,944	189,33
602,183	190,37
602,422	187,83
602,66	186,18
602,899	184,23
603,138	182,61
603,376	182,91
603,615	184,18
603,854	181,37
604,092	180,38
604,331	183,14
604,569	184,54
604,808	180,76
605,047	182,15
605,285	183,85
605,524	182,3
605,762	180,16
606	181,14
606,239	181,92
606,477	182,03
606,716	177,13
606,954	177,79
607,193	175,02
607,431	169,84
607,669	168,17
607,908	167,53
608,146	169,26
608,384	167,77
608,622	166,52
608,861	166,33
609,099	164,66
609,337	163,34
609,575	161,26
609,813	161,94
610,052	161,87
610,29	156,56
610,528	155,27
610,766	153,59
611,004	152,05
611,242	149,44
611,48	148,2
611,718	143,8
611,956	143,7
612,194	142,92
612,432	141,66
612,67	140,87
612,908	142,09
613,146	140,26
613,384	138,22
613,621	136,72
613,859	136,58
614,097	136,87
614,335	136,01
614,573	136,22
614,811	138,09
615,048	137,69
615,286	137,84
615,524	135,68
615,761	131,99
615,999	132,36
616,237	130,97
616,474	133,98
616,712	135,23
616,95	134,61
617,187	133,45
617,425	134,57
617,662	135,25
617,9	132,95
618,137	131,04
618,375	128,51
618,612	126,36
618,85	129,43
619,087	132,67
619,325	130,88
619,562	128,63
619,799	127,07
620,037	126,22
620,274	124,55
620,511	126,26
620,749	122,37
620,986	120,82
621,223	117,38
621,461	116,75
621,698	117,18
621,935	115,68
622,172	112,83
622,409	114,22
622,647	113,91
622,884	110,7
623,121	113,71
623,358	110,43
623,595	110,65
623,832	109,08
624,069	105,27
624,306	105,49
624,543	105,92
624,78	105,33
625,017	105,51
625,254	107,99
625,491	110,18
625,728	112,44
625,965	113,53
626,202	110,43
626,438	108,05
626,675	108,27
626,912	109,71
627,149	110,46
627,386	109,96
627,622	108,29
627,859	107,73
628,096	109,26
628,333	109,18
628,569	111,62
628,806	113,18
629,043	112,65
629,279	114,91
629,516	118,49
629,752	113,75
629,989	115,02
630,225	113,69
630,462	113,23
630,699	113,63
630,935	112,38
631,171	109,8
631,408	110,21
631,644	108,78
631,881	106,44
632,117	104,12
632,354	104,49
632,59	103,25
632,826	101,48
633,063	99,79
633,299	100,66
633,535	98,42
633,771	97,72
634,008	98,47
634,244	98,13
634,48	95,49
634,716	96,46
634,953	95,53
635,189	94,42
635,425	95,7
635,661	97,13
635,897	94,66
636,133	93,39
636,369	91,93
636,605	86,07
636,841	83,07
637,077	84,76
637,313	83,32
637,549	84,31
637,785	82,71
638,021	84,31
638,257	83,5
638,493	84,65
638,729	82,57
638,965	84,99
639,2	87,05
639,436	84,92
639,672	83,88
639,908	81,24
640,144	85,47
640,379	88,46
640,615	85,17
640,851	87,3
641,086	87,79
641,322	85,88
641,558	86,1
641,793	87,32
642,029	85
642,264	84,79
642,5	83,49
642,736	80,33
642,971	80,21
643,207	78,42
643,442	75,98
643,678	75,53
643,913	77,98
644,148	78,36
644,384	79,43
644,619	78,71
644,855	80,2
645,09	79,17
645,325	77,32
645,561	77,07
645,796	74,58
646,031	77,29
646,266	75,03
646,502	72,16
646,737	74,57
646,972	73,12
647,207	73,12
647,442	68,56
647,678	64,27
647,913	66,48
648,148	66,11
648,383	64,45
648,618	64,52
648,853	64,86
649,088	66,48
649,323	68,84
649,558	70,1
649,793	72,42
650,028	72,61
650,263	68,97
650,498	71,39
650,733	71,48
650,968	70,11
651,202	71,42
651,437	68,07
651,672	64,07
651,907	63,65
652,142	64,33
652,376	64,28
652,611	66,45
652,846	67,96
653,081	66,57
653,315	65,15
653,55	66,04
653,785	66,21
654,019	67,2
654,254	66,21
654,488	67,96
654,723	64,46
654,958	62,2
655,192	60,21
655,427	56,78
655,661	58,76
655,896	60,81
656,13	62,49
656,364	58,71
656,599	54,71
656,833	61,26
657,068	61,43
657,302	61,14
657,536	60,46
657,771	61,85
658,005	62,25
658,239	64,5
658,474	60,62
658,708	62,53
658,942	63,5
659,176	61,02
659,41	57,29
659,645	57,52
659,879	55,97
660,113	52,34
660,347	53,06
660,581	50,43
660,815	49,47
661,049	48,01
661,283	45,25
661,517	44,58
661,751	42,42
661,985	42,87
662,219	44,09
662,453	43,81
662,687	46,5
662,921	43,06
663,155	41,08
663,389	33,3
663,622	31,15
663,856	33,96
664,09	24,94
664,324	23,61
664,558	23,19
664,791	22,21
665,025	19,88
665,259	20,27
665,492	18,24
665,726	22,55
665,96	22,36
666,193	20,6
666,427	22,59
666,661	21,95
666,894	20,37
667,128	19,31
667,361	21,57
667,595	20,22
667,828	20,78
668,062	19,43
668,295	20,46
668,529	20,85
668,762	20,64
668,995	20,74
669,229	24,52
669,462	25,72
669,695	25,58
669,929	22,4
670,162	23,05
670,395	22,84
670,629	25,52
670,862	28,4
671,095	24,98
671,328	26,14
671,561	22,4
671,795	24,44
672,028	26,39
672,261	26,46
672,494	26,14
672,727	23,69
672,96	24,47
673,193	23,57
673,426	29,5
673,659	28,83
673,892	29,05
674,125	28,66
674,358	28,89
674,591	27,37
674,824	27,67
675,057	27,07
675,29	25,64
675,523	26,05
675,755	24,69
675,988	27,03
676,221	28,96
676,454	27,1
676,687	26,65
676,919	25,07
677,152	25,46
677,385	24,52
677,617	23,63
677,85	24,91
678,083	23,22
678,315	26,36
678,548	23,58
678,78	24,17
679,013	23,2
679,246	23,47
679,478	25,29
679,711	24,06
679,943	25,96
680,175	22,55
680,408	25,31
680,64	19,41
680,873	20,73
681,105	20,7
681,338	22,69
681,57	20,61
681,802	21,34
682,034	19,94
682,267	23,03
682,499	25,28
682,731	21,69
682,964	21,83
683,196	19,05
683,428	17,35
683,66	15,47
683,892	18,56
684,124	20,9
684,356	23,33
684,589	24,57
684,821	23,81
685,053	22,52
685,285	23,02
685,517	23,98
685,749	26,24
685,981	26,92
686,213	26,28
686,445	26,3
686,676	22,49
686,908	22,8
687,14	22,96
687,372	24,51
687,604	20,37
687,836	22,19
688,068	21,32
688,299	21,22
688,531	19,22
688,763	23,99
688,995	22,58
689,226	27,09
689,458	24,75
689,69	22,83
689,921	22,78
690,153	22,72
690,384	24,34
690,616	22,94
690,848	23,19
691,079	18,98
691,311	16,58
691,542	14,7
691,774	13,15
692,005	15,49
692,237	18,91
692,468	17,42
692,699	15,45
692,931	15,03
693,162	14,22
693,393	12,96
693,625	10,97
693,856	12,5
694,087	13,79
694,319	13,11
694,55	11,87
694,781	12,36
695,012	11,22
695,243	9,41
695,475	8,67
695,706	8,49
695,937	7,62
696,168	7,54
696,399	5,21
696,63	4,33
696,861	4,32
697,092	10,3
697,323	13,04
697,554	14,45
697,785	14,26
698,016	16,67
698,247	15,92
698,478	17,13
698,709	18,44
698,94	18,94
699,171	17,39
699,401	13,05
699,632	15,29
699,863	11,86
700,094	11,38
700,325	12,59
700,555	13,97
700,786	16,58
701,017	18,42
701,247	15,8
701,478	16,32
701,709	16,11
701,939	15,68
702,17	18,09
702,401	20,57
702,631	21,37
702,862	20,89
703,092	17,58
703,323	20,69
703,553	21,25
703,784	21,41
704,014	21,11
704,244	16,22
704,475	13,54
704,705	13,12
704,936	14,02
705,166	12,43
705,396	13,64
705,627	13,56
705,857	12,93
706,087	13,54
706,317	11,91
706,548	10,43
706,778	9,52
707,008	10,74
707,238	10,14
707,468	8,84
707,698	6,87
707,928	3,87
708,158	0,65
708,389	1,61
708,619	0,77
708,849	-0,8
709,079	0,29
709,309	-3,08
709,539	-6,53
709,768	-5,18
709,998	-3,53
710,228	-4,41
710,458	-6,85
710,688	-10,3
710,918	-9,77
711,148	-9,74
711,378	-10,77
711,607	-11,37
711,837	-11,16
712,067	-10,03
712,297	-9,69
712,526	-9,88
712,756	-7,55
712,986	-11,04
713,215	-13,05
713,445	-10,91
713,674	-10,09
713,904	-11,13
714,134	-7,81
714,363	-7,41
714,593	-7,09
714,822	-6,86
715,052	-6,37
715,281	-4,45
715,511	-5,22
715,74	-6,39
715,969	-6,26
716,199	-8,42
716,428	-7,81
716,657	-7,54
716,887	-6,67
717,116	-8,99
717,345	-6,35
717,575	-7,02
717,804	-4,71
718,033	-5,78
718,262	-7,53
718,492	-5,17
718,721	-3,93
718,95	-3,86
719,179	-7,73
719,408	-8,63
719,637	-11,95
719,866	-14,48
720,095	-11,51
720,324	-12,34
720,553	-17,16
720,782	-17,62
721,011	-17,85
721,24	-19,9
721,469	-21,04
721,698	-22,88
721,927	-22,25
722,156	-23,73
722,385	-26,03
722,613	-23,07
722,842	-22,24
723,071	-20,19
723,3	-17,82
723,529	-17,92
723,757	-16,37
723,986	-19,86
724,215	-21,12
724,443	-21,53
724,672	-17,93
724,901	-18,8
725,129	-17,23
725,358	-12,26
725,586	-16,5
725,815	-16,88
726,043	-19,31
726,272	-20,61
726,5	-19,43
726,729	-16,44
726,957	-19,14
727,186	-21,74
727,414	-19,57
727,642	-17,62
727,871	-15,02
728,099	-13,05
728,327	-13,89
728,556	-12,42
728,784	-9,27
729,012	-11,09
729,241	-7,36
729,469	-6,2
729,697	-8,13
729,925	-7,27
730,153	-8,75
730,381	-8,63
730,61	-8,15
730,838	-12,07
731,066	-11,95
731,294	-10,53
731,522	-12,26
731,75	-16,42
731,978	-16,65
732,206	-17,26
732,434	-21,1
732,662	-17,62
732,89	-19,82
733,118	-19,7
733,346	-18,19
733,573	-18,32
733,801	-19,55
734,029	-12,88
734,257	-11,3
734,485	-8,25
734,712	-5,56
734,94	-8,93
735,168	-7,19
735,396	-5,88
735,623	-6,92
735,851	-6,95
736,078	-6,08
736,306	-5,92
736,534	-6,43
736,761	-8,58
736,989	-10,42
737,216	-10,13
737,444	-12,57
737,671	-11,22
737,899	-5,27
738,126	-4,1
738,354	-3,73
738,581	-3,55
738,809	-2,98
739,036	-4,78
739,263	-4,33
739,491	-6,15
739,718	-6,89
739,945	-0,41
740,173	0,34
740,4	0,23
740,627	-1,87
740,854	-1,18
741,081	-4,7
741,309	-6,9
741,536	-11,17
741,763	-13,29
741,99	-10,44
742,217	-9,87
742,444	-11,04
742,671	-8,61
742,898	-9,77
743,125	-11,69
743,352	-14,48
743,579	-14,84
743,806	-13,36
744,033	-9,94
744,26	-9,51
744,487	-10,77
744,714	-11,31
744,941	-12,71
745,167	-9,68
745,394	-9,92
745,621	-8,24
745,848	-7,11
746,075	-4,86
746,301	-1,74
746,528	3,98
746,755	2,69
746,981	0,2
747,208	1,67
747,435	3,7
747,661	4,71
747,888	5,13
748,114	2,56
748,341	6,42
748,567	8,58
748,794	6,44
749,02	4,63
749,247	0,88
749,473	0,15
749,7	-1,73
749,926	-2,18
750,152	1,82
750,379	1,67
750,605	1,42
750,831	-0,05
751,058	-2,22
751,284	-4,4
751,51	0,64
751,737	2,08
751,963	1,03
752,189	-0,52
752,415	-2,01
752,641	-4,33
752,867	-5,97
753,094	-6,39
753,32	-7,68
753,546	-10,26
753,772	-7,77
753,998	-10,59
754,224	-10,73
754,45	-10,22
754,676	-10,2
754,902	-10,52
755,128	-9,42
755,354	-11,17
755,579	-10,36
755,805	-7,95
756,031	-9,07
756,257	-9,7
756,483	-10,17
756,709	-11,29
756,934	-10,61
757,16	-12,42
757,386	-12
757,612	-12,28
757,837	-12,49
758,063	-9,37
758,289	-6,49
758,514	-9,44
758,74	-13,62
758,965	-15,98
759,191	-14,86
759,416	-12,16
759,642	-10,52
759,868	-9,01
760,093	-7,11
760,318	-9,14
760,544	-9,48
760,769	-11,33
760,995	-9,93
761,22	-9,86
761,445	-10,7
761,671	-8,46
761,896	-5,56
762,121	-4,78
762,347	-4,58
762,572	-7,67
762,797	-8,14
763,022	-6,2
763,248	-0,92
763,473	0,06
763,698	-0,66
763,923	0,56
764,148	-0,03
764,373	-1,18
764,598	-0,57
764,823	0,92
765,048	-2,76
765,273	-5,04
765,498	-5,19
765,723	-4,31
765,948	-2,17
766,173	-2,91
766,398	-3,46
766,623	-5,79
766,848	-7,1
767,073	-8,49
767,298	-8,9
767,522	-9,23
767,747	-7,45
767,972	-8,49
768,197	-7,19
768,421	-7,75
768,646	-11,03
768,871	-14,78
769,095	-14,46
769,32	-13,14
769,545	-12,67
769,769	-10,43
769,994	-10,42
770,218	-13,81
770,443	-12,67
770,667	-11,19
770,892	-12,35
771,116	-12,41
771,341	-9,6
771,565	-9,27
771,79	-8,82
772,014	-9,56
772,238	-11,68
772,463	-9,59
772,687	-8,87
772,911	-9,39
773,136	-11,78
773,36	-10,72
773,584	-8,14
773,808	-9,53
774,033	-9,44
774,257	-10,26
774,481	-10,73
774,705	-12,46
774,929	-12,77
775,153	-13,49
775,377	-11,33
775,602	-10,61
775,826	-9,42
776,05	-7,59
776,274	-8,78
776,498	-8,8
776,722	-10,37
776,945	-9,39
777,169	-9,83
777,393	-11,88
777,617	-12,09
777,841	-11,16
778,065	-9,66
778,289	-10,88
778,512	-12,24
778,736	-12,18
778,96	-12,02
779,184	-9,67
779,407	-11,29
779,631	-11,43
779,855	-12,98
780,078	-11,99
780,302	-14,5
780,526	-17,84
780,749	-17,08
780,973	-16,71
781,196	-14,98
781,42	-15,87
781,643	-15,93
781,867	-13,64
782,09	-17,93
782,314	-20,06
782,537	-22,54
782,76	-23,08
782,984	-21,52
783,207	-22,97
783,431	-22,68
783,654	-24,13
783,877	-25,67
784,1	-27,16
784,324	-26,82
784,547	-27,92
784,77	-32,14
784,993	-33,28
785,216	-34,31
785,44	-33,93
785,663	-35,34
785,886	-31,85
786,109	-31,82
786,332	-30,03
786,555	-28,32
786,778	-25,32
787,001	-23,44
787,224	-20,67
787,447	-18,58
787,67	-16,8
787,893	-15,58
788,116	-14,86
788,339	-13,65
788,561	-14,69
788,784	-18,96
789,007	-19,89
789,23	-20,54
789,453	-19,35
789,675	-21,45
789,898	-24,26
790,121	-25,46
790,344	-25,2
790,566	-23,73
790,789	-24,21
791,012	-23,12
791,234	-20,58
791,457	-16,49
791,679	-16,03
791,902	-15,98
792,124	-15,54
792,347	-17,18
792,569	-16,68
792,792	-20,34
793,014	-16,87
793,237	-16,42
793,459	-17,26
793,681	-17,87
793,904	-20,83
794,126	-23,43
794,348	-23,99
794,571	-24,84
794,793	-26,73
795,015	-26,27
795,237	-26,92
795,46	-24,47
795,682	-23,56
795,904	-20,34
796,126	-21,55
796,348	-20,32
796,57	-15,71
796,792	-15,2
797,014	-10,59
797,237	-9,45
797,459	-7,55
797,681	-5,65
797,903	-7,37
798,124	-6,5
798,346	4,26
798,568	7,23
798,79	11,01
799,012	13,23
799,234	15,09
799,456	15,99
799,678	18,13
799,899	15,34
800,121	12,56
800,343	12,02
800,565	11,24
800,786	12,34
801,008	14,53
801,23	13,8
801,451	15,45
801,673	14,54
801,895	13,51
802,116	14,68
802,338	15,08
802,559	16,21
802,781	15,48
803,002	17,76
803,224	18,85
803,445	15,74
803,667	16,18
803,888	12,55
804,109	12,36
804,331	11,14
804,552	9,2
804,773	12,54
804,995	9,43
805,216	-4,72
805,437	-6,74
805,658	-10,88
805,88	-13,17
806,101	-12,6
806,322	-12,72
806,543	-14,19
806,764	-17,23
806,985	-16,4
807,207	-15,42
807,428	-14,52
807,649	-18,06
807,87	-18,92
808,091	-16,56
808,312	-16,77
808,533	-12,84
808,754	-11,8
808,975	-14,1
809,195	-11,97
809,416	-11,31
809,637	-11,99
809,858	-13,29
810,079	-15,67
810,3	-13,23
810,52	-14,35
810,741	-14,95
810,962	-16,6
811,183	-17,34
811,403	-16,12
811,624	-18,36
811,845	-16,8
812,065	-15,43
812,286	-15,03
812,506	-14,29
812,727	-14,5
812,948	-14,21
813,168	-12,71
813,389	-12,83
813,609	-10,62
813,83	-11,02
814,05	-11,71
814,27	-11,16
814,491	-7,16
814,711	-8,38
814,931	-11,14
815,152	-11,2
815,372	-11,97
815,592	-12,25
815,813	-12,6
816,033	-15,52
816,253	-15,21
816,473	-15,6
816,694	-14,43
816,914	-12,43
817,134	-12,55
817,354	-13,82
817,574	-13,03
817,794	-12,61
818,014	-13,22
818,234	-13,37
818,454	-13,33
818,674	-16,13
818,894	-18,49
819,114	-15,7
819,334	-14,72
819,554	-11,97
819,774	-8,5
819,994	-12,09
820,214	-13,63
820,433	-13,41
820,653	-13,53
820,873	-11,83
821,093	-11,67
821,312	-13,38
821,532	-10,77
821,752	-7,82
821,972	-8,92
822,191	-9,05
822,411	-10,76
822,63	-8,85
822,85	-8,9
823,07	-11,42
823,289	-10,09
823,509	-12,48
823,728	-10,85
823,948	-12,86
824,167	-13,11
824,387	-14,08
824,606	-12,58
824,825	-12,62
825,045	-12,75
825,264	-13,01
825,483	-11,23
825,703	-9,24
825,922	-12,03
826,141	-13,11
826,361	-15,04
826,58	-19,91
826,799	-18,75
827,018	-18,21
827,237	-17,91
827,456	-16,67
827,676	-16,84
827,895	-16,68
828,114	-14,78
828,333	-15,18
828,552	-15,67
828,771	-13,92
828,99	-15,74
829,209	-16,06
829,428	-14,33
829,647	-14,22
829,866	-12,94
830,084	-13,17
830,303	-12
830,522	-14,18
830,741	-13,17
830,96	-13,41
831,179	-12,23
831,397	-13,69
831,616	-13,33
831,835	-13,37
832,053	-12,59
832,272	-11,58
832,491	-10,96
832,709	-11,76
832,928	-11,82
833,147	-11,25
833,365	-10,18
833,584	-8,71
833,802	-5,2
834,021	-5,14
834,239	-4,32
834,458	-6,21
834,676	-9,97
834,894	-11,52
835,113	-13,14
835,331	-13,69
835,55	-15,77
835,768	-14,94
835,986	-13,06
836,204	-15,54
836,423	-14,58
836,641	-15,55
836,859	-17,25
837,077	-16,23
837,296	-15,89
837,514	-17,2
837,732	-16,82
837,95	-17,92
838,168	-15,88
838,386	-17,59
838,604	-15,24
838,822	-15,03
839,04	-15,59
839,258	-15,73
839,476	-13,74
839,694	-13,83
839,912	-15,35
840,13	-15,59
840,348	-13,56
840,566	-16,62
840,783	-14,74
841,001	-16,45
841,219	-14,88
841,437	-13,07
841,655	-12,27
841,872	-12,24
842,09	-14,14
842,308	-12,26
842,525	-11,35
842,743	-11,12
842,961	-12,23
843,178	-14,25
843,396	-10,21
843,613	-9,17
843,831	-7,93
844,048	-8,75
844,266	-8,53
844,483	-8,33
844,701	-8,19
844,918	-8,47
845,136	-8,53
845,353	-10,59
845,57	-8,94
845,788	-6,39
846,005	-8,76
846,222	-9,85
846,439	-8,76
846,657	-8,07
846,874	-7,44
847,091	-9,24
847,308	-7,03
847,526	-9,26
847,743	-8,99
847,96	-10,79
848,177	-10,63
848,394	-10,11
848,611	-10,35
848,828	-9,74
849,045	-11,75
849,262	-12,31
849,479	-11,76
849,696	-11,59
849,913	-13,22
850,13	-18,37
850,347	-16,06
850,564	-16,5
850,78	-17,02
850,997	-19,37
851,214	-20,02
851,431	-18,77
851,647	-22,21
851,864	-21,09
852,081	-19,39
852,298	-23,09
852,514	-25,27
852,731	-22,9
852,948	-20,58
853,164	-20,01
853,381	-20,51
853,597	-22,45
853,814	-25,01
854,03	-27,77
854,247	-25,6
854,463	-25,18
854,68	-25,96
854,896	-25,48
855,113	-25,94
855,329	-25,2
855,545	-22,91
855,762	-24,62
855,978	-28,45
856,194	-31,36
856,411	-28,95
856,627	-26,72
856,843	-25,33
857,059	-23,05
857,275	-25,97
857,492	-25,5
857,708	-20,7
857,924	-19,49
858,14	-17,88
858,356	-18,23
858,572	-18,91
858,788	-21,09
859,004	-19,93
859,22	-21,64
859,436	-22,01
859,652	-23,7
859,868	-25,6
860,084	-26,37
860,3	-25,15
860,516	-24,29
860,731	-24,42
860,947	-27,5
861,163	-26,19
861,379	-25,12
861,595	-23,79
861,81	-23,02
862,026	-22,81
862,242	-22,48
862,457	-21,88
862,673	-18,4
862,889	-16,87
863,104	-16,94
863,32	-15,78
863,535	-14,87
863,751	-19,89
863,966	-16,64
864,182	-14,73
864,397	-16,71
864,613	-18,8
864,828	-20,76
865,044	-19,25
865,259	-16,85
865,474	-17,44
865,69	-15,84
865,905	-15,04
866,12	-17,17
866,336	-17,62
866,551	-15,09
866,766	-15,3
866,981	-17,33
867,196	-16,62
867,412	-15,53
867,627	-13,62
867,842	-14,25
868,057	-14,79
868,272	-15,63
868,487	-16,81
868,702	-18,73
868,917	-20,44
869,132	-18,18
869,347	-18,29
869,562	-20,15
869,777	-19,9
869,992	-21,85
870,207	-22,64
870,422	-23,39
870,636	-24,03
870,851	-25,57
871,066	-27,42
871,281	-26,2
871,495	-27,27
871,71	-24,25
871,925	-27,14
872,14	-27,51
872,354	-31,47
872,569	-32,59
872,783	-29,58
872,998	-29,03
873,213	-31,52
873,427	-28,64
873,642	-26,53
873,856	-26,66
874,071	-27,7
874,285	-29,14
874,5	-31,79
874,714	-31,8
874,928	-32,85
875,143	-33,97
875,357	-33,37
875,571	-34,67
875,786	-33,96
876	-30,61
876,214	-29,04
876,429	-31,06
876,643	-29,49
876,857	-29,08
877,071	-27,13
877,285	-29,64
877,499	-32,34
877,714	-30,02
877,928	-28,27
878,142	-29,72
878,356	-32,86
878,57	-31,1
878,784	-30,19
878,998	-29,56
879,212	-25,87
879,426	-28,03
879,639	-27,13
879,853	-27,09
880,067	-27,79
880,281	-28,45
880,495	-27,86
880,709	-24,55
880,922	-24,09
881,136	-21,95
881,35	-20,87
881,564	-21,76
881,777	-23,64
881,991	-23,02
882,205	-19,3
882,418	-19,75
882,632	-23,16
882,845	-24,19
883,059	-23,47
883,273	-23,98
883,486	-24,16
883,7	-21,11
883,913	-19,91
884,126	-18,27
884,34	-21,28
884,553	-22,4
884,767	-18,43
884,98	-16,93
885,193	-18,73
885,407	-17,52
885,62	-14,76
885,833	-15,05
886,046	-13,65
886,26	-15,22
886,473	-16,4
886,686	-16,17
886,899	-13,71
887,112	-13,96
887,326	-18,62
887,539	-17,24
887,752	-15,55
887,965	-18,9
888,178	-17,17
888,391	-14,85
888,604	-14,66
888,817	-17,84
889,03	-16,84
889,243	-18,55
889,455	-19,5
889,668	-20,18
889,881	-17,58
890,094	-18,42
890,307	-21,76
890,52	-20,28
890,732	-20,16
890,945	-20,4
891,158	-21,39
891,37	-23,7
891,583	-23,62
891,796	-21,22
892,008	-24,21
892,221	-25,75
892,434	-30,65
892,646	-31,35
892,859	-31,34
893,071	-29,23
893,284	-27,84
893,496	-31,19
893,709	-31,95
893,921	-28,91
894,133	-30,03
894,346	-30,96
894,558	-28,1
894,771	-28,05
894,983	-26,88
895,195	-26,69
895,407	-25,23
895,62	-28,54
895,832	-27,76
896,044	-26,41
896,256	-26,05
896,468	-27,16
896,681	-25,83
896,893	-25,79
897,105	-27,09
897,317	-26,57
897,529	-23,66
897,741	-22,88
897,953	-20,18
898,165	-22,34
898,377	-25
898,589	-23,43
898,801	-24,34
899,013	-20,42
899,224	-17,87
899,436	-15,91
899,648	-17,48
899,86	-19,65
900,072	-15,56
900,283	-14,26
900,495	-13,29
900,707	-12,18
900,919	-14,98
901,13	-15,12
901,342	-16,22
901,554	-16,39
901,765	-14,84
901,977	-17,17
902,188	-17,33
902,4	-18,21
902,611	-18,29
902,823	-19,99
903,034	-23
903,246	-24,31
903,457	-24,99
903,669	-25,74
903,88	-26,14
904,091	-27,05
904,303	-26,09
904,514	-27,77
904,725	-24,6
904,936	-22,47
905,148	-21,65
905,359	-18,49
905,57	-20,21
905,781	-22,92
905,992	-24,4
906,204	-22,7
906,415	-21,16
906,626	-22,76
906,837	-20,96
907,048	-22,31
907,259	-24,67
907,47	-25,55
907,681	-26,8
907,892	-24,16
908,103	-26,11
908,314	-29,59
908,525	-27,6
908,735	-27,33
908,946	-27,48
909,157	-28,37
909,368	-26,06
909,579	-23,48
909,789	-23,86
910	-24,64
910,211	-21,71
910,421	-21,24
910,632	-19,98
910,843	-22,99
911,053	-19,85
911,264	-18,34
911,475	-19,61
911,685	-19,97
911,896	-20,94
912,106	-18,91
912,317	-18,86
912,527	-17,29
912,737	-18,47
912,948	-19,22
913,158	-19,39
913,369	-21,9
913,579	-20,28
913,789	-18,1
914	-12,96
914,21	-12,95
914,42	-13,76
914,63	-12,71
914,841	-11,84
915,051	-9,58
915,261	-7,58
915,471	-4,94
915,681	-3,22
915,891	-2,74
916,101	-4,11
916,311	-4,05
916,521	-2,94
916,731	-3,3
916,941	-2,05
917,151	-3,93
917,361	-0,96
917,571	-5,18
917,781	-8,24
917,991	-9,83
918,201	-10,34
918,411	-11,88
918,621	-13,05
918,83	-13,19
919,04	-15,24
919,25	-12,01
919,46	-11,56
919,669	-14
919,879	-14,36
920,089	-14,86
920,298	-15,97
920,508	-18,45
920,717	-17
920,927	-18,63
921,136	-17,68
921,346	-19,34
921,555	-23,21
921,765	-24,05
921,974	-26,21
922,184	-28,82
922,393	-28,18
922,603	-28,89
922,812	-26,52
923,021	-27,27
923,23	-28,61
923,44	-30,5
923,649	-28,77
923,858	-29,07
924,067	-28,39
924,277	-29,97
924,486	-27,58
924,695	-27,13
924,904	-25,2
925,113	-23,88
925,322	-21,87
925,531	-21,48
925,74	-25,84
925,949	-26,23
926,158	-23,63
926,367	-23,34
926,576	-23,13
926,785	-24,16
926,994	-25,6
927,203	-24,58
927,412	-23,55
927,621	-24,39
927,83	-20,6
928,038	-19,7
928,247	-19,77
928,456	-19,69
928,665	-18,39
928,873	-17,22
929,082	-16,04
929,291	-15,43
929,499	-12,68
929,708	-13,61
929,916	-13,18
930,125	-15,55
930,333	-16,14
930,542	-13,89
930,75	-10,86
930,959	-10,3
931,167	-11,45
931,376	-12,57
931,584	-12,98
931,793	-13,39
932,001	-13,37
932,209	-13,67
932,418	-14,88
932,626	-16,74
932,834	-17,42
933,042	-21,02
933,251	-20,27
933,459	-19,27
933,667	-20,58
933,875	-21,54
934,083	-20,62
934,291	-20,08
934,499	-20,06
934,707	-20,59
934,915	-19,61
935,123	-18,68
935,331	-20,24
935,539	-22,56
935,747	-24,91
935,955	-26,5
936,163	-26,05
936,371	-26,06
936,579	-24,06
936,787	-25,17
936,995	-27,67
937,202	-29,46
937,41	-28,77
937,618	-29,19
937,826	-29,07
938,033	-33,24
938,241	-34,76
938,449	-32,76
938,656	-30,37
938,864	-30,75
939,071	-30,85
939,279	-27,86
939,486	-24,85
939,694	-26,02
939,901	-27
940,109	-27,29
940,316	-27,21
940,524	-28,12
940,731	-30,89
940,939	-29,1
941,146	-28,48
941,353	-29,75
941,561	-29,59
941,768	-30,26
941,975	-28,03
942,182	-28,3
942,39	-27,85
942,597	-25,15
942,804	-26,1
943,011	-26,88
943,218	-25,64
943,425	-24,99
943,632	-24,04
943,839	-27,01
944,046	-26,69
944,253	-27,5
944,46	-25,18
944,667	-22,14
944,874	-23,16
945,081	-22,18
945,288	-21,39
945,495	-19,81
945,702	-20,11
945,909	-22,21
946,115	-19,75
946,322	-20,44
946,529	-20,7
946,736	-20,47
946,942	-19,69
947,149	-19,58
947,356	-21,53
947,562	-22,62
947,769	-22,53
947,976	-24,12
948,182	-22,86
948,389	-23,88
948,595	-23,85
948,802	-23,48
949,008	-24,86
949,215	-22,83
949,421	-23,12
949,628	-24,15
949,834	-24,52
950,04	-25,63
950,247	-20,51
950,453	-18,87
950,659	-19,01
950,865	-19,74
951,072	-24,69
951,278	-22,08
951,484	-23,05
951,69	-24,49
951,896	-25,08
952,103	-26,73
952,309	-24,67
952,515	-25,94
952,721	-24,4
952,927	-23,56
953,133	-25,48
953,339	-25,69
953,545	-25,92
953,751	-25,57
953,957	-23,51
954,163	-25,76
954,369	-25,36
954,574	-27,56
954,78	-27,22
954,986	-25,84
955,192	-24,24
955,398	-25,7
955,603	-29,11
955,809	-26,89
956,015	-26,07
956,22	-24,32
956,426	-22,59
956,632	-26,93
956,837	-27,35
957,043	-26,67
957,248	-24,77
957,454	-22,81
957,66	-25,55
957,865	-26,54
958,07	-26,54
958,276	-28,39
958,481	-29,22
958,687	-31,11
958,892	-31,68
959,097	-31,72
959,303	-31,46
959,508	-31,49
959,713	-32,3
959,919	-32,54
960,124	-32,89
960,329	-33,12
960,534	-30,15
960,739	-28,47
960,945	-27,08
961,15	-27,65
961,355	-28,73
961,56	-32,8
961,765	-34,47
961,97	-33,15
962,175	-32,28
962,38	-36
962,585	-35,64
962,79	-39
962,995	-39,74
963,2	-40,82
963,404	-41,54
963,609	-43,95
963,814	-45,02
964,019	-47,79
964,224	-48,95
964,428	-46,89
964,633	-45,29
964,838	-43,27
965,042	-43,52
965,247	-45,05
965,452	-44,73
965,656	-44,43
965,861	-42,48
966,066	-43
966,27	-40,42
966,475	-36,95
966,679	-40,59
966,884	-39,65
967,088	-42,42
967,292	-42,94
967,497	-41,76
967,701	-42,76
967,906	-40,26
968,11	-36,52
968,314	-32,86
968,518	-34,62
968,723	-30,09
968,927	-29,77
969,131	-27,36
969,335	-23,91
969,539	-24,39
969,744	-23,16
969,948	-20,92
970,152	-19,41
970,356	-17,45
970,56	-17,11
970,764	-17,03
970,968	-14,1
971,172	-14,99
971,376	-13,53
971,58	-11,51
971,784	-10,97
971,988	-12,28
972,192	-10,25
972,395	-11,3
972,599	-13,63
972,803	-15,15
973,007	-12,84
973,21	-12,71
973,414	-12,66
973,618	-13,81
973,822	-14,39
974,025	-12,96
974,229	-14,77
974,432	-18
974,636	-19,57
974,84	-18,14
975,043	-18,37
975,247	-20,41
975,45	-21,33
975,654	-21,11
975,857	-19,03
976,06	-20,19
976,264	-21,14
976,467	-19,23
976,671	-19,7
976,874	-17,41
977,077	-18,74
977,28	-19,65
977,484	-22,17
977,687	-22,36
977,89	-21,22
978,093	-21,97
978,297	-20,09
978,5	-22,23
978,703	-20,42
978,906	-19,76
979,109	-20,36
979,312	-18,6
979,515	-19,6
979,718	-19,43
979,921	-18,21
980,124	-19,03
980,327	-19,21
980,53	-17,84
980,733	-15,1
980,936	-13,73
981,138	-15,6
981,341	-14,61
981,544	-13,61
981,747	-14,44
981,949	-15,8
982,152	-14,7
982,355	-14,04
982,558	-11,58
982,76	-15,67
982,963	-15,78
983,165	-16,32
983,368	-14,96
983,571	-16,66
983,773	-13,43
983,976	-13,69
984,178	-13,48
984,381	-14,32
984,583	-18,2
984,785	-18,1
984,988	-16,28
985,19	-15,64
985,392	-17,19
985,595	-20,34
985,797	-19,85
985,999	-16,19
986,202	-13,98
986,404	-13,88
986,606	-11,23
986,808	-12,4
987,01	-13,06
987,212	-14,17
987,415	-15,88
987,617	-16,41
987,819	-18,01
988,021	-17,53
988,223	-19,43
988,425	-20,21
988,627	-21,23
988,829	-25,44
989,031	-23,36
989,232	-24,55
989,434	-23
989,636	-23,98
989,838	-23,69
990,04	-23,29
990,242	-23,37
990,443	-25,19
990,645	-22,96
990,847	-19,25
991,048	-19,25
991,25	-20,63
991,452	-21,72
991,653	-22,22
991,855	-23,39
992,057	-23,96
992,258	-24,49
992,46	-24,98
992,661	-23,99
992,863	-25,92
993,064	-26,8
993,265	-26,73
993,467	-28,48
993,668	-25,31
993,87	-25,88
994,071	-25,33
994,272	-24,41
994,473	-22,87
994,675	-22,24
994,876	-20,62
995,077	-18,9
995,278	-18,46
995,48	-17,07
995,681	-19,37
995,882	-17,31
996,083	-17,08
996,284	-20,84
996,485	-21,7
996,686	-22,52
996,887	-23,08
997,088	-26,96
997,289	-27,69
997,49	-28,2
997,691	-28,03
997,892	-27,57
998,092	-21,81
998,293	-21,55
998,494	-22,7
998,695	-23,68
998,896	-22,56
999,096	-23,77
999,297	-20,55
999,498	-22,77
999,698	-24,07
999,899	-26,54
1000,1	-27,43
1000,3	-26,4
1000,501	-27,7
1000,701	-27,2
1000,902	-28,17
1001,102	-27,84
1001,303	-26,2
1001,503	-27,73
1001,704	-26,78
1001,904	-27,91
1002,105	-29,42
1002,305	-29,38
1002,505	-29,42
1002,706	-30,01
1002,906	-30,34
1003,106	-30,8
1003,306	-28,59
1003,507	-27,42
1003,707	-28,03
1003,907	-24,99
1004,107	-23,56
1004,307	-25,06
1004,507	-23,78
1004,707	-24,05
1004,907	-26,17
1005,107	-27,5
1005,308	-26,38
1005,507	-29,96
1005,707	-26,99
1005,907	-26,75
1006,107	-24,3
1006,307	-23,56
1006,507	-25,36
1006,707	-23,39
1006,907	-23,66
1007,106	-24,52
1007,306	-25,4
1007,506	-25,5
1007,706	-26,09
1007,905	-30,02
1008,105	-29,4
1008,305	-30,23
1008,504	-29,7
1008,704	-24,94
1008,903	-23,34
1009,103	-20,8
1009,303	-22,67
1009,502	-22,36
1009,702	-22,9
1009,901	-22,61
1010,1	-26,32
1010,3	-23,93
1010,499	-26,18
1010,699	-28,75
1010,898	-29,45
1011,097	-29,39
1011,296	-28,72
1011,496	-30,27
1011,695	-28,5
1011,894	-30,34
1012,093	-27,01
1012,293	-27,77
1012,492	-28,45
1012,691	-28,01
1012,89	-28,84
1013,089	-31,47
1013,288	-30,51
1013,487	-29,55
1013,686	-30,15
1013,885	-30,66
1014,084	-27,93
1014,283	-28,79
1014,482	-28,51
1014,681	-29,06
1014,88	-32,55
1015,078	-32,78
1015,277	-34,96
1015,476	-34,82
1015,675	-34,53
1015,873	-33,68
1016,072	-33,99
1016,271	-30,37
1016,47	-35,36
1016,668	-33,58
1016,867	-33,2
1017,065	-34,26
1017,264	-34,5
1017,463	-34,58
1017,661	-34,27
1017,86	-35,56
1018,058	-34,63
1018,256	-37,03
1018,455	-38,91
1018,653	-38,76
1018,852	-40,16
1019,05	-43,24
1019,248	-42,92
1019,447	-44,73
1019,645	-45,74
1019,843	-47,69
1020,041	-46,5
1020,24	-46,6
1020,438	-41,1
1020,636	-43,57
1020,834	-46,15
1021,032	-44,59
1021,23	-45,14
1021,428	-43,87
1021,626	-40,93
1021,824	-40,91
1022,022	-42,1
1022,22	-39,56
1022,418	-38,94
1022,616	-38,83
1022,814	-39,55
1023,012	-40,38
1023,21	-38,68
1023,408	-38,09
1023,606	-38,55
1023,803	-33,33
1024,001	-32,8
1024,199	-35,24
1024,397	-34,39
1024,594	-33,73
1024,792	-35,41
1024,99	-33,66
1025,187	-32,11
1025,385	-28,28
1025,582	-26,6
1025,78	-27,25
1025,977	-26,3
1026,175	-24,98
1026,372	-24,74
1026,57	-28,29
1026,767	-24,71
1026,965	-23,13
1027,162	-22
1027,359	-22,84
1027,557	-22,39
1027,754	-25,42
1027,951	-26,89
1028,148	-25,06
1028,346	-27,51
1028,543	-30,4
1028,74	-30,54
1028,937	-32,68
1029,134	-32,48
1029,331	-33,95
1029,528	-33,64
1029,725	-33,58
1029,923	-37,02
1030,12	-33,5
1030,317	-31,8
1030,513	-30,08
1030,71	-28,64
1030,907	-25,09
1031,104	-24,55
1031,301	-24,75
1031,498	-24,91
1031,695	-25,22
1031,892	-24,39
1032,088	-24,05
1032,285	-26,36
1032,482	-28,39
1032,678	-30,26
1032,875	-31,54
1033,072	-30,56
1033,268	-32,05
1033,465	-31,16
1033,662	-32,39
1033,858	-31,39
1034,055	-30,6
1034,251	-29,15
1034,448	-29,99
1034,644	-30,06
1034,84	-27,14
1035,037	-25,03
1035,233	-24,76
1035,43	-22,57
1035,626	-23,44
1035,822	-24,12
1036,019	-24,6
1036,215	-28,6
1036,411	-28,62
1036,607	-30,13
1036,803	-33,3
1037	-34,72
1037,196	-37,11
1037,392	-36,91
1037,588	-40,14
1037,784	-39,35
1037,98	-40,77
1038,176	-40,5
1038,372	-40,83
1038,568	-38,15
1038,764	-36,2
1038,96	-34,41
1039,156	-35,66
1039,352	-35,95
1039,547	-34,03
1039,743	-33,24
1039,939	-30,6
1040,135	-31,1
1040,331	-32,87
1040,526	-30,84
1040,722	-31,27
1040,918	-33,76
1041,113	-36,88
1041,309	-36,8
1041,505	-39,97
1041,7	-38,14
1041,896	-37,32
1042,091	-37,65
1042,287	-35,88
1042,482	-35,64
1042,678	-36,16
1042,873	-34,24
1043,069	-34,82
1043,264	-32,96
1043,459	-32,06
1043,655	-30,3
1043,85	-31,79
1044,045	-29,79
1044,24	-29,96
1044,436	-27,26
1044,631	-27,85
1044,826	-29,22
1045,021	-31,89
1045,216	-31,46
