Data from FLMT021711__20__16-32-28-332.txt Node

Date: Tue Nov 05 16:32:28 CET 2024
User: Etudiants TP
Spectrometer: FLMT02171
Trigger mode: 0
Integration Time (sec): 1,000000E-1
Scans to average: 5
Electric dark correction enabled: true
Nonlinearity correction enabled: false
Boxcar width: 15
XAxis mode: Wavelengths
Number of Pixels in Spectrum: 3648
>>>>>Begin Spectral Data<<<<<
194,658	-51,66
194,923	-48,55
195,188	-43,83
195,453	-43,34
195,717	-39,34
195,982	-38,91
196,247	-37,76
196,512	-39,96
196,777	-37,33
197,042	-36,03
197,307	-35,5
197,572	-32,12
197,837	-32,46
198,101	-30,94
198,366	-29,97
198,631	-28,93
198,896	-23,26
199,161	-19,19
199,425	-13,37
199,69	-5,15
199,955	-3,46
200,22	-4,82
200,484	-5,54
200,749	-5,63
201,014	-6,07
201,278	-5,02
201,543	-4,15
201,807	-4,04
202,072	-3,77
202,337	-4,41
202,601	-5,63
202,866	-6,92
203,13	-7,36
203,395	-8,69
203,659	-9,02
203,924	-10,8
204,189	-9,91
204,453	-9,14
204,717	-6,21
204,982	-7,55
205,246	-7,29
205,511	-6,5
205,775	-7,43
206,04	-2,57
206,304	-2,4
206,568	-0,28
206,833	0,57
207,097	-0,24
207,361	2,47
207,626	4,31
207,89	4,35
208,154	3,71
208,419	4,78
208,683	6,18
208,947	9,17
209,211	9,54
209,476	8,74
209,74	8,79
210,004	8,41
210,268	10,12
210,532	12,41
210,796	13,49
211,061	14,04
211,325	14,86
211,589	13,86
211,853	15,37
212,117	16,11
212,381	15,49
212,645	16
212,909	16,07
213,173	14,85
213,437	15,43
213,701	15,55
213,965	16,69
214,229	12,18
214,493	13,18
214,757	12,59
215,021	11,63
215,285	13,86
215,549	14,03
215,813	11,96
216,077	11,89
216,34	13,61
216,604	11,68
216,868	10,84
217,132	11,67
217,396	11,54
217,659	11,18
217,923	8,53
218,187	9,74
218,451	7,86
218,714	5,31
218,978	6,52
219,242	8,43
219,505	9,22
219,769	10,52
220,033	9,29
220,296	10,25
220,56	13,02
220,824	11,39
221,087	11,21
221,351	12,63
221,614	12,22
221,878	14,43
222,142	12,9
222,405	13,35
222,669	14,64
222,932	11,44
223,196	10,6
223,459	8,95
223,722	10,36
223,986	10,34
224,249	8,53
224,513	8,4
224,776	7,97
225,04	7,98
225,303	5,83
225,566	5,96
225,83	8,77
226,093	12,04
226,356	9,21
226,62	8,75
226,883	11,41
227,146	9,71
227,409	9,1
227,673	7,82
227,936	7,16
228,199	7,46
228,462	6,54
228,725	3,64
228,989	3,33
229,252	4,16
229,515	8,01
229,778	7,74
230,041	4,46
230,304	3,09
230,567	3,93
230,83	2,29
231,093	3,6
231,356	3,64
231,619	9,4
231,882	7,2
232,145	8,31
232,408	8,93
232,671	8,29
232,934	9,7
233,197	8,24
233,46	7,65
233,723	7,9
233,986	6,09
234,249	3,96
234,512	6,72
234,775	8,94
235,037	7,21
235,3	7,91
235,563	7,8
235,826	7,48
236,089	8,55
236,351	8,96
236,614	10,51
236,877	12,51
237,14	14,35
237,402	13,69
237,665	8,27
237,928	8,38
238,19	8
238,453	8,78
238,716	7,51
238,978	7,08
239,241	6,88
239,503	9,08
239,766	4,52
240,029	5,15
240,291	6,78
240,554	5,85
240,816	6,31
241,079	5,09
241,341	5,34
241,604	4,45
241,866	2,38
242,129	2,94
242,391	3,66
242,653	2,64
242,916	2,16
243,178	2,58
243,441	2,67
243,703	2,24
243,965	0,93
244,228	1,22
244,49	1,09
244,752	2,24
245,015	1,96
245,277	3,75
245,539	3,17
245,801	3,76
246,064	2,51
246,326	2,43
246,588	2,76
246,85	4,71
247,112	4,46
247,374	6,79
247,637	6,71
247,899	6,14
248,161	5,22
248,423	1,92
248,685	2,63
248,947	1,63
249,209	2,15
249,471	2,56
249,733	3,68
249,995	3,95
250,257	2,82
250,519	2,16
250,781	3,98
251,043	2,4
251,305	3,75
251,567	5,05
251,829	5,07
252,091	6,5
252,353	4,47
252,615	4,76
252,876	2,24
253,138	1,35
253,4	-0,9
253,662	-0,75
253,924	2,01
254,185	3,35
254,447	3,15
254,709	3,53
254,971	4,63
255,232	7,37
255,494	5,7
255,756	5,16
256,017	5,64
256,279	6,24
256,541	6,56
256,802	6,61
257,064	7,41
257,326	6,51
257,587	8,2
257,849	8,22
258,11	8,92
258,372	10,57
258,633	10,87
258,895	9,83
259,156	9,39
259,418	7,57
259,679	5,25
259,941	3,36
260,202	3,61
260,464	5,62
260,725	5,66
260,987	4,3
261,248	3,63
261,509	4,12
261,771	3,55
262,032	3,98
262,293	3,56
262,555	4,42
262,816	3,25
263,077	1,34
263,338	-1,99
263,6	-1,52
263,861	-2,83
264,122	-3,42
264,383	-0,32
264,645	1,09
264,906	-0,42
265,167	-0,33
265,428	0,09
265,689	0,93
265,95	-1,48
266,211	-0,84
266,473	-1,27
266,734	-2,85
266,995	-4,88
267,256	-3,9
267,517	-2,16
267,778	-0,43
268,039	0,79
268,3	0,7
268,561	-1,97
268,822	-0,09
269,083	-0,63
269,344	-1,49
269,604	-3,81
269,865	-4,02
270,126	-6,82
270,387	-5,4
270,648	-5
270,909	-5,32
271,17	-6,01
271,43	-7,1
271,691	-9,54
271,952	-7,91
272,213	-8,04
272,473	-11,68
272,734	-11
272,995	-7,22
273,256	-6,77
273,516	-4,66
273,777	-7,47
274,038	-4,3
274,298	-6,05
274,559	-6,01
274,82	-2,91
275,08	-2,25
275,341	-0,45
275,601	-2,49
275,862	-4,28
276,122	-3,47
276,383	-2,53
276,643	-0,18
276,904	-1,12
277,164	1,37
277,425	1,09
277,685	5,24
277,946	6,68
278,206	6,99
278,467	8,01
278,727	8,31
278,987	7,28
279,248	6,76
279,508	7,3
279,768	9,38
280,029	8,62
280,289	6,86
280,549	6,2
280,81	5,96
281,07	3,44
281,33	5,12
281,59	3,21
281,851	4,3
282,111	2,37
282,371	3,34
282,631	3,97
282,891	2,94
283,151	3,29
283,412	0,08
283,672	1,77
283,932	1,98
284,192	2,97
284,452	0,42
284,712	-3,12
284,972	-4,43
285,232	-6,79
285,492	-3,83
285,752	-5,77
286,012	-2,06
286,272	0,09
286,532	-1,76
286,792	-1,19
287,052	1,8
287,312	1,83
287,571	1,96
287,831	2,31
288,091	0,5
288,351	1,74
288,611	4,39
288,871	4,33
289,13	4,24
289,39	1,1
289,65	2,57
289,91	1,83
290,17	4,96
290,429	5,3
290,689	3,14
290,949	1,38
291,208	2,2
291,468	5,71
291,728	6,14
291,987	8,12
292,247	5,78
292,506	8,22
292,766	11,86
293,026	11,33
293,285	12,84
293,545	15,05
293,804	15,17
294,064	12,42
294,323	10,17
294,583	10,07
294,842	9,91
295,102	10,34
295,361	10,81
295,621	9,82
295,88	10,82
296,139	10,14
296,399	10,89
296,658	7,93
296,917	7,3
297,177	5,13
297,436	5,39
297,695	4,29
297,955	5,58
298,214	4,12
298,473	6,24
298,732	7,95
298,992	10,3
299,251	9,34
299,51	5,96
299,769	5,27
300,028	3,55
300,287	3,96
300,547	3,86
300,806	2,24
301,065	4,28
301,324	5,53
301,583	2,41
301,842	-1,04
302,101	-1,93
302,36	-1,36
302,619	-2,13
302,878	-0,88
303,137	-3,33
303,396	-2,25
303,655	0,28
303,914	-3,36
304,173	-0,87
304,432	-1,39
304,691	1,44
304,95	-0,92
305,208	3,11
305,467	3,9
305,726	3,12
305,985	2,9
306,244	2,87
306,503	1,73
306,761	0,83
307,02	-1,98
307,279	-1,15
307,537	0,1
307,796	-0,73
308,055	-0,97
308,314	0,76
308,572	-0,7
308,831	0,06
309,09	0,3
309,348	0,95
309,607	-0,34
309,865	2,43
310,124	1,53
310,382	2,21
310,641	3,5
310,9	0,17
311,158	1,08
311,417	0,57
311,675	0,27
311,933	1,16
312,192	0,95
312,45	0,41
312,709	0,09
312,967	0,82
313,226	-0,15
313,484	-1,01
313,742	-1,64
314,001	-2,34
314,259	-3,21
314,517	-3,28
314,776	-2,49
315,034	0,42
315,292	-0,2
315,55	-1,58
315,809	-2,22
316,067	-1,31
316,325	-3,04
316,583	-2,36
316,841	-2,88
317,1	-3,87
317,358	-6,06
317,616	-6,4
317,874	-6,89
318,132	-6,69
318,39	-6,35
318,648	-7,7
318,906	-6,22
319,164	-6,97
319,422	-7,62
319,68	-8,52
319,938	-8,44
320,196	-8,85
320,454	-7,65
320,712	-8,62
320,97	-9,11
321,228	-10,03
321,486	-9,14
321,744	-8,07
322,002	-6,86
322,26	-7,74
322,517	-6,45
322,775	-7,44
323,033	-9,23
323,291	-7,81
323,549	-6,79
323,806	-6,43
324,064	-7,81
324,322	-6,46
324,58	-8,21
324,837	-6,79
325,095	-8,42
325,353	-8,55
325,61	-6,71
325,868	-7,09
326,126	-6,09
326,383	-7,3
326,641	-6,72
326,898	-5,43
327,156	-5,15
327,413	-3,02
327,671	-2,92
327,928	-0,42
328,186	0,16
328,443	0,69
328,701	3,7
328,958	5,13
329,216	5,6
329,473	4,81
329,731	4,54
329,988	5
330,245	7,62
330,503	7,71
330,76	7,92
331,017	9,18
331,275	6,77
331,532	9,05
331,789	8,38
332,047	8,29
332,304	5,52
332,561	6,44
332,818	4,54
333,076	5,7
333,333	7,19
333,59	6,64
333,847	8,01
334,104	7,63
334,361	7,39
334,618	5,64
334,876	3,02
335,133	2,91
335,39	0,06
335,647	0,77
335,904	-2,11
336,161	-3,56
336,418	-3,7
336,675	-6,93
336,932	-5,7
337,189	-5,92
337,446	-5,6
337,703	-5,75
337,96	-9,36
338,216	-10,4
338,473	-12,12
338,73	-11,69
338,987	-11,94
339,244	-8,43
339,501	-11,89
339,757	-10,5
340,014	-8,27
340,271	-6,71
340,528	-5,52
340,785	-1,35
341,041	-1,38
341,298	-3,17
341,555	-2,75
341,811	-3,81
342,068	-5,18
342,325	-6,1
342,581	-3,87
342,838	-3,04
343,094	-3,5
343,351	-2,75
343,608	-3,97
343,864	-1,62
344,121	-0,04
344,377	-1,91
344,634	-1,46
344,89	-3,54
345,147	-4,26
345,403	-4,07
345,66	-5,15
345,916	-3,38
346,172	-4,11
346,429	-5,83
346,685	-8,03
346,942	-8,36
347,198	-10,89
347,454	-9,12
347,711	-8,97
347,967	-11,23
348,223	-10,77
348,48	-11,2
348,736	-8,95
348,992	-8,73
349,248	-7,73
349,504	-7,86
349,761	-7,58
350,017	-7,3
350,273	-7,43
350,529	-7,29
350,785	-6,96
351,041	-7,74
351,297	-6,21
351,554	-7,55
351,81	-9,25
352,066	-10,92
352,322	-10,3
352,578	-10,06
352,834	-8,38
353,09	-8,86
353,346	-9,88
353,602	-10,03
353,858	-10,03
354,114	-10,02
354,369	-7,68
354,625	-4,92
354,881	-5,63
355,137	-5,21
355,393	-6,01
355,649	-5,96
355,905	-5,53
356,16	-4,54
356,416	-3,99
356,672	-9,8
356,928	-9,84
357,183	-8,9
357,439	-9,97
357,695	-10,8
357,951	-7,83
358,206	-7,72
358,462	-8,16
358,718	-9,41
358,973	-7,34
359,229	-9,24
359,484	-8,81
359,74	-7,06
359,996	-7,23
360,251	-4,02
360,507	-5,83
360,762	-6,69
361,018	-3,38
361,273	-3,55
361,529	-0,64
361,784	-1,55
362,04	0,13
362,295	-1,2
362,55	-1,97
362,806	-0,24
363,061	1,29
363,316	2,44
363,572	2,15
363,827	3,37
364,082	-0,19
364,338	-1,21
364,593	-0,86
364,848	-0,03
365,104	-0,77
365,359	0,05
365,614	0,83
365,869	-0,94
366,124	1,02
366,38	-1,44
366,635	-0,35
366,89	0,79
367,145	1,96
367,4	5,22
367,655	4,32
367,91	4,93
368,165	2,15
368,42	0,94
368,675	1,64
368,93	1,19
369,185	-0,77
369,44	-2,23
369,695	0,3
369,95	-2,62
370,205	-2,48
370,46	-2,75
370,715	-3,19
370,97	-4,56
371,225	-5,01
371,48	-4,91
371,734	-5,12
371,989	-3,43
372,244	-1,84
372,499	-1,12
372,754	-2,32
373,008	-4,29
373,263	-6,03
373,518	-5,36
373,773	-6,74
374,027	-8,35
374,282	-4,39
374,537	-3,98
374,791	-3,37
375,046	-4,15
375,301	-4,95
375,555	-5,71
375,81	-4,88
376,064	-4,07
376,319	-1,48
376,573	-3,38
376,828	-6,14
377,082	-2,59
377,337	-3,4
377,591	-5,55
377,846	-3,23
378,1	-1,91
378,355	-0,15
378,609	-1,03
378,863	-2,3
379,118	-1,72
379,372	-2,24
379,627	-3,21
379,881	-3,9
380,135	-4,85
380,389	-5,58
380,644	-5,02
380,898	-5,17
381,152	-3,48
381,407	-3,2
381,661	-0,87
381,915	0,44
382,169	-0,03
382,423	-0,11
382,677	-3,68
382,932	-3,2
383,186	-2,45
383,44	-0,95
383,694	0,65
383,948	-0,08
384,202	-0,63
384,456	0,99
384,71	2,38
384,964	-0,07
385,218	1,04
385,472	2,42
385,726	1,45
385,98	1,54
386,234	-0,61
386,488	-3,2
386,742	-1,13
386,996	-2,83
387,249	-2,11
387,503	-0,23
387,757	0,46
388,011	1,04
388,265	2,32
388,518	3,04
388,772	4,62
389,026	4,5
389,28	2,09
389,533	0,62
389,787	2,03
390,041	0,33
390,295	0,36
390,548	0,85
390,802	3,67
391,055	1,8
391,309	0,6
391,563	-0,73
391,816	-0,49
392,07	-1,47
392,323	-0,71
392,577	0,06
392,83	1,94
393,084	6,35
393,337	8,71
393,591	9,14
393,844	9,6
394,098	12,93
394,351	17,75
394,604	17,47
394,858	19,27
395,111	19,55
395,364	17,24
395,618	19,31
395,871	16,7
396,124	15,72
396,378	14,64
396,631	14,8
396,884	13,43
397,137	14,87
397,391	15,47
397,644	13,89
397,897	13,84
398,15	15,33
398,403	17,76
398,657	16,73
398,91	16,52
399,163	17,7
399,416	18,08
399,669	17,58
399,922	18,28
400,175	19,95
400,428	23,25
400,681	28,47
400,934	31,22
401,187	35,31
401,44	40,61
401,693	42,93
401,946	43,76
402,199	41,11
402,452	41,45
402,704	39,02
402,957	38,45
403,21	39,69
403,463	38,18
403,716	40,5
403,969	42,8
404,221	43,69
404,474	44,44
404,727	47,58
404,98	50,35
405,232	51,09
405,485	50,99
405,738	53,13
405,99	52,82
406,243	53,46
406,496	52,99
406,748	52,42
407,001	51,44
407,253	50,92
407,506	50,62
407,759	50,72
408,011	47,07
408,264	43,65
408,516	39,33
408,769	30,82
409,021	25,91
409,274	20,57
409,526	18,24
409,778	13,96
410,031	14,21
410,283	13,09
410,536	17,45
410,788	17,06
411,04	16,8
411,293	18,52
411,545	19,19
411,797	17,82
412,049	16,61
412,302	17,38
412,554	17,43
412,806	14,3
413,058	12,2
413,311	14,19
413,563	12,8
413,815	11,21
414,067	10,03
414,319	10,33
414,571	11,91
414,823	10,94
415,075	10,65
415,328	11,55
415,58	13,82
415,832	15,18
416,084	15,83
416,336	14,09
416,588	17,57
416,84	16,2
417,091	18,79
417,343	16,64
417,595	17,99
417,847	19,2
418,099	20,62
418,351	19,13
418,603	21,12
418,855	22,84
419,106	23,87
419,358	22,72
419,61	22,96
419,862	24,63
420,114	23,86
420,365	24,71
420,617	25,15
420,869	24,59
421,12	23,7
421,372	23,99
421,624	25,02
421,875	25,51
422,127	23,04
422,379	22,54
422,63	24,68
422,882	23,75
423,133	24,22
423,385	23,73
423,636	24,24
423,888	25,68
424,139	29,11
424,391	27,31
424,642	27,16
424,894	26,05
425,145	26,94
425,396	26,39
425,648	28,26
425,899	27,13
426,151	27,35
426,402	27,21
426,653	27,63
426,905	25,07
427,156	23,55
427,407	23,09
427,658	22,91
427,91	22,02
428,161	20,54
428,412	22
428,663	23,96
428,914	25,49
429,166	27,09
429,417	27,38
429,668	25,79
429,919	25,08
430,17	25,94
430,421	26,18
430,672	29,46
430,923	30,67
431,174	32,94
431,425	44,22
431,676	59,94
431,927	78,64
432,178	106,3
432,429	133,83
432,68	156,74
432,931	174,13
433,182	187,37
433,433	193,32
433,683	199,89
433,934	202,87
434,185	202,31
434,436	201,7
434,687	204,37
434,937	207,7
435,188	206,34
435,439	205,09
435,69	207,64
435,94	206,96
436,191	208,91
436,442	208,97
436,692	207,64
436,943	206,77
437,194	206,24
437,444	209,43
437,695	212,64
437,945	211,84
438,196	210,83
438,447	209,81
438,697	209,15
438,948	205,58
439,198	192,44
439,449	172,58
439,699	152,09
439,949	125,94
440,2	98,35
440,45	75,16
440,701	59,41
440,951	47,95
441,201	41,32
441,452	35,55
441,702	30,92
441,952	31,48
442,203	30,86
442,453	28,08
442,703	29,03
442,953	29,86
443,204	32
443,454	28,51
443,704	30
443,954	26,42
444,204	26,15
444,455	26,35
444,705	26,92
444,955	27,03
445,205	25,63
445,455	23,63
445,705	24,44
445,955	25,73
446,205	26,58
446,455	27,01
446,705	28,49
446,955	30,32
447,205	32,59
447,455	33,14
447,705	32,95
447,955	32,52
448,205	33,8
448,454	33,75
448,704	34,79
448,954	33,77
449,204	34,34
449,454	35,28
449,704	33,74
449,953	34,39
450,203	36,78
450,453	35
450,703	37,21
450,952	36,41
451,202	38,06
451,452	37,13
451,701	40,69
451,951	44,08
452,201	44,66
452,45	44,76
452,7	46,41
452,949	46,05
453,199	45,63
453,448	47,08
453,698	47,78
453,947	46,16
454,197	45,64
454,446	45
454,696	46,13
454,945	45,42
455,195	44,72
455,444	44,61
455,693	48
455,943	45,6
456,192	46,38
456,442	46,66
456,691	47,5
456,94	46,64
457,189	47,8
457,439	50,18
457,688	51,01
457,937	50,18
458,186	50,32
458,436	50,01
458,685	50,37
458,934	49,74
459,183	49,69
459,432	50,64
459,681	49,83
459,93	49,07
460,179	49,47
460,429	48,21
460,678	49,56
460,927	52,65
461,176	51,99
461,425	49,5
461,674	51,22
461,923	51,29
462,172	50,56
462,42	50,12
462,669	52,09
462,918	52,39
463,167	51,36
463,416	48,17
463,665	50,47
463,914	50,27
464,162	48,2
464,411	48,77
464,66	49,89
464,909	47,76
465,158	47,31
465,406	47,45
465,655	48,55
465,904	50,58
466,152	51,48
466,401	51,01
466,65	53,24
466,898	51,84
467,147	49,05
467,395	48,51
467,644	50,25
467,893	48,47
468,141	47,66
468,39	46,82
468,638	45,94
468,887	44,19
469,135	44,81
469,384	44,48
469,632	44,78
469,88	44,76
470,129	46,47
470,377	43,7
470,626	45,62
470,874	47,11
471,122	49,18
471,371	47,05
471,619	46,04
471,867	48,58
472,115	47,57
472,364	46,7
472,612	49,31
472,86	48,62
473,108	48,18
473,356	49,13
473,605	47,5
473,853	45,12
474,101	45,86
474,349	45,11
474,597	46,63
474,845	44,62
475,093	43,3
475,341	42,19
475,589	43,17
475,837	44,84
476,085	46,31
476,333	45,1
476,581	47,52
476,829	48,44
477,077	50,8
477,325	50,76
477,573	53,17
477,821	51,67
478,069	55,07
478,317	56,46
478,564	59,67
478,812	59,21
479,06	61,73
479,308	62,13
479,555	63,99
479,803	66,69
480,051	71,69
480,299	74,02
480,546	78,47
480,794	81,02
481,042	84,95
481,289	90,53
481,537	97,25
481,784	102,74
482,032	112,49
482,28	121,44
482,527	131,08
482,775	140,88
483,022	150,7
483,27	160,73
483,517	172,77
483,765	181,01
484,012	189,81
484,259	196,97
484,507	207,97
484,754	216,13
485,002	224,09
485,249	230,73
485,496	239,84
485,744	245,22
485,991	250,23
486,238	254,37
486,486	263,37
486,733	268,91
486,98	276,17
487,227	278,3
487,474	283,02
487,722	287,83
487,969	289,31
488,216	291,48
488,463	294,5
488,71	294,9
488,957	293,88
489,204	292,75
489,451	293,24
489,699	289,11
489,946	283,24
490,193	278,35
490,44	275,1
490,687	270,47
490,934	263,61
491,18	254,33
491,427	248,96
491,674	245,49
491,921	240,56
492,168	233,35
492,415	225,88
492,662	220,48
492,909	216,4
493,155	211,57
493,402	205,67
493,649	199,44
493,896	196,18
494,142	188,06
494,389	183,1
494,636	176,41
494,883	171,19
495,129	166,42
495,376	159,66
495,623	156,78
495,869	153,23
496,116	149,31
496,362	144,5
496,609	142,32
496,855	142,38
497,102	137,26
497,348	132,83
497,595	130,81
497,841	130,86
498,088	124,27
498,334	119,02
498,581	114,93
498,827	111,36
499,074	108,75
499,32	106,53
499,566	105,7
499,813	102,27
500,059	99,36
500,305	96,67
500,552	92,63
500,798	89,04
501,044	89,34
501,29	86,41
501,537	81,08
501,783	80,96
502,029	81
502,275	78,22
502,521	74,75
502,767	73,18
503,013	72,62
503,26	67,93
503,506	62,89
503,752	61,34
503,998	59,23
504,244	58,32
504,49	54,36
504,736	53,68
504,982	51,24
505,228	51,05
505,474	49,42
505,72	49,41
505,966	48,6
506,211	49,7
506,457	48,51
506,703	44,64
506,949	42,69
507,195	40,94
507,441	37,94
507,686	39,67
507,932	40,16
508,178	42,54
508,424	40,69
508,669	38,65
508,915	37,37
509,161	39,44
509,406	38,11
509,652	37,89
509,898	40,87
510,143	42,05
510,389	40,08
510,634	37,94
510,88	41,67
511,125	44,43
511,371	45,35
511,616	46,01
511,862	43,05
512,107	40,72
512,353	40,83
512,598	42,02
512,844	40,38
513,089	38,06
513,335	39,22
513,58	37,99
513,825	37,73
514,071	38,76
514,316	39,69
514,561	40,45
514,806	38,93
515,052	42,44
515,297	39,45
515,542	39,21
515,787	37,72
516,033	38,61
516,278	37,13
516,523	36,75
516,768	35,37
517,013	34,19
517,258	32,73
517,503	31,86
517,748	31,66
517,993	30,3
518,238	29,54
518,483	26,32
518,728	24,99
518,973	23,1
519,218	21,79
519,463	22,62
519,708	21,8
519,953	18,91
520,198	17,52
520,443	18,87
520,688	20,94
520,933	18,57
521,177	18,6
521,422	16,77
521,667	17,38
521,912	17,55
522,157	13,68
522,401	15,87
522,646	13,62
522,891	14,34
523,135	13,54
523,38	13,99
523,625	12,42
523,869	15,08
524,114	17
524,358	16,23
524,603	15,47
524,848	13,07
525,092	10,48
525,337	10,43
525,581	12,81
525,826	14,69
526,07	15,67
526,315	16,38
526,559	16,03
526,803	15,75
527,048	17,74
527,292	19,17
527,537	20,39
527,781	20,32
528,025	18,33
528,269	19,38
528,514	21,17
528,758	21,19
529,002	22,2
529,247	25,72
529,491	24,95
529,735	31,15
529,979	30,4
530,223	32,59
530,467	31,4
530,712	32,04
530,956	31,91
531,2	34,75
531,444	33,13
531,688	35,27
531,932	36,34
532,176	38,79
532,42	42,19
532,664	45,05
532,908	47,13
533,152	47,31
533,396	49,03
533,64	52,77
533,884	54,08
534,128	58,38
534,371	65,19
534,615	70,93
534,859	76,25
535,103	83,03
535,347	89,76
535,59	99,54
535,834	104,94
536,078	116,29
536,322	130,22
536,565	146,51
536,809	160,95
537,053	184,38
537,296	206,62
537,54	237
537,784	271,17
538,027	312,36
538,271	352,15
538,514	393,07
538,758	434,86
539,001	475,09
539,245	515,1
539,488	553,52
539,732	592,05
539,975	626,43
540,219	664,36
540,462	698,49
540,706	733,82
540,949	763,97
541,192	795,22
541,436	831,4
541,679	868,15
541,922	908,44
542,166	950,05
542,409	998,04
542,652	1048,62
542,895	1098,93
543,139	1140,83
543,382	1182,01
543,625	1212,63
543,868	1238,96
544,111	1258,68
544,354	1272,38
544,598	1279,32
544,841	1279,28
545,084	1271,01
545,327	1257,63
545,57	1237,46
545,813	1216,15
546,056	1190,68
546,299	1164,24
546,542	1140,47
546,785	1115,14
547,028	1089,79
547,271	1061,67
547,514	1035,39
547,756	1006,67
547,999	981
548,242	955,25
548,485	929,1
548,728	902,42
548,971	871,73
549,213	840,68
549,456	800,87
549,699	756,64
549,942	707,33
550,184	655,33
550,427	602,38
550,67	555,22
550,912	509,27
551,155	470,79
551,398	434,47
551,64	400,81
551,883	371,9
552,125	343,58
552,368	319,37
552,61	296,54
552,853	275,53
553,095	256,26
553,338	238,7
553,58	223,07
553,823	206,77
554,065	193,93
554,308	176,47
554,55	161,73
554,792	148,59
555,035	138,82
555,277	127,03
555,519	116,88
555,762	105,98
556,004	99,31
556,246	89,5
556,488	81,59
556,731	72,02
556,973	66,5
557,215	60,82
557,457	56,82
557,699	52,87
557,941	49,35
558,183	45,35
558,426	42,78
558,668	36,76
558,91	34,29
559,152	33,55
559,394	29,37
559,636	28,26
559,878	27,4
560,12	25,73
560,362	27,42
560,604	25,62
560,845	23,53
561,087	21,55
561,329	22,66
561,571	18,93
561,813	19,29
562,055	17,78
562,297	19,14
562,538	18,36
562,78	21,07
563,022	19,38
563,264	19,87
563,505	18,27
563,747	17,55
563,989	17,31
564,23	17,58
564,472	15,35
564,714	17,2
564,955	18,42
565,197	15,8
565,438	15,85
565,68	17,76
565,921	17,75
566,163	18,73
566,404	17,16
566,646	17,49
566,887	19,89
567,129	21,08
567,37	20,15
567,612	21,84
567,853	18,55
568,094	19,24
568,336	19,03
568,577	19,53
568,818	18,53
569,06	16,92
569,301	15,22
569,542	15,82
569,783	15,35
570,025	14,7
570,266	14,29
570,507	15,32
570,748	14,51
570,989	15,67
571,23	17,86
571,472	17,1
571,713	16,11
571,954	17,29
572,195	15,09
572,436	16,64
572,677	19,35
572,918	22,57
573,159	23,64
573,4	24,44
573,641	28,32
573,882	32,88
574,123	34,2
574,364	32,61
574,604	35,44
574,845	36,81
575,086	38,96
575,327	43,28
575,568	47
575,809	51,01
576,049	53,31
576,29	55,29
576,531	63,76
576,771	69,4
577,012	74,86
577,253	79,55
577,494	83,77
577,734	87,3
577,975	91,39
578,215	94,05
578,456	95,23
578,697	98,63
578,937	103,31
579,178	106,67
579,418	109,89
579,659	114,19
579,899	114,11
580,14	116,93
580,38	117,6
580,62	119,73
580,861	124,35
581,101	124,84
581,342	125,64
581,582	123,8
581,822	127,79
582,063	128,09
582,303	129,17
582,543	130,74
582,783	131,78
583,024	133,07
583,264	136,78
583,504	137,1
583,744	141,25
583,984	139,61
584,224	143,2
584,465	143,78
584,705	144,46
584,945	145,89
585,185	144,82
585,425	145,64
585,665	145,65
585,905	145,35
586,145	145,1
586,385	142,23
586,625	143,77
586,865	141,94
587,105	138,21
587,345	136,86
587,585	136,78
587,824	134,76
588,064	132,73
588,304	128,19
588,544	126,55
588,784	123,41
589,024	123,8
589,263	122,28
589,503	120,25
589,743	123,38
589,982	122,6
590,222	122,28
590,462	119,61
590,701	114,99
590,941	115,41
591,181	111,07
591,42	107,72
591,66	103,99
591,899	104
592,139	100,36
592,378	97,43
592,618	95,15
592,857	92,04
593,097	91,26
593,336	89,57
593,576	86,87
593,815	87,01
594,055	83,78
594,294	84,1
594,533	84,76
594,773	82,96
595,012	81,17
595,251	80,88
595,491	82,64
595,73	85,32
595,969	84,61
596,208	85,02
596,447	87,04
596,687	86,57
596,926	85,33
597,165	79,63
597,404	78,55
597,643	75,12
597,882	72,56
598,121	71,71
598,36	70,72
598,599	69,03
598,838	66,96
599,077	63,46
599,316	61,08
599,555	60,24
599,794	60,22
600,033	60,08
600,272	60,31
600,511	58,2
600,75	59,01
600,989	59,18
601,228	57,96
601,466	58,1
601,705	56,65
601,944	56,1
602,183	56,83
602,422	55,8
602,66	54,38
602,899	52,43
603,138	50,62
603,376	51,06
603,615	49,47
603,854	47,74
604,092	47,17
604,331	47,72
604,569	49,08
604,808	48,98
605,047	50,73
605,285	51,45
605,524	51,85
605,762	51,85
606	55,85
606,239	60,7
606,477	65,47
606,716	69,37
606,954	78,52
607,193	89,5
607,431	106,37
607,669	128,42
607,908	154,77
608,146	183,61
608,384	211,75
608,622	237,4
608,861	259,36
609,099	279,74
609,337	299,25
609,575	316,57
609,813	333,16
610,052	347,11
610,29	354,79
610,528	362,02
610,766	369,11
611,004	378,15
611,242	384,1
611,48	390,79
611,718	395,48
611,956	401,28
612,194	404,85
612,432	408,69
612,67	411,65
612,908	415,63
613,146	414,76
613,384	413,68
613,621	411,87
613,859	410,44
614,097	405,92
614,335	398,29
614,573	387,59
614,811	371,06
615,048	348,2
615,286	323,49
615,524	296,56
615,761	268,14
615,999	244,92
616,237	222,31
616,474	203,96
616,712	187,45
616,95	171,13
617,187	155,97
617,425	144,44
617,662	135,75
617,9	126,11
618,137	117,06
618,375	107,24
618,612	98,39
618,85	93,73
619,087	89,53
619,325	83,85
619,562	77,31
619,799	71,5
620,037	68,5
620,274	65,78
620,511	65,87
620,749	62,13
620,986	60,86
621,223	58,35
621,461	57,25
621,698	58,96
621,935	57,72
622,172	57,79
622,409	60,05
622,647	61,82
622,884	61,23
623,121	62,68
623,358	60,14
623,595	61,16
623,832	61,95
624,069	60,11
624,306	61,42
624,543	62,71
624,78	62,71
625,017	62,49
625,254	65,58
625,491	67,34
625,728	69,49
625,965	70,53
626,202	68,16
626,438	66,12
626,675	66,01
626,912	68,83
627,149	70,03
627,386	70,14
627,622	69,66
627,859	70,74
628,096	73,15
628,333	74,38
628,569	75,56
628,806	77,28
629,043	75,49
629,279	76,38
629,516	77,07
629,752	74,02
629,989	71,03
630,225	68,45
630,462	67,99
630,699	68,17
630,935	65,71
631,171	62,22
631,408	61,56
631,644	58,87
631,881	54,98
632,117	50,42
632,354	48,83
632,59	46,03
632,826	44,79
633,063	42,79
633,299	43,14
633,535	40,98
633,771	39,93
634,008	39,99
634,244	36,92
634,48	33,72
634,716	33,1
634,953	28,95
635,189	25,39
635,425	23,18
635,661	22,06
635,897	18,56
636,133	15,9
636,369	12,68
636,605	8,32
636,841	5,36
637,077	5,15
637,313	5
637,549	4,37
637,785	2,29
638,021	1
638,257	-0,15
638,493	0,59
638,729	-1,95
638,965	-0,36
639,2	0,45
639,436	1,49
639,672	1,99
639,908	-1,11
640,144	1,55
640,379	3,97
640,615	0,96
640,851	2,01
641,086	3,7
641,322	1,46
641,558	2,72
641,793	4,55
642,029	3,46
642,264	4,63
642,5	4,01
642,736	0,94
642,971	1,02
643,207	-0,42
643,442	-1,97
643,678	-0,83
643,913	0,6
644,148	0,93
644,384	2,89
644,619	3,63
644,855	5,04
645,09	4,67
645,325	5,68
645,561	6,31
645,796	5,02
646,031	8,17
646,266	7,07
646,502	6,6
646,737	8,72
646,972	8,85
647,207	11,11
647,442	9,41
647,678	7,19
647,913	9,87
648,148	10,84
648,383	9,46
648,618	10,48
648,853	10,52
649,088	11,19
649,323	12,05
649,558	13,2
649,793	15,38
650,028	15,71
650,263	13,5
650,498	16,86
650,733	17,22
650,968	17,2
651,202	18,64
651,437	17,2
651,672	15,25
651,907	13,87
652,142	14,3
652,376	14,73
652,611	15,39
652,846	16,63
653,081	16,4
653,315	14,77
653,55	14,71
653,785	13,5
654,019	13,82
654,254	12,22
654,488	12,13
654,723	9,75
654,958	7,5
655,192	6,7
655,427	4,85
655,661	6,59
655,896	8,23
656,13	10,03
656,364	7,51
656,599	5,51
656,833	6,19
657,068	7,49
657,302	9,18
657,536	7,75
657,771	8,2
658,005	9,7
658,239	9,82
658,474	7,6
658,708	8,61
658,942	8,93
659,176	7,43
659,41	5,47
659,645	6,63
659,879	6,34
660,113	4,3
660,347	4,4
660,581	4,1
660,815	3,58
661,049	3,24
661,283	0,52
661,517	0,06
661,751	-0,1
661,985	-1,42
662,219	0,51
662,453	-0,76
662,687	-0,35
662,921	-3,82
663,155	-4,36
663,389	-9,34
663,622	-10,45
663,856	-7,75
664,09	-10,77
664,324	-11,43
664,558	-12,32
664,791	-12,92
665,025	-13,53
665,259	-14,05
665,492	-14,57
665,726	-12,28
665,96	-13,2
666,193	-13,94
666,427	-11,12
666,661	-11,13
666,894	-13,44
667,128	-13,63
667,361	-11,48
667,595	-11,73
667,828	-11,95
668,062	-11,95
668,295	-11,28
668,529	-9,12
668,762	-9,06
668,995	-10,28
669,229	-7,89
669,462	-7,89
669,695	-7,34
669,929	-8,18
670,162	-6,26
670,395	-8,35
670,629	-6,91
670,862	-4,46
671,095	-7,51
671,328	-6,62
671,561	-9,29
671,795	-8,46
672,028	-7,03
672,261	-7,32
672,494	-6,38
672,727	-7,6
672,96	-7,58
673,193	-7,83
673,426	-5,96
673,659	-6,32
673,892	-5,5
674,125	-5,49
674,358	-5,66
674,591	-7,75
674,824	-7,95
675,057	-9,04
675,29	-10,62
675,523	-9,14
675,755	-10,78
675,988	-9,66
676,221	-6,55
676,454	-6,28
676,687	-4,62
676,919	-5,26
677,152	-4,17
677,385	-4,97
677,617	-4,2
677,85	-3,62
678,083	-5,36
678,315	-3,27
678,548	-4,64
678,78	-4,43
679,013	-4,38
679,246	-4,42
679,478	-4,41
679,711	-6,18
679,943	-4,83
680,175	-7,42
680,408	-3,65
680,64	-6,52
680,873	-6,82
681,105	-6,92
681,338	-4,16
681,57	-5,53
681,802	-3,2
682,034	-3,34
682,267	-0,8
682,499	0,43
682,731	-1,64
682,964	-1,79
683,196	-3,8
683,428	-5,31
683,66	-6,48
683,892	-4,56
684,124	-2,45
684,356	0,07
684,589	1,01
684,821	0,93
685,053	1,53
685,285	1,96
685,517	3,12
685,749	4,12
685,981	5,54
686,213	5,66
686,445	5,96
686,676	4,65
686,908	5,75
687,14	5,36
687,372	6,44
687,604	3,71
687,836	5,67
688,068	5,84
688,299	4,7
688,531	2,61
688,763	6,13
688,995	3,28
689,226	6,21
689,458	4,93
689,69	3,63
689,921	3,37
690,153	1,81
690,384	3,75
690,616	3,61
690,848	4,55
691,079	1,56
691,311	-0,46
691,542	-3,82
691,774	-5,59
692,005	-4,11
692,237	-2,47
692,468	-3,47
692,699	-4,76
692,931	-4,71
693,162	-7,04
693,393	-7,26
693,625	-8,13
693,856	-7,16
694,087	-7,1
694,319	-5,76
694,55	-6,39
694,781	-7,51
695,012	-8,64
695,243	-9,85
695,475	-9,45
695,706	-8,76
695,937	-9,7
696,168	-9,48
696,399	-11,64
696,63	-11,75
696,861	-12,48
697,092	-9,13
697,323	-5,33
697,554	-4,8
697,785	-5,58
698,016	-4,88
698,247	-6,88
698,478	-5,57
698,709	-5,02
698,94	-2,42
699,171	-3,9
699,401	-7,12
699,632	-4,85
699,863	-8,09
700,094	-8,33
700,325	-6,46
700,555	-4,8
700,786	-4,36
701,017	-2,97
701,247	-3,08
701,478	-3,03
701,709	-1,35
701,939	-1,27
702,17	2,05
702,401	3,86
702,631	4,46
702,862	3,75
703,092	2,71
703,323	5,33
703,553	6,79
703,784	7,17
704,014	9,61
704,244	6,63
704,475	6,02
704,705	6,79
704,936	7,46
705,166	7,26
705,396	9,38
705,627	9,6
705,857	12,36
706,087	13,34
706,317	14,13
706,548	14,21
706,778	14,18
707,008	16,42
707,238	17,67
707,468	17,26
707,698	15,42
707,928	15,69
708,158	13,95
708,389	14,32
708,619	13,22
708,849	12,24
709,079	13,73
709,309	11,49
709,539	9,88
709,768	10,91
709,998	14,03
710,228	12,98
710,458	12,74
710,688	10,93
710,918	10,49
711,148	8,77
711,378	9,12
711,607	8,07
711,837	7,1
712,067	6,85
712,297	5,13
712,526	5,04
712,756	6,78
712,986	2,01
713,215	-1,16
713,445	-2,28
713,674	-2,08
713,904	-3,1
714,134	-0,95
714,363	-2,53
714,593	-3,28
714,822	-4,57
715,052	-4,93
715,281	-3,9
715,511	-4,83
715,74	-5,1
715,969	-5,46
716,199	-7,62
716,428	-8,61
716,657	-8,59
716,887	-8,13
717,116	-11,29
717,345	-9,36
717,575	-10,6
717,804	-10,1
718,033	-11,72
718,262	-13
718,492	-12,51
718,721	-12,64
718,95	-12,26
719,179	-12,71
719,408	-12,07
719,637	-14,52
719,866	-17,62
720,095	-15,87
720,324	-15,59
720,553	-18,8
720,782	-20,66
721,011	-20,4
721,24	-22,31
721,469	-23,16
721,698	-23,52
721,927	-21,99
722,156	-23,06
722,385	-23,52
722,613	-22,28
722,842	-22,08
723,071	-19,3
723,3	-17,71
723,529	-18,78
723,757	-18,96
723,986	-20,5
724,215	-20,59
724,443	-20,31
724,672	-17,54
724,901	-17,62
725,129	-15,19
725,358	-12,38
725,586	-15,3
725,815	-14,98
726,043	-17,02
726,272	-18,75
726,5	-19,3
726,729	-18,79
726,957	-20,78
727,186	-22,15
727,414	-23,23
727,642	-21,18
727,871	-18,41
728,099	-19,93
728,327	-20,13
728,556	-17,93
728,784	-16,69
729,012	-18,71
729,241	-15,94
729,469	-16,74
729,697	-18,29
729,925	-18,12
730,153	-20,29
730,381	-20,15
730,61	-18,83
730,838	-21,07
731,066	-21,21
731,294	-21,09
731,522	-22,93
731,75	-26,7
731,978	-27,48
732,206	-29,18
732,434	-30,65
732,662	-28,13
732,89	-30,89
733,118	-31,45
733,346	-30
733,573	-28,43
733,801	-27,92
734,029	-23,6
734,257	-22,32
734,485	-18,94
734,712	-16,88
734,94	-18,33
735,168	-14,44
735,396	-13,5
735,623	-13,93
735,851	-13,03
736,078	-11,71
736,306	-11,98
736,534	-12,58
736,761	-11,83
736,989	-12,81
737,216	-13,86
737,444	-14,44
737,671	-14,3
737,899	-10,02
738,126	-11
738,354	-11,3
738,581	-9,84
738,809	-7,91
739,036	-8,2
739,263	-7,68
739,491	-8,93
739,718	-9,04
739,945	-5,63
740,173	-3,2
740,4	-4,16
740,627	-5,72
740,854	-6,46
741,081	-7,52
741,309	-8,47
741,536	-11,28
741,763	-13,21
741,99	-12,58
742,217	-14,89
742,444	-15,26
742,671	-14,54
742,898	-15,21
743,125	-17,19
743,352	-18,94
743,579	-18,29
743,806	-19,08
744,033	-18,09
744,26	-16,93
744,487	-17,39
744,714	-17,89
744,941	-18,06
745,167	-15,22
745,394	-15,91
745,621	-16,64
745,848	-17,55
746,075	-15,91
746,301	-13,33
746,528	-9,76
746,755	-11,31
746,981	-11,45
747,208	-11,22
747,435	-9,66
747,661	-9,68
747,888	-6,35
748,114	-8,22
748,341	-5,88
748,567	-3,85
748,794	-5,5
749,02	-6,63
749,247	-7,08
749,473	-7,78
749,7	-8,36
749,926	-9,15
750,152	-6,26
750,379	-6,09
750,605	-5,25
750,831	-5,26
751,058	-5,01
751,284	-5,52
751,51	-3,5
751,737	-1,59
751,963	-2,77
752,189	-3,23
752,415	-3,27
752,641	-3,93
752,867	-4,77
753,094	-5,72
753,32	-6,1
753,546	-6,83
753,772	-5,25
753,998	-5,92
754,224	-6,39
754,45	-7,03
754,676	-7,67
754,902	-9,68
755,128	-8,35
755,354	-8,35
755,579	-8,05
755,805	-5,92
756,031	-6,18
756,257	-6,78
756,483	-8,54
756,709	-10,94
756,934	-10,86
757,16	-11,79
757,386	-11,78
757,612	-14,31
757,837	-16,21
758,063	-14,46
758,289	-12,34
758,514	-13,09
758,74	-15,56
758,965	-18,52
759,191	-17,92
759,416	-17,06
759,642	-16,45
759,868	-15,54
760,093	-14,26
760,318	-15,47
760,544	-15,9
760,769	-15,88
760,995	-15,6
761,22	-14,75
761,445	-12,43
761,671	-10,36
761,896	-9,39
762,121	-9,62
762,347	-11,42
762,572	-13,71
762,797	-13,03
763,022	-12,15
763,248	-7,98
763,473	-5,94
763,698	-5,54
763,923	-5,37
764,148	-5,75
764,373	-5,48
764,598	-4,82
764,823	-1,82
765,048	-4,63
765,273	-7,15
765,498	-8,15
765,723	-7,34
765,948	-5,03
766,173	-6,02
766,398	-4,89
766,623	-7,1
766,848	-7,21
767,073	-9,12
767,298	-8,85
767,522	-9,15
767,747	-8,45
767,972	-9,59
768,197	-8,58
768,421	-11,09
768,646	-14,06
768,871	-16,19
769,095	-16,18
769,32	-14,67
769,545	-14,75
769,769	-13,6
769,994	-12,26
770,218	-14,92
770,443	-14,12
770,667	-12,66
770,892	-11,38
771,116	-11,98
771,341	-11,29
771,565	-10,27
771,79	-11
772,014	-12,12
772,238	-13,41
772,463	-11,85
772,687	-11,99
772,911	-12,77
773,136	-14,44
773,36	-14,21
773,584	-12,38
773,808	-13,15
774,033	-13,27
774,257	-13,56
774,481	-13,35
774,705	-14,72
774,929	-14,44
775,153	-16,2
775,377	-15,28
775,602	-15,07
775,826	-14,05
776,05	-12,11
776,274	-12,47
776,498	-12,16
776,722	-13,4
776,945	-13,17
777,169	-14,19
777,393	-14,96
777,617	-15,97
777,841	-16,55
778,065	-15,86
778,289	-16,33
778,512	-17,26
778,736	-16,82
778,96	-15,39
779,184	-12,94
779,407	-14,61
779,631	-15,15
779,855	-16,25
780,078	-14,65
780,302	-16,24
780,526	-17,66
780,749	-16,6
780,973	-15,64
781,196	-15,92
781,42	-17,74
781,643	-16,57
781,867	-16,05
782,09	-17,72
782,314	-17,19
782,537	-17,55
782,76	-16,72
782,984	-16,03
783,207	-16,88
783,431	-16,56
783,654	-17,99
783,877	-20,25
784,1	-20,4
784,324	-22,19
784,547	-21,77
784,77	-24,56
784,993	-26,26
785,216	-26,87
785,44	-26,25
785,663	-27,53
785,886	-25,75
786,109	-26,35
786,332	-25,23
786,555	-24,53
786,778	-21,8
787,001	-22,28
787,224	-20,99
787,447	-20,6
787,67	-19,52
787,893	-18,5
788,116	-18,37
788,339	-17,3
788,561	-19,82
788,784	-21,96
789,007	-22,11
789,23	-23,35
789,453	-22,12
789,675	-23,86
789,898	-25,67
790,121	-27,72
790,344	-27,29
790,566	-25,6
790,789	-25
791,012	-23,74
791,234	-19,98
791,457	-17,93
791,679	-16,98
791,902	-14,14
792,124	-13,92
792,347	-14,63
792,569	-15,04
792,792	-17,3
793,014	-15,52
793,237	-15,47
793,459	-14,48
793,681	-15,21
793,904	-15,97
794,126	-17,66
794,348	-16,89
794,571	-17,54
794,793	-19,08
795,015	-18,31
795,237	-19,35
795,46	-17,46
795,682	-17,12
795,904	-16,01
796,126	-17,42
796,348	-18,67
796,57	-15,07
796,792	-15,42
797,014	-11,02
797,237	-9,02
797,459	-8,1
797,681	-8,3
797,903	-10,18
798,124	-11,26
798,346	-2,13
798,568	-0,87
798,79	1,04
799,012	1,74
799,234	2,97
799,456	3,7
799,678	5,36
799,899	4,3
800,121	3,2
800,343	2,92
800,565	3,6
800,786	4,28
801,008	5,45
801,23	5,43
801,451	5,91
801,673	4,69
801,895	3,29
802,116	5,88
802,338	5,91
802,559	7,14
802,781	6,72
803,002	9,05
803,224	11,01
803,445	8,49
803,667	10,25
803,888	7,41
804,109	6,27
804,331	4,89
804,552	5,6
804,773	6,42
804,995	4,67
805,216	-5,92
805,437	-6,82
805,658	-9,59
805,88	-11,21
806,101	-11,39
806,322	-10,83
806,543	-11,82
806,764	-13,85
806,985	-12,5
807,207	-13,52
807,428	-13,32
807,649	-15,83
807,87	-16,67
808,091	-16,14
808,312	-15,67
808,533	-10,87
808,754	-8,22
808,975	-10,24
809,195	-8,29
809,416	-8,11
809,637	-9,62
809,858	-10,57
810,079	-12,18
810,3	-11,48
810,52	-12,85
810,741	-13,5
810,962	-14,97
811,183	-14,32
811,403	-14,85
811,624	-14,05
811,845	-13,02
812,065	-13,09
812,286	-12,76
812,506	-12,57
812,727	-11,75
812,948	-11,75
813,168	-9,18
813,389	-9,67
813,609	-7,91
813,83	-9,4
814,05	-10,24
814,27	-10,49
814,491	-6,49
814,711	-6,11
814,931	-8,13
815,152	-9,44
815,372	-12,28
815,592	-13,68
815,813	-13,79
816,033	-15,44
816,253	-14,36
816,473	-14,19
816,694	-14,07
816,914	-12,34
817,134	-11,96
817,354	-13,29
817,574	-11,94
817,794	-12,11
818,014	-13,27
818,234	-13,68
818,454	-15,92
818,674	-17,62
818,894	-18,52
819,114	-16,73
819,334	-17,58
819,554	-16,9
819,774	-14,92
819,994	-18,2
820,214	-18,24
820,433	-19,65
820,653	-20,27
820,873	-17,46
821,093	-17,32
821,312	-18,74
821,532	-17,76
821,752	-16,6
821,972	-17,17
822,191	-14,26
822,411	-15,51
822,63	-15,27
822,85	-14,95
823,07	-17,91
823,289	-16,74
823,509	-16,67
823,728	-16,19
823,948	-17,95
824,167	-18,98
824,387	-20,39
824,606	-18,43
824,825	-19,1
825,045	-19,27
825,264	-18,97
825,483	-17,31
825,703	-17,17
825,922	-18,34
826,141	-18,07
826,361	-17,69
826,58	-20,56
826,799	-21,94
827,018	-21,39
827,237	-19,86
827,456	-16,37
827,676	-15,73
827,895	-15,74
828,114	-15,42
828,333	-14,58
828,552	-14,7
828,771	-14,3
828,99	-17,56
829,209	-16,88
829,428	-14,79
829,647	-14,99
829,866	-13,8
830,084	-13,11
830,303	-13,7
830,522	-13,78
830,741	-14,4
830,96	-12,22
831,179	-11,96
831,397	-13,23
831,616	-12,52
831,835	-12,24
832,053	-11,48
832,272	-10,76
832,491	-9,55
832,709	-11,91
832,928	-11,21
833,147	-10,14
833,365	-7,77
833,584	-5,54
833,802	-4,09
834,021	-4,95
834,239	-6,95
834,458	-9,53
834,676	-11,37
834,894	-11,91
835,113	-13,79
835,331	-13,16
835,55	-13,34
835,768	-12,92
835,986	-11,29
836,204	-13,59
836,423	-12,33
836,641	-14,12
836,859	-15,49
837,077	-15,71
837,296	-15,17
837,514	-15,04
837,732	-15,24
837,95	-15,24
838,168	-15,17
838,386	-15,48
838,604	-14,06
838,822	-13,94
839,04	-13,81
839,258	-13,09
839,476	-10,95
839,694	-12,22
839,912	-13,64
840,13	-14,76
840,348	-12,21
840,566	-13,71
840,783	-11,29
841,001	-11,69
841,219	-10,03
841,437	-9,36
841,655	-9,11
841,872	-9,59
842,09	-9,96
842,308	-9,13
842,525	-8,56
842,743	-9,56
842,961	-9,65
843,178	-12,54
843,396	-8,52
843,613	-7,53
843,831	-5,54
844,048	-6,96
844,266	-5,1
844,483	-6,36
844,701	-5,52
844,918	-4,52
845,136	-5,48
845,353	-6,82
845,57	-5,75
845,788	-3,54
846,005	-6,31
846,222	-7,33
846,439	-5,78
846,657	-6
846,874	-5,79
847,091	-8,34
847,308	-7,49
847,526	-9,16
847,743	-8,65
847,96	-9,87
848,177	-10,22
848,394	-10,16
848,611	-10,65
848,828	-11,66
849,045	-12,65
849,262	-12,73
849,479	-12,47
849,696	-13,17
849,913	-13,63
850,13	-18,19
850,347	-15,96
850,564	-17,15
850,78	-18,89
850,997	-21,46
851,214	-21,39
851,431	-21,44
851,647	-23,57
851,864	-22,41
852,081	-20,47
852,298	-23,63
852,514	-25,67
852,731	-23,34
852,948	-21,22
853,164	-19,96
853,381	-20,34
853,597	-22,07
853,814	-23,25
854,03	-26,35
854,247	-25,21
854,463	-25,6
854,68	-26,1
854,896	-24,81
855,113	-24,62
855,329	-23,4
855,545	-20,87
855,762	-20,01
855,978	-22,65
856,194	-23,87
856,411	-21,19
856,627	-18,77
856,843	-17,25
857,059	-16,6
857,275	-17,95
857,492	-15,71
857,708	-12,87
857,924	-12,83
858,14	-12,17
858,356	-11,77
858,572	-11,22
858,788	-12,13
859,004	-10
859,22	-12,16
859,436	-11,78
859,652	-12,83
859,868	-14,12
860,084	-13,37
860,3	-12,25
860,516	-12,17
860,731	-11,69
860,947	-13,3
861,163	-11,64
861,379	-10,84
861,595	-10,14
861,81	-9,29
862,026	-9,04
862,242	-9,6
862,457	-10,52
862,673	-8,64
862,889	-8,8
863,104	-9,36
863,32	-8,77
863,535	-8,11
863,751	-11,73
863,966	-9,12
864,182	-8,55
864,397	-10,37
864,613	-9,98
864,828	-11,16
865,044	-10,39
865,259	-9,85
865,474	-10,73
865,69	-9,28
865,905	-8,85
866,12	-10,61
866,336	-11,08
866,551	-10,53
866,766	-12,97
866,981	-13,1
867,196	-12,31
867,412	-10,68
867,627	-10,61
867,842	-11,72
868,057	-11,81
868,272	-12,94
868,487	-14,65
868,702	-16,99
868,917	-17,49
869,132	-16,42
869,347	-15,94
869,562	-15,42
869,777	-15,73
869,992	-18,1
870,207	-18,5
870,422	-19,36
870,636	-20,95
870,851	-22,19
871,066	-22,74
871,281	-23,17
871,495	-23,52
871,71	-21,93
871,925	-23,26
872,14	-24,09
872,354	-25,24
872,569	-25,56
872,783	-24,2
872,998	-23,48
873,213	-23,62
873,427	-20,15
873,642	-20,51
873,856	-20,99
874,071	-21,52
874,285	-21,99
874,5	-23,47
874,714	-24,55
874,928	-25,92
875,143	-26,29
875,357	-25,06
875,571	-26,21
875,786	-26,11
876	-24
876,214	-23,91
876,429	-25,85
876,643	-24,79
876,857	-23,41
877,071	-20,91
877,285	-22,08
877,499	-24,22
877,714	-22,77
877,928	-21,47
878,142	-22,44
878,356	-25,22
878,57	-24,42
878,784	-22,83
878,998	-24,75
879,212	-21,54
879,426	-23,95
879,639	-23,42
879,853	-24,25
880,067	-25,21
880,281	-24,92
880,495	-24,2
880,709	-22,98
880,922	-23,07
881,136	-21,43
881,35	-19,15
881,564	-17,77
881,777	-17,88
881,991	-17,42
882,205	-15,13
882,418	-14,71
882,632	-16,24
882,845	-16,67
883,059	-16,53
883,273	-16,8
883,486	-18,15
883,7	-16,86
883,913	-15,26
884,126	-12,97
884,34	-14,9
884,553	-15,59
884,767	-12,74
884,98	-11,29
885,193	-12,66
885,407	-13,69
885,62	-11,85
885,833	-12,54
886,046	-10,1
886,26	-9,6
886,473	-10,6
886,686	-11,22
886,899	-10,96
887,112	-10,8
887,326	-12,69
887,539	-11,69
887,752	-10,86
887,965	-12,23
888,178	-11,74
888,391	-11,49
888,604	-12,14
888,817	-12,64
889,03	-11,2
889,243	-12,78
889,455	-14,33
889,668	-13,3
889,881	-10,79
890,094	-10,78
890,307	-13,83
890,52	-12,85
890,732	-13,73
890,945	-13,16
891,158	-13,33
891,37	-15,75
891,583	-15,76
891,796	-14,58
892,008	-14,65
892,221	-15,01
892,434	-18,17
892,646	-19,41
892,859	-21,47
893,071	-20,1
893,284	-19
893,496	-19,21
893,709	-20,38
893,921	-19,71
894,133	-19,7
894,346	-20,35
894,558	-21,06
894,771	-21,67
894,983	-20,6
895,195	-19,63
895,407	-19,71
895,62	-23,51
895,832	-22,82
896,044	-20,94
896,256	-20,69
896,468	-23,78
896,681	-21,72
896,893	-20,63
897,105	-22,04
897,317	-22,7
897,529	-21,81
897,741	-21,56
897,953	-18,85
898,165	-20,49
898,377	-22,05
898,589	-22,15
898,801	-23,28
899,013	-22,57
899,224	-20,82
899,436	-19,24
899,648	-20,13
899,86	-20,67
900,072	-19,66
900,283	-17,38
900,495	-16,1
900,707	-16,74
900,919	-18,35
901,13	-17,13
901,342	-18,19
901,554	-18,97
901,765	-19,15
901,977	-21,78
902,188	-21,61
902,4	-22,64
902,611	-22,12
902,823	-23,31
903,034	-24,3
903,246	-26,89
903,457	-26,52
903,669	-26,71
903,88	-25,69
904,091	-24,8
904,303	-23,75
904,514	-26,04
904,725	-24,14
904,936	-22,81
905,148	-21,62
905,359	-18,23
905,57	-17,55
905,781	-19,08
905,992	-19,52
906,204	-18,03
906,415	-18,51
906,626	-19,51
906,837	-19,01
907,048	-20,15
907,259	-21,03
907,47	-22,96
907,681	-24,82
907,892	-22,55
908,103	-23,36
908,314	-24,82
908,525	-22,57
908,735	-20,6
908,946	-20,94
909,157	-22,83
909,368	-21,21
909,579	-19,46
909,789	-20,14
910	-22,47
910,211	-21
910,421	-21,7
910,632	-21,76
910,843	-24,94
911,053	-20,49
911,264	-19,1
911,475	-19,36
911,685	-18,74
911,896	-19,82
912,106	-19,93
912,317	-21,45
912,527	-20,38
912,737	-21,33
912,948	-20,63
913,158	-19,83
913,369	-22,71
913,579	-21
913,789	-19,53
914	-16,21
914,21	-15,45
914,42	-15,74
914,63	-15,97
914,841	-14,52
915,051	-13,07
915,261	-13,69
915,471	-11,91
915,681	-11,83
915,891	-11,56
916,101	-12,67
916,311	-12,17
916,521	-10,4
916,731	-10,05
916,941	-7,79
917,151	-8,62
917,361	-6,02
917,571	-9,32
917,781	-10,99
917,991	-13,07
918,201	-14,26
918,411	-17,56
918,621	-17,19
918,83	-15,71
919,04	-16,47
919,25	-15,36
919,46	-15
919,669	-16,98
919,879	-16,76
920,089	-18,18
920,298	-19,05
920,508	-17,82
920,717	-17,54
920,927	-19,24
921,136	-19,19
921,346	-21,21
921,555	-24,12
921,765	-25,18
921,974	-25,85
922,184	-27,06
922,393	-27,45
922,603	-27,45
922,812	-25,63
923,021	-26,77
923,23	-28,34
923,44	-30,91
923,649	-30,85
923,858	-31,97
924,067	-32,06
924,277	-32,13
924,486	-30,57
924,695	-31,02
924,904	-28,49
925,113	-28,27
925,322	-28,04
925,531	-28,87
925,74	-30,59
925,949	-29,62
926,158	-28,51
926,367	-28,64
926,576	-26,94
926,785	-27,64
926,994	-30,08
927,203	-28,35
927,412	-27,61
927,621	-26,33
927,83	-23,19
928,038	-22,85
928,247	-21,99
928,456	-22,76
928,665	-20,85
928,873	-18,92
929,082	-17,16
929,291	-16,62
929,499	-15,58
929,708	-16,59
929,916	-15,33
930,125	-15,74
930,333	-16,77
930,542	-16,21
930,75	-15,56
930,959	-13,6
931,167	-13,58
931,376	-14,98
931,584	-14,29
931,793	-13,55
932,001	-13,12
932,209	-13,61
932,418	-17,03
932,626	-18,61
932,834	-18,83
933,042	-22,82
933,251	-22,08
933,459	-21,67
933,667	-22,7
933,875	-23,2
934,083	-22,85
934,291	-22,31
934,499	-22,46
934,707	-22,23
934,915	-22,53
935,123	-22,07
935,331	-24,13
935,539	-26,15
935,747	-26,88
935,955	-26,57
936,163	-26,14
936,371	-26,51
936,579	-26,01
936,787	-25,58
936,995	-25,86
937,202	-27,45
937,41	-29,1
937,618	-30,38
937,826	-28,51
938,033	-31,84
938,241	-33,31
938,449	-31,32
938,656	-29,35
938,864	-28,36
939,071	-27,03
939,279	-24,42
939,486	-22,29
939,694	-22,28
939,901	-22,68
940,109	-23,09
940,316	-22,72
940,524	-23,4
940,731	-24,78
940,939	-22,99
941,146	-23,44
941,353	-23,49
941,561	-22,92
941,768	-23,67
941,975	-22,02
942,182	-23,28
942,39	-23,88
942,597	-20,69
942,804	-22,15
943,011	-22,41
943,218	-20,63
943,425	-20,79
943,632	-20,84
943,839	-21,76
944,046	-20,91
944,253	-21,85
944,46	-19,6
944,667	-17,42
944,874	-19,01
945,081	-18,67
945,288	-18,55
945,495	-16,78
945,702	-17,1
945,909	-18,43
946,115	-17,53
946,322	-18,41
946,529	-19,54
946,736	-19,49
946,942	-18,89
947,149	-19,12
947,356	-20,1
947,562	-20,72
947,769	-20,47
947,976	-20,78
948,182	-19,89
948,389	-20,22
948,595	-19,18
948,802	-18,06
949,008	-20,98
949,215	-18,41
949,421	-19,23
949,628	-20,44
949,834	-20,17
950,04	-20,23
950,247	-16,86
950,453	-15,73
950,659	-16,48
950,865	-17,07
951,072	-19,54
951,278	-18,45
951,484	-18,87
951,69	-20,77
951,896	-23,16
952,103	-24,23
952,309	-21,61
952,515	-22,23
952,721	-19,82
952,927	-17,95
953,133	-18,79
953,339	-19,81
953,545	-20,61
953,751	-20,44
953,957	-18,79
954,163	-20,25
954,369	-20,58
954,574	-21,98
954,78	-23,53
954,986	-22,94
955,192	-22,27
955,398	-21,81
955,603	-23,28
955,809	-21,46
956,015	-20,86
956,22	-21,04
956,426	-19,22
956,632	-22,41
956,837	-23,14
957,043	-22,44
957,248	-20,94
957,454	-21,43
957,66	-22,14
957,865	-23,42
958,07	-21,36
958,276	-22,5
958,481	-23,86
958,687	-25,94
958,892	-24,83
959,097	-26,21
959,303	-26,96
959,508	-26,63
959,713	-26,09
959,919	-26,89
960,124	-28,32
960,329	-28,51
960,534	-24,11
960,739	-22,62
960,945	-20,49
961,15	-19,93
961,355	-21,9
961,56	-24,52
961,765	-25,88
961,97	-24,96
962,175	-22,71
962,38	-25,5
962,585	-24,38
962,79	-25,88
962,995	-25,46
963,2	-25,66
963,404	-26,03
963,609	-28,27
963,814	-28,48
964,019	-30,71
964,224	-30,8
964,428	-28,82
964,633	-26,5
964,838	-25,17
965,042	-23,97
965,247	-25,94
965,452	-25,12
965,656	-24,73
965,861	-23,42
966,066	-24,7
966,27	-22,7
966,475	-18,38
966,679	-20,99
966,884	-21,79
967,088	-24,23
967,292	-25,17
967,497	-23,84
967,701	-24,75
967,906	-22,73
968,11	-19,28
968,314	-17,42
968,518	-19,6
968,723	-16,34
968,927	-14,88
969,131	-15,13
969,335	-12,94
969,539	-12,14
969,744	-11,13
969,948	-9,48
970,152	-7,85
970,356	-6,95
970,56	-7,44
970,764	-9,33
970,968	-7,33
971,172	-6,73
971,376	-7,32
971,58	-6,34
971,784	-6,82
971,988	-7,49
972,192	-7,23
972,395	-7,23
972,599	-8,24
972,803	-10,22
973,007	-8,28
973,21	-8,34
973,414	-9,28
973,618	-8,64
973,822	-9,79
974,025	-9,54
974,229	-11,02
974,432	-14,11
974,636	-14,57
974,84	-13,38
975,043	-13,97
975,247	-15,45
975,45	-15,35
975,654	-15,41
975,857	-16,24
976,06	-16,55
976,264	-17,41
976,467	-15,5
976,671	-15,86
976,874	-14,99
977,077	-14,88
977,28	-15,62
977,484	-17,45
977,687	-16,34
977,89	-16,18
978,093	-15,28
978,297	-15,24
978,5	-15,61
978,703	-14,24
978,906	-13,93
979,109	-15,09
979,312	-13,76
979,515	-14,65
979,718	-13,61
979,921	-14,83
980,124	-15,61
980,327	-15,21
980,53	-14,18
980,733	-12,47
980,936	-12,01
981,138	-14,35
981,341	-13,93
981,544	-14,57
981,747	-14,93
981,949	-16,16
982,152	-14,26
982,355	-15,36
982,558	-13,92
982,76	-17,56
982,963	-16,94
983,165	-16,08
983,368	-16,17
983,571	-17,43
983,773	-15,95
983,976	-16,6
984,178	-16,07
984,381	-16,7
984,583	-17,24
984,785	-17,13
984,988	-16,19
985,19	-14,42
985,392	-14,4
985,595	-17,2
985,797	-18,06
985,999	-15,74
986,202	-14,24
986,404	-13,8
986,606	-11,08
986,808	-13,88
987,01	-12,86
987,212	-13,88
987,415	-14,14
987,617	-14,69
987,819	-15,97
988,021	-13,9
988,223	-15,77
988,425	-17,1
988,627	-16,2
988,829	-18,23
989,031	-15,34
989,232	-17,64
989,434	-17,45
989,636	-17,04
989,838	-17,83
990,04	-16,65
990,242	-17,08
990,443	-17,71
990,645	-17,51
990,847	-15,76
991,048	-16,48
991,25	-16,78
991,452	-18,06
991,653	-17,84
991,855	-18,24
992,057	-17,54
992,258	-18,53
992,46	-20,48
992,661	-20,56
992,863	-21,5
993,064	-19,05
993,265	-19,26
993,467	-20,32
993,668	-18,76
993,87	-17,9
994,071	-17,32
994,272	-18,49
994,473	-17,39
994,675	-16,62
994,876	-16,2
995,077	-16,62
995,278	-17,13
995,48	-15,4
995,681	-16,43
995,882	-15,57
996,083	-15,44
996,284	-18,1
996,485	-18,54
996,686	-19,05
996,887	-19,29
997,088	-22,15
997,289	-23,5
997,49	-24,4
997,691	-24,78
997,892	-24,61
998,092	-21,55
998,293	-22,96
998,494	-23,04
998,695	-21,44
998,896	-20,21
999,096	-19,95
999,297	-20,29
999,498	-23,36
999,698	-25,48
999,899	-26,52
1000,1	-28,33
1000,3	-28,64
1000,501	-29,31
1000,701	-29,04
1000,902	-29,17
1001,102	-29,3
1001,303	-26,02
1001,503	-27,54
1001,704	-27,02
1001,904	-28,09
1002,105	-28,3
1002,305	-26,55
1002,505	-27,32
1002,706	-27,49
1002,906	-28,17
1003,106	-29,36
1003,306	-28,71
1003,507	-27,09
1003,707	-27,39
1003,907	-25,91
1004,107	-25,75
1004,307	-26,66
1004,507	-25,86
1004,707	-26,75
1004,907	-28,28
1005,107	-28,47
1005,308	-27,76
1005,507	-28,1
1005,707	-25,57
1005,907	-25,06
1006,107	-23,52
1006,307	-23,22
1006,507	-23,53
1006,707	-22,85
1006,907	-22,32
1007,106	-22,72
1007,306	-24,14
1007,506	-25,06
1007,706	-25,15
1007,905	-25,81
1008,105	-25,9
1008,305	-27,84
1008,504	-27,32
1008,704	-23,42
1008,903	-22,55
1009,103	-20,81
1009,303	-21,44
1009,502	-21,1
1009,702	-21,03
1009,901	-20,56
1010,1	-22,55
1010,3	-22,38
1010,499	-24,32
1010,699	-25,38
1010,898	-25,12
1011,097	-24,69
1011,296	-24,75
1011,496	-26,78
1011,695	-26,44
1011,894	-27,53
1012,093	-24,87
1012,293	-27,2
1012,492	-26,44
1012,691	-26,4
1012,89	-27,03
1013,089	-28,51
1013,288	-28,75
1013,487	-26,71
1013,686	-27,22
1013,885	-27,1
1014,084	-26,3
1014,283	-26,12
1014,482	-25,83
1014,681	-27,43
1014,88	-30,82
1015,078	-30,2
1015,277	-31,69
1015,476	-31,58
1015,675	-30,21
1015,873	-30,28
1016,072	-31,93
1016,271	-29,28
1016,47	-31,48
1016,668	-29,17
1016,867	-27,32
1017,065	-29,64
1017,264	-29,14
1017,463	-29,57
1017,661	-29,86
1017,86	-30,6
1018,058	-29,95
1018,256	-31,19
1018,455	-31,35
1018,653	-31,02
1018,852	-29,81
1019,05	-30,41
1019,248	-32,83
1019,447	-33,18
1019,645	-33,96
1019,843	-34,53
1020,041	-33,96
1020,24	-35,19
1020,438	-31,16
1020,636	-31,67
1020,834	-33,52
1021,032	-31,42
1021,23	-32,9
1021,428	-32,21
1021,626	-30,13
1021,824	-31,54
1022,022	-32,18
1022,22	-30,12
1022,418	-29,73
1022,616	-28,66
1022,814	-29,2
1023,012	-29,57
1023,21	-26,49
1023,408	-27,76
1023,606	-27,46
1023,803	-22,5
1024,001	-22,25
1024,199	-24,4
1024,397	-23,85
1024,594	-23,25
1024,792	-24,43
1024,99	-25,3
1025,187	-25,16
1025,385	-19,98
1025,582	-19,57
1025,78	-19,24
1025,977	-18,91
1026,175	-18,11
1026,372	-17,85
1026,57	-20,5
1026,767	-19,04
1026,965	-17,81
1027,162	-18,26
1027,359	-17,84
1027,557	-16,73
1027,754	-19,87
1027,951	-19,32
1028,148	-17,55
1028,346	-18,89
1028,543	-21,06
1028,74	-21,84
1028,937	-23,93
1029,134	-25,29
1029,331	-26,46
1029,528	-26,2
1029,725	-27,27
1029,923	-30,54
1030,12	-28,74
1030,317	-28,24
1030,513	-27,86
1030,71	-27,31
1030,907	-26
1031,104	-25,38
1031,301	-26,26
1031,498	-27,16
1031,695	-26,64
1031,892	-26,97
1032,088	-27,05
1032,285	-28,85
1032,482	-29,43
1032,678	-32,21
1032,875	-34,37
1033,072	-34,6
1033,268	-34,6
1033,465	-33,75
1033,662	-35,71
1033,858	-34,17
1034,055	-33,69
1034,251	-33,05
1034,448	-33,55
1034,644	-33,39
1034,84	-32,24
1035,037	-30,85
1035,233	-29,63
1035,43	-28,51
1035,626	-29,55
1035,822	-28,71
1036,019	-29,16
1036,215	-30,55
1036,411	-29,72
1036,607	-30,71
1036,803	-31,75
1037	-32,19
1037,196	-34,52
1037,392	-34,82
1037,588	-36,05
1037,784	-35,19
1037,98	-35,74
1038,176	-36,74
1038,372	-37,59
1038,568	-36,23
1038,764	-33,26
1038,96	-31,34
1039,156	-31,84
1039,352	-31,8
1039,547	-31,49
1039,743	-30,4
1039,939	-27,63
1040,135	-29,64
1040,331	-30,59
1040,526	-27,62
1040,722	-28,26
1040,918	-28,49
1041,113	-29,79
1041,309	-30,69
1041,505	-32,92
1041,7	-31,19
1041,896	-31,07
1042,091	-31,71
1042,287	-31,51
1042,482	-31,3
1042,678	-31,27
1042,873	-30,77
1043,069	-31,1
1043,264	-29,3
1043,459	-27,34
1043,655	-26,74
1043,85	-28,34
1044,045	-27,76
1044,24	-26,72
1044,436	-23,94
1044,631	-24,31
1044,826	-25,56
1045,021	-25,92
1045,216	-24,74
