Data from FLMT021711__14__16-31-42-650.txt Node

Date: Tue Nov 05 16:31:42 CET 2024
User: Etudiants TP
Spectrometer: FLMT02171
Trigger mode: 0
Integration Time (sec): 1,000000E-1
Scans to average: 5
Electric dark correction enabled: true
Nonlinearity correction enabled: false
Boxcar width: 15
XAxis mode: Wavelengths
Number of Pixels in Spectrum: 3648
>>>>>Begin Spectral Data<<<<<
194,658	-47
194,923	-46,23
195,188	-39,83
195,453	-39,51
195,717	-36,27
195,982	-35,15
196,247	-33,89
196,512	-35,8
196,777	-34,49
197,042	-34,91
197,307	-35,13
197,572	-31,56
197,837	-30,98
198,101	-30,3
198,366	-27,91
198,631	-26,44
198,896	-22,19
199,161	-16,82
199,425	-12,37
199,69	-4,94
199,955	-4,8
200,22	-6,35
200,484	-7,11
200,749	-6,79
201,014	-6,45
201,278	-7,27
201,543	-6,88
201,807	-7,02
202,072	-5,23
202,337	-7,53
202,601	-7,26
202,866	-8,06
203,13	-6,74
203,395	-9,37
203,659	-8,15
203,924	-8,46
204,189	-7,7
204,453	-7,7
204,717	-5,37
204,982	-5,39
205,246	-3,81
205,511	-2,3
205,775	-3,45
206,04	-0,28
206,304	1,37
206,568	2,19
206,833	1,82
207,097	3,3
207,361	4,23
207,626	7,96
207,89	8,32
208,154	8,02
208,419	9,78
208,683	9,93
208,947	11,81
209,211	11,82
209,476	11,49
209,74	12,87
210,004	13,05
210,268	14,05
210,532	17,07
210,796	16,65
211,061	16,69
211,325	16,64
211,589	17,06
211,853	17,51
212,117	17,29
212,381	16,63
212,645	18,9
212,909	19,03
213,173	17,44
213,437	19,47
213,701	20,9
213,965	21,89
214,229	18,83
214,493	18,55
214,757	17,68
215,021	17,17
215,285	18,69
215,549	20,36
215,813	18,04
216,077	17,83
216,34	19,72
216,604	17,1
216,868	18,19
217,132	17,31
217,396	17,71
217,659	18,66
217,923	15,61
218,187	14,45
218,451	12,27
218,714	9,83
218,978	10,65
219,242	12,49
219,505	12,71
219,769	12,2
220,033	12,24
220,296	12,98
220,56	13,55
220,824	10,23
221,087	10,92
221,351	12,04
221,614	10,62
221,878	9,91
222,142	8,31
222,405	8,08
222,669	9,79
222,932	7,5
223,196	6,01
223,459	4,29
223,722	4,59
223,986	5,49
224,249	3,9
224,513	3,74
224,776	5,11
225,04	4,17
225,303	4,49
225,566	3,76
225,83	5,06
226,093	6,67
226,356	5,55
226,62	4,64
226,883	6,96
227,146	6,84
227,409	5,47
227,673	4,11
227,936	2,91
228,199	1,94
228,462	-0,25
228,725	-0,89
228,989	-0,99
229,252	0,36
229,515	3,56
229,778	2,91
230,041	2,43
230,304	1,5
230,567	2,89
230,83	0,61
231,093	1,33
231,356	1,54
231,619	6,43
231,882	4,94
232,145	4,9
232,408	5,46
232,671	3,91
232,934	5,24
233,197	5,17
233,46	3,98
233,723	4,26
233,986	1,9
234,249	0,65
234,512	2,19
234,775	6,5
235,037	4,79
235,3	6,12
235,563	6,18
235,826	7,45
236,089	9,54
236,351	9,45
236,614	12,56
236,877	14,78
237,14	16,98
237,402	15,23
237,665	9,87
237,928	9,37
238,19	8,25
238,453	10,69
238,716	9,11
238,978	8,66
239,241	7,8
239,503	11,55
239,766	7,95
240,029	7,82
240,291	9,76
240,554	8,56
240,816	8,37
241,079	7,59
241,341	6,04
241,604	4,44
241,866	2,56
242,129	3,67
242,391	5,9
242,653	6,36
242,916	5,96
243,178	6,26
243,441	5,09
243,703	4,88
243,965	3,11
244,228	3,64
244,49	3,72
244,752	4,11
245,015	3,11
245,277	4,19
245,539	3,49
245,801	5,4
246,064	4,43
246,326	3,93
246,588	3,59
246,85	5,63
247,112	6
247,374	8,7
247,637	8,73
247,899	7,93
248,161	8,08
248,423	5,58
248,685	6,08
248,947	6,6
249,209	5,82
249,471	7,29
249,733	8,99
249,995	8,77
250,257	8,83
250,519	8,4
250,781	11,12
251,043	8,84
251,305	11,09
251,567	12,84
251,829	13,56
252,091	14,1
252,353	11,38
252,615	11,13
252,876	9,98
253,138	8,81
253,4	6,44
253,662	6,85
253,924	8,32
254,185	9,79
254,447	9,51
254,709	9,1
254,971	9,44
255,232	10,89
255,494	9,01
255,756	6,75
256,017	7,85
256,279	7,28
256,541	6,84
256,802	8,17
257,064	8,39
257,326	7,69
257,587	9,35
257,849	9,93
258,11	12,34
258,372	12,66
258,633	12,15
258,895	10,05
259,156	8,48
259,418	6,55
259,679	3,42
259,941	2,53
260,202	5,03
260,464	7,41
260,725	7,34
260,987	5,13
261,248	3,5
261,509	3,91
261,771	3,38
262,032	5,32
262,293	5,31
262,555	5,14
262,816	4,27
263,077	2,72
263,338	0,54
263,6	0,94
263,861	1,07
264,122	-0,44
264,383	1,44
264,645	1,96
264,906	-0,36
265,167	0,07
265,428	-0,19
265,689	-0,5
265,95	-2,4
266,211	-0,96
266,473	-1,22
266,734	-3,12
266,995	-6,42
267,256	-4,86
267,517	-4,43
267,778	-2,08
268,039	-0,93
268,3	-2,74
268,561	-5,13
268,822	-2,62
269,083	-3,55
269,344	-2,95
269,604	-3,4
269,865	-3,06
270,126	-5,64
270,387	-4,14
270,648	-2,05
270,909	-3,41
271,17	-4,4
271,43	-5,58
271,691	-7,28
271,952	-8,47
272,213	-7,35
272,473	-9,34
272,734	-7,85
272,995	-7,04
273,256	-6,23
273,516	-5,19
273,777	-7,33
274,038	-5
274,298	-7,68
274,559	-7,71
274,82	-5,09
275,08	-2,71
275,341	-1,26
275,601	-0,79
275,862	-2,7
276,122	-4,09
276,383	-5
276,643	-3,3
276,904	-4,36
277,164	-1,14
277,425	-1,14
277,685	1,01
277,946	1,19
278,206	0,65
278,467	0,07
278,727	-1,78
278,987	-1,87
279,248	-0,74
279,508	0,25
279,768	1,84
280,029	3,28
280,289	1,71
280,549	0,79
280,81	0,59
281,07	1,35
281,33	3,23
281,59	2,77
281,851	5,27
282,111	4,23
282,371	3,74
282,631	5,02
282,891	3,92
283,151	3,74
283,412	0,8
283,672	-0,14
283,932	0,42
284,192	1,48
284,452	0,84
284,712	-0,88
284,972	-1,54
285,232	-2,79
285,492	-1,2
285,752	-2,46
286,012	2,49
286,272	4,85
286,532	4,19
286,792	6,31
287,052	7,71
287,312	7,42
287,571	7,21
287,831	6,96
288,091	6,62
288,351	6,58
288,611	10,21
288,871	10,34
289,13	9,92
289,39	6,12
289,65	7,29
289,91	5,11
290,17	6,12
290,429	7,22
290,689	5,19
290,949	3,69
291,208	4,06
291,468	7,97
291,728	10,64
291,987	11,8
292,247	10,43
292,506	11,91
292,766	14,8
293,026	13,67
293,285	14,54
293,545	16,47
293,804	16,04
294,064	12,39
294,323	10,14
294,583	10,2
294,842	9,37
295,102	10,56
295,361	10,21
295,621	11
295,88	12,8
296,139	12,3
296,399	14,49
296,658	10,29
296,917	9,43
297,177	7,03
297,436	8
297,695	6,29
297,955	8,15
298,214	7,55
298,473	8,32
298,732	9,03
298,992	10,66
299,251	10,14
299,51	6,48
299,769	5,31
300,028	4,37
300,287	5,74
300,547	7,79
300,806	5,55
301,065	8,08
301,324	8,8
301,583	6,04
301,842	4,03
302,101	2,62
302,36	4,34
302,619	4,68
302,878	5,26
303,137	2,82
303,396	3,34
303,655	4,03
303,914	0,13
304,173	0,18
304,432	-0,73
304,691	1,95
304,95	0,75
305,208	4,5
305,467	4,31
305,726	4,88
305,985	5,41
306,244	7,38
306,503	7,48
306,761	6,52
307,02	5,3
307,279	6,57
307,537	7,57
307,796	5,88
308,055	5,13
308,314	5,03
308,572	1,75
308,831	1,94
309,09	1,78
309,348	2,55
309,607	1,9
309,865	4,43
310,124	4,31
310,382	3,78
310,641	4,15
310,9	3,03
311,158	3,37
311,417	4,69
311,675	5,23
311,933	7,55
312,192	7,76
312,45	8,25
312,709	7,57
312,967	6,61
313,226	6,86
313,484	6,48
313,742	5,35
314,001	3,47
314,259	0,98
314,517	1,8
314,776	4,06
315,034	5,28
315,292	2,94
315,55	0,99
315,809	-0,63
316,067	-0,7
316,325	-1,01
316,583	0,55
316,841	0,28
317,1	-1,54
317,358	-5
317,616	-5,32
317,874	-7,15
318,132	-7,42
318,39	-7,36
318,648	-8,23
318,906	-8,73
319,164	-8,41
319,422	-9,46
319,68	-10,69
319,938	-10,73
320,196	-9,91
320,454	-9,65
320,712	-9,28
320,97	-7,86
321,228	-9,77
321,486	-7,9
321,744	-6,99
322,002	-5,22
322,26	-5,62
322,517	-6
322,775	-8,86
323,033	-9,24
323,291	-6,51
323,549	-4,02
323,806	-1,45
324,064	-0,93
324,322	-0,1
324,58	-1,36
324,837	1,05
325,095	-0,51
325,353	0,53
325,61	3,17
325,868	3,63
326,126	6,15
326,383	5,22
326,641	4,62
326,898	5,75
327,156	6,24
327,413	5,75
327,671	5,92
327,928	6,72
328,186	6,41
328,443	4,54
328,701	6,38
328,958	5,75
329,216	5,79
329,473	3,95
329,731	4,4
329,988	4,98
330,245	7,46
330,503	8,6
330,76	11,09
331,017	12,86
331,275	10,74
331,532	9,86
331,789	8,7
332,047	8,54
332,304	6,17
332,561	7,11
332,818	5,65
333,076	7,87
333,333	9,87
333,59	9,72
333,847	10,79
334,104	8,41
334,361	8,34
334,618	7,73
334,876	6,74
335,133	6,94
335,39	5,61
335,647	6,07
335,904	4,41
336,161	3,71
336,418	5,49
336,675	2,38
336,932	4,4
337,189	4,62
337,446	5,06
337,703	4,35
337,96	0,18
338,216	-0,68
338,473	-3,21
338,73	-4,58
338,987	-5,62
339,244	-2,74
339,501	-4,17
339,757	-3,41
340,014	-2,61
340,271	-2,11
340,528	-1,91
340,785	1,51
341,041	1,28
341,298	-1,26
341,555	-2,11
341,811	-2,36
342,068	-3,05
342,325	-3,14
342,581	-1,1
342,838	-0,08
343,094	-0,42
343,351	0,06
343,608	-1,96
343,864	-0,98
344,121	-0,66
344,377	-1,86
344,634	-1,66
344,89	-2,26
345,147	-1,91
345,403	-2,48
345,66	-2,7
345,916	-0,66
346,172	-1,42
346,429	-2,61
346,685	-3,04
346,942	-3,03
347,198	-6,57
347,454	-5,07
347,711	-6,09
347,967	-7,96
348,223	-6,6
348,48	-7,52
348,736	-5,87
348,992	-6,78
349,248	-4,49
349,504	-4,61
349,761	-3,4
350,017	-3,64
350,273	-4,17
350,529	-5,83
350,785	-5,84
351,041	-6,24
351,297	-5,7
351,554	-5,8
351,81	-6,77
352,066	-8,36
352,322	-8,15
352,578	-8,04
352,834	-9,15
353,09	-10,57
353,346	-10,65
353,602	-12,08
353,858	-12,35
354,114	-12,66
354,369	-9,91
354,625	-8,67
354,881	-10,44
355,137	-9,48
355,393	-8,75
355,649	-8,21
355,905	-8,21
356,16	-7,37
356,416	-6,35
356,672	-11,85
356,928	-11,61
357,183	-11,52
357,439	-12,08
357,695	-14,39
357,951	-11,14
358,206	-10,51
358,462	-9,65
358,718	-11,21
358,973	-10,36
359,229	-10,02
359,484	-9,34
359,74	-6,83
359,996	-6,32
360,251	-3,55
360,507	-3,6
360,762	-3,85
361,018	-1,83
361,273	-2,96
361,529	0,04
361,784	0,51
362,04	1,17
362,295	-1,18
362,55	-0,94
362,806	0,73
363,061	2,03
363,316	0,98
363,572	2,87
363,827	4,89
364,082	2,2
364,338	2,6
364,593	3,45
364,848	3,56
365,104	0,91
365,359	4,23
365,614	4,33
365,869	3,09
366,124	3,24
366,38	1,69
366,635	2,48
366,89	3,58
367,145	3,75
367,4	5,93
367,655	5,71
367,91	6,6
368,165	3,83
368,42	2,45
368,675	3,61
368,93	3,57
369,185	2,88
369,44	1,7
369,695	2,39
369,95	1,62
370,205	2,6
370,46	1,69
370,715	2,18
370,97	2,7
371,225	3,57
371,48	4,01
371,734	4,06
371,989	5,57
372,244	5,81
372,499	5,95
372,754	6,17
373,008	4,51
373,263	-0,07
373,518	1,42
373,773	0,33
374,027	-0,46
374,282	1,58
374,537	2,29
374,791	2,8
375,046	3,13
375,301	3,73
375,555	1,63
375,81	2,79
376,064	4,23
376,319	7
376,573	5,8
376,828	3,39
377,082	6,74
377,337	5,97
377,591	4,19
377,846	4,71
378,1	6,55
378,355	6,55
378,609	5,82
378,863	3,28
379,118	5,29
379,372	1,61
379,627	-0,16
379,881	-2,61
380,135	-3,91
380,389	-3,11
380,644	-2,39
380,898	-0,58
381,152	0,89
381,407	0,36
381,661	1,6
381,915	2,37
382,169	2,46
382,423	2,23
382,677	-0,36
382,932	-0,42
383,186	-1,76
383,44	-0,63
383,694	0,44
383,948	-2,02
384,202	-3,81
384,456	-2,05
384,71	-1,13
384,964	-2,79
385,218	-2,09
385,472	-2,11
385,726	-3,35
385,98	-4,64
386,234	-4,16
386,488	-7,22
386,742	-6,17
386,996	-9,5
387,249	-6,69
387,503	-4,97
387,757	-3,56
388,011	-3,15
388,265	-3,16
388,518	-2,91
388,772	-1,49
389,026	-0,91
389,28	-1,3
389,533	-3,07
389,787	-0,85
390,041	-1,77
390,295	-1,47
390,548	-1,02
390,802	0,93
391,055	-0,02
391,309	-0,78
391,563	-2,31
391,816	-1,49
392,07	-2,11
392,323	-1,47
392,577	0,49
392,83	2,06
393,084	5,22
393,337	8,04
393,591	8,94
393,844	9,72
394,098	11,05
394,351	14,87
394,604	17,09
394,858	18,15
395,111	17,08
395,364	15,89
395,618	17,89
395,871	17,03
396,124	16,55
396,378	15,51
396,631	14,91
396,884	12,8
397,137	12,59
397,391	13,39
397,644	10,29
397,897	9,78
398,15	10,1
398,403	11,84
398,657	10,41
398,91	9,44
399,163	10,81
399,416	10,36
399,669	9,16
399,922	9,48
400,175	8,08
400,428	7,1
400,681	8,63
400,934	7,03
401,187	7,74
401,44	9,77
401,693	9,77
401,946	8,79
402,199	6,67
402,452	4,87
402,704	2,48
402,957	3,68
403,21	3,82
403,463	2,48
403,716	3,54
403,969	4,15
404,221	4,16
404,474	6,51
404,727	9,4
404,98	12
405,232	12,72
405,485	13,78
405,738	16,32
405,99	15,97
406,243	16,03
406,496	17,29
406,748	18,83
407,001	17,14
407,253	17,31
407,506	17,6
407,759	18,3
408,011	16,82
408,264	17,05
408,516	16,06
408,769	13,92
409,021	13,14
409,274	11,89
409,526	11,7
409,778	10,29
410,031	11,86
410,283	12,35
410,536	17,16
410,788	14,99
411,04	15,08
411,293	15,86
411,545	15,91
411,797	15,1
412,049	14,95
412,302	14,28
412,554	16,22
412,806	13,72
413,058	13,09
413,311	14,49
413,563	13,09
413,815	13,27
414,067	11,38
414,319	11,6
414,571	11,34
414,823	10,26
415,075	10
415,328	11,83
415,58	13,87
415,832	14,08
416,084	14,4
416,336	12,33
416,588	15,94
416,84	13,99
417,091	15,45
417,343	13,82
417,595	16,51
417,847	16,45
418,099	16,91
418,351	15,21
418,603	17,53
418,855	17,38
419,106	18,05
419,358	18,71
419,61	19,62
419,862	20,01
420,114	17,96
420,365	16,46
420,617	16,9
420,869	14,9
421,12	12,43
421,372	12,68
421,624	12,56
421,875	13,14
422,127	9,36
422,379	9,5
422,63	12,06
422,882	10,78
423,133	10,8
423,385	10,4
423,636	11,93
423,888	13,85
424,139	16,4
424,391	14,52
424,642	13,76
424,894	13,23
425,145	12,53
425,396	9,87
425,648	11,74
425,899	10,81
426,151	11,66
426,402	10,96
426,653	12,24
426,905	11,84
427,156	9,68
427,407	8,56
427,658	8,65
427,91	7,99
428,161	7,12
428,412	8,58
428,663	10,26
428,914	11,67
429,166	12,62
429,417	11,81
429,668	11,53
429,919	10,46
430,17	10,29
430,421	10,81
430,672	13,1
430,923	12,42
431,174	12,37
431,425	15,79
431,676	18,21
431,927	19,87
432,178	25,75
432,429	32,49
432,68	36,28
432,931	43,29
433,182	49,05
433,433	48,68
433,683	50,47
433,934	49,48
434,185	48,37
434,436	46,56
434,687	45,85
434,937	47,53
435,188	45,41
435,439	45,69
435,69	47,13
435,94	46,38
436,191	46,21
436,442	45,75
436,692	44,89
436,943	42,63
437,194	42,11
437,444	43,59
437,695	47,65
437,945	47,72
438,196	45,32
438,447	45,22
438,697	45,27
438,948	44,1
439,198	38,08
439,449	31,47
439,699	28,11
439,949	22,43
440,2	16,39
440,45	12,61
440,701	7,35
440,951	2,64
441,201	2,43
441,452	-0,1
441,702	-0,78
441,952	-0,44
442,203	0,97
442,453	-0,45
442,703	0,45
442,953	1,79
443,204	1,69
443,454	-0,21
443,704	0,66
443,954	-2,19
444,204	-0,37
444,455	0,74
444,705	2,2
444,955	2,03
445,205	0,44
445,455	-2,28
445,705	-1,69
445,955	-0,82
446,205	-1,51
446,455	-1,56
446,705	-0,59
446,955	0,06
447,205	0,7
447,455	1,14
447,705	-0,66
447,955	-2,48
448,205	-2,63
448,454	-3,09
448,704	-3
448,954	-5,32
449,204	-5,69
449,454	-5,27
449,704	-6,12
449,953	-7,12
450,203	-4,87
450,453	-6,43
450,703	-4,63
450,952	-4,71
451,202	-4,18
451,452	-5,2
451,701	-1,16
451,951	1,1
452,201	0,65
452,45	-0,99
452,7	0,84
452,949	1,52
453,199	1,37
453,448	2,36
453,698	3,13
453,947	3,29
454,197	2,48
454,446	0,31
454,696	2,88
454,945	2,17
455,195	1,1
455,444	1,77
455,693	6,43
455,943	5,02
456,192	6,38
456,442	6,92
456,691	7,11
456,94	7,6
457,189	6,53
457,439	7,29
457,688	8,67
457,937	7,63
458,186	7,84
458,436	8,24
458,685	8,67
458,934	8,14
459,183	7,94
459,432	8,58
459,681	7,43
459,93	6,45
460,179	6,78
460,429	4,7
460,678	7,01
460,927	10,18
461,176	8,47
461,425	7,73
461,674	8,92
461,923	8,92
462,172	9,69
462,42	8,57
462,669	11,76
462,918	10,56
463,167	10,69
463,416	6,66
463,665	7,51
463,914	7,6
464,162	7,6
464,411	8,9
464,66	10,01
464,909	9,95
465,158	10,98
465,406	11,52
465,655	13,72
465,904	13,92
466,152	14,04
466,401	14,27
466,65	16,34
466,898	15,88
467,147	12,93
467,395	11,92
467,644	13,88
467,893	13,54
468,141	14,31
468,39	11,14
468,638	8,11
468,887	7,56
469,135	8,03
469,384	7,41
469,632	8,56
469,88	9,01
470,129	10,55
470,377	8,03
470,626	11,4
470,874	12,3
471,122	14,87
471,371	13,46
471,619	12,62
471,867	14,65
472,115	14,59
472,364	13,24
472,612	15,01
472,86	13,56
473,108	13,13
473,356	13,19
473,605	14,06
473,853	12,06
474,101	10,34
474,349	8,91
474,597	11,93
474,845	11,72
475,093	11,22
475,341	9,65
475,589	9,5
475,837	10,12
476,085	12,11
476,333	11,5
476,581	13,2
476,829	11,87
477,077	13,07
477,325	12,15
477,573	12,08
477,821	11,12
478,069	11,47
478,317	10,8
478,564	12,39
478,812	10,78
479,06	11,22
479,308	10,17
479,555	9,95
479,803	9,17
480,051	10,89
480,299	10,97
480,546	11,69
480,794	10,61
481,042	10,72
481,289	10,82
481,537	13,46
481,784	14,94
482,032	18,66
482,28	18,38
482,527	18,04
482,775	19,51
483,022	22,76
483,27	26,44
483,517	29,25
483,765	29,4
484,012	31,8
484,259	31,78
484,507	34,92
484,754	36,3
485,002	37,75
485,249	38,9
485,496	40,05
485,744	41,18
485,991	41,46
486,238	40,28
486,486	43,12
486,733	45,08
486,98	48,71
487,227	47,53
487,474	49,31
487,722	52,12
487,969	50,59
488,216	51,08
488,463	51,87
488,71	50,43
488,957	49,77
489,204	47,03
489,451	46,88
489,699	45,6
489,946	43,46
490,193	43,53
490,44	43,46
490,687	41
490,934	38,04
491,18	35,67
491,427	35,93
491,674	35,87
491,921	35,02
492,168	33,17
492,415	29,26
492,662	29,2
492,909	29,64
493,155	29,06
493,402	27,77
493,649	26,24
493,896	25,95
494,142	23,12
494,389	21,24
494,636	18,39
494,883	17,12
495,129	15,68
495,376	11,48
495,623	13,03
495,869	13,74
496,116	14,09
496,362	14,47
496,609	16,62
496,855	20,47
497,102	19,64
497,348	18,9
497,595	18,8
497,841	20,47
498,088	18,02
498,334	18,12
498,581	16,4
498,827	15,56
499,074	15,31
499,32	15,94
499,566	16,84
499,813	16,35
500,059	14,75
500,305	14,97
500,552	13,8
500,798	14,06
501,044	17,19
501,29	16,16
501,537	14,1
501,783	14,19
502,029	17,08
502,275	14,79
502,521	12,93
502,767	13,28
503,013	16,35
503,26	13,07
503,506	9,88
503,752	9,34
503,998	8,57
504,244	7,97
504,49	5,52
504,736	7,93
504,982	6,18
505,228	7,89
505,474	8,33
505,72	8,54
505,966	7,67
506,211	10,53
506,457	10,65
506,703	8,99
506,949	7,55
507,195	7,59
507,441	5,69
507,686	10,1
507,932	10,79
508,178	10,9
508,424	9,02
508,669	6,75
508,915	5,86
509,161	8,19
509,406	9,68
509,652	8,17
509,898	10,9
510,143	12,27
510,389	11,49
510,634	7,82
510,88	11,22
511,125	13,05
511,371	13,91
511,616	14,25
511,862	11,37
512,107	9,33
512,353	8,6
512,598	10,19
512,844	8,1
513,089	5,69
513,335	7,45
513,58	7,99
513,825	7,5
514,071	6,12
514,316	5,65
514,561	6,65
514,806	5,28
515,052	7,52
515,297	4,84
515,542	3,72
515,787	5,28
516,033	5,36
516,278	4,42
516,523	4,84
516,768	3,16
517,013	0,85
517,258	0,78
517,503	-0,88
517,748	-1,69
517,993	-2,36
518,238	-2,44
518,483	-2,22
518,728	-2,02
518,973	-4,14
519,218	-4,64
519,463	-3,08
519,708	-2,62
519,953	-3,21
520,198	-3,9
520,443	-2,76
520,688	-0,84
520,933	-3,02
521,177	-3,35
521,422	-4,03
521,667	-1,34
521,912	-1,06
522,157	-4,4
522,401	-2,08
522,646	-2,53
522,891	-1,51
523,135	-1,01
523,38	-2,23
523,625	-2,83
523,869	-0,97
524,114	-0,25
524,358	-0,19
524,603	-0,3
524,848	-2,11
525,092	-2,09
525,337	0,37
525,581	2,91
525,826	5,31
526,07	4,6
526,315	6,08
526,559	6
526,803	5,33
527,048	7,44
527,292	7,25
527,537	6,19
527,781	6,75
528,025	5,09
528,269	5,89
528,514	6,19
528,758	4,95
529,002	5,21
529,247	7,3
529,491	5,96
529,735	11,22
529,979	10,82
530,223	12,24
530,467	10,56
530,712	9,55
530,956	8,91
531,2	11,24
531,444	10,86
531,688	12,78
531,932	13,24
532,176	14,76
532,42	16,38
532,664	18,73
532,908	17,35
533,152	15,21
533,396	15,28
533,64	15,6
533,884	14,04
534,128	14,84
534,371	18,3
534,615	20,34
534,859	23,45
535,103	25,92
535,347	27,66
535,59	32,59
535,834	33,69
536,078	39,5
536,322	44,87
536,565	51,36
536,809	55,69
537,053	65,41
537,296	72,01
537,54	83,71
537,784	95,4
538,027	111,04
538,271	126,07
538,514	142,18
538,758	156,91
539,001	172,5
539,245	187,34
539,488	202,92
539,732	218,69
539,975	232,92
540,219	247,11
540,462	260,98
540,706	276,42
540,949	288,9
541,192	301,44
541,436	317,94
541,679	335,86
541,922	350,76
542,166	364,37
542,409	381,24
542,652	401,53
542,895	422,65
543,139	439,63
543,382	457,48
543,625	469,72
543,868	481,68
544,111	489,5
544,354	496,08
544,598	498,83
544,841	500,56
545,084	497,15
545,327	491,89
545,57	486,26
545,813	481,13
546,056	471,53
546,299	463,15
546,542	453,07
546,785	445,44
547,028	435,52
547,271	425,38
547,514	415,84
547,756	404,61
547,999	394,9
548,242	383,7
548,485	371,99
548,728	362,47
548,971	347,87
549,213	335,16
549,456	320,28
549,699	304,53
549,942	286,97
550,184	265,5
550,427	244,81
550,67	225,72
550,912	205,69
551,155	191,43
551,398	176,44
551,64	163,09
551,883	150,93
552,125	139,93
552,368	129,86
552,61	120,87
552,853	114,38
553,095	106,67
553,338	97,3
553,58	92,2
553,823	84,07
554,065	80,53
554,308	72,12
554,55	65,45
554,792	59,97
555,035	53,94
555,277	49,09
555,519	45,55
555,762	41
556,004	38,53
556,246	32,31
556,488	31,18
556,731	26,71
556,973	24,99
557,215	22,03
557,457	21,75
557,699	22,7
557,941	18,74
558,183	16,15
558,426	16,45
558,668	11,89
558,91	11,68
559,152	11,03
559,394	10,63
559,636	12,08
559,878	12,85
560,12	11
560,362	11,43
560,604	10,2
560,845	9,46
561,087	6,67
561,329	8,38
561,571	6,22
561,813	7,1
562,055	6,09
562,297	4,71
562,538	4,16
562,78	6,42
563,022	5,38
563,264	7,22
563,505	6,43
563,747	7,25
563,989	5,76
564,23	4,26
564,472	3,24
564,714	4,44
564,955	4,49
565,197	1,66
565,438	2,38
565,68	6,36
565,921	5,11
566,163	6,67
566,404	6,32
566,646	8,17
566,887	8,83
567,129	7,71
567,37	6,26
567,612	8,33
567,853	7,05
568,094	8,15
568,336	7,7
568,577	9,13
568,818	9,01
569,06	7,88
569,301	5,55
569,542	7,26
569,783	9,97
570,025	11,37
570,266	11,29
570,507	11,83
570,748	10,43
570,989	11,44
571,23	13,06
571,472	12,23
571,713	11,83
571,954	12,5
572,195	11,27
572,436	11,82
572,677	14,33
572,918	16,74
573,159	17,71
573,4	19,87
573,641	23,46
573,882	26,96
574,123	28,37
574,364	27,22
574,604	31,45
574,845	33,77
575,086	36,71
575,327	40,91
575,568	45,82
575,809	51,04
576,049	55,36
576,29	57,63
576,531	65,02
576,771	72,1
577,012	77,23
577,253	81,71
577,494	85,01
577,734	88,14
577,975	92,23
578,215	96,65
578,456	99,66
578,697	103,81
578,937	111,17
579,178	116,02
579,418	120,41
579,659	126,04
579,899	129,49
580,14	135,78
580,38	140,17
580,62	144,3
580,861	151,6
581,101	153,65
581,342	157,41
581,582	157,65
581,822	163,02
582,063	165,07
582,303	167,74
582,543	170,11
582,783	172,93
583,024	175,22
583,264	179,58
583,504	180,63
583,744	185,98
583,984	188,81
584,224	192,64
584,465	196,3
584,705	198,91
584,945	202,27
585,185	204,85
585,425	208,22
585,665	208,55
585,905	209,39
586,145	210,19
586,385	209,2
586,625	210,48
586,865	209,5
587,105	207,86
587,345	206,63
587,585	202,95
587,824	201,59
588,064	197,85
588,304	192,21
588,544	191,15
588,784	187,38
589,024	189,32
589,263	189,71
589,503	190,44
589,743	195,12
589,982	196,65
590,222	198,41
590,462	196,84
590,701	195,29
590,941	196,08
591,181	192,8
591,42	187,54
591,66	185,65
591,899	183,17
592,139	178,34
592,378	176,25
592,618	171,27
592,857	167,68
593,097	167,04
593,336	164,89
593,576	162,43
593,815	160,49
594,055	158,95
594,294	157,78
594,533	156,42
594,773	155,5
595,012	156,53
595,251	155,71
595,491	158,81
595,73	161,52
595,969	162,65
596,208	163,46
596,447	166,1
596,687	164,58
596,926	162,58
597,165	156,28
597,404	153,99
597,643	148,31
597,882	144,61
598,121	140,93
598,36	138,3
598,599	136,4
598,838	134,86
599,077	129,35
599,316	128,02
599,555	125,39
599,794	123,34
600,033	124,6
600,272	122,59
600,511	119,2
600,75	119,58
600,989	119,76
601,228	118,15
601,466	116,88
601,705	117
601,944	116,66
602,183	117,71
602,422	116,74
602,66	114,34
602,899	110,93
603,138	107,79
603,376	104,62
603,615	102,72
603,854	98,34
604,092	97,39
604,331	97,58
604,569	98,08
604,808	96,9
605,047	100,18
605,285	102,37
605,524	104,47
605,762	107,39
606	114,07
606,239	122,37
606,477	133,49
606,716	143,42
606,954	166,04
607,193	194,99
607,431	235,93
607,669	288,16
607,908	348,56
608,146	414,5
608,384	479,17
608,622	543,28
608,861	600,11
609,099	650,36
609,337	696,83
609,575	736,47
609,813	773,59
610,052	807,44
610,29	833,39
610,528	858,49
610,766	881,64
611,004	903,66
611,242	922,57
611,48	939,45
611,718	952,47
611,956	967,01
612,194	978,48
612,432	986,8
612,67	993,93
612,908	1001,62
613,146	1005,47
613,384	1006,32
613,621	1003,19
613,859	999,51
614,097	990,65
614,335	972,03
614,573	946,21
614,811	907,59
615,048	858,53
615,286	802,68
615,524	740,81
615,761	676,66
615,999	616,83
616,237	562,71
616,474	515,51
616,712	472,34
616,95	433,09
617,187	397,63
617,425	367,58
617,662	343,39
617,9	319,41
618,137	297,48
618,375	277,38
618,612	259,78
618,85	245,75
619,087	234,35
619,325	222,06
619,562	210,17
619,799	200,6
620,037	192,33
620,274	185,39
620,511	181,07
620,749	174,33
620,986	171,02
621,223	167,22
621,461	167,14
621,698	168,93
621,935	167,39
622,172	165,99
622,409	168,27
622,647	169,2
622,884	168,06
623,121	170,51
623,358	170,49
623,595	172,45
623,832	173,85
624,069	173,4
624,306	174,07
624,543	175,66
624,78	176,55
625,017	174,88
625,254	177,04
625,491	177,72
625,728	178,49
625,965	177,08
626,202	175,75
626,438	174,53
626,675	173,25
626,912	176,94
627,149	179,16
627,386	181,93
627,622	182,54
627,859	184,96
628,096	188,1
628,333	191,25
628,569	192,04
628,806	192,93
629,043	192,06
629,279	192,33
629,516	191,94
629,752	187,27
629,989	183,5
630,225	179,71
630,462	176
630,699	171,31
630,935	165,67
631,171	158,63
631,408	154,3
631,644	149,43
631,881	142,53
632,117	136,25
632,354	133,85
632,59	129,22
632,826	125,71
633,063	121,27
633,299	118,01
633,535	112,53
633,771	107,5
634,008	105,09
634,244	98,8
634,48	91,83
634,716	85,81
634,953	78,82
635,189	71,03
635,425	65,43
635,661	59,62
635,897	53,53
636,133	48,18
636,369	42,57
636,605	36,51
636,841	33,04
637,077	31,01
637,313	28,79
637,549	28,07
637,785	25,76
638,021	25,2
638,257	24,23
638,493	25,04
638,729	24,11
638,965	26,23
639,2	27,56
639,436	26,64
639,672	26,8
639,908	25,04
640,144	27,76
640,379	29,81
640,615	27,71
640,851	29,33
641,086	30,54
641,322	28,48
641,558	27,16
641,793	28,43
642,029	27,47
642,264	26,09
642,5	26,9
642,736	24,14
642,971	24,41
643,207	23,83
643,442	22,34
643,678	22,23
643,913	22,63
644,148	22,57
644,384	24,03
644,619	24,86
644,855	25,36
645,09	25,97
645,325	26,05
645,561	26,2
645,796	25,9
646,031	29,26
646,266	27,59
646,502	27,33
646,737	31,38
646,972	32,03
647,207	33,82
647,442	32,98
647,678	32,27
647,913	36,74
648,148	39,16
648,383	37,98
648,618	38,32
648,853	41,44
649,088	42,72
649,323	45,18
649,558	48,5
649,793	49,22
650,028	50,6
650,263	47,97
650,498	49,34
650,733	48,85
650,968	48,53
651,202	51,04
651,437	50,42
651,672	47,81
651,907	46,78
652,142	47,79
652,376	47,58
652,611	48,79
652,846	49,96
653,081	49,35
653,315	47,37
653,55	46,93
653,785	44,95
654,019	43,68
654,254	40,42
654,488	39,72
654,723	35,66
654,958	31,73
655,192	28,83
655,427	24,65
655,661	25,2
655,896	26,78
656,13	26,02
656,364	22,84
656,599	19,78
656,833	20,88
657,068	22,34
657,302	21,07
657,536	19,66
657,771	20,38
658,005	20,25
658,239	20,72
658,474	18,01
658,708	18,21
658,942	18,7
659,176	17,42
659,41	14,51
659,645	15,74
659,879	16,25
660,113	13,71
660,347	13,57
660,581	11,66
660,815	12,23
661,049	11,81
661,283	10,05
661,517	9,42
661,751	8,03
661,985	7,39
662,219	9,27
662,453	8,43
662,687	9,66
662,921	8,58
663,155	6,88
663,389	1,8
663,622	1,1
663,856	3,07
664,09	0,41
664,324	-1,43
664,558	-0,56
664,791	-0,42
665,025	-2,08
665,259	-0,11
665,492	-1,36
665,726	1,47
665,96	0,78
666,193	-1,59
666,427	-0,44
666,661	-1,16
666,894	-3,08
667,128	-5,29
667,361	-2,6
667,595	-2,68
667,828	-1,34
668,062	-1,9
668,295	0,25
668,529	0,79
668,762	2,45
668,995	1,11
669,229	3,29
669,462	3,09
669,695	3,58
669,929	1,67
670,162	0,96
670,395	1,65
670,629	3,92
670,862	5,19
671,095	2,82
671,328	2,51
671,561	-0,32
671,795	0,41
672,028	0,83
672,261	1,66
672,494	2,18
672,727	1,37
672,96	1,61
673,193	1,31
673,426	5,91
673,659	6,19
673,892	6,99
674,125	6,62
674,358	6
674,591	4,01
674,824	3,09
675,057	1,16
675,29	-0,11
675,523	-0,47
675,755	-2,46
675,988	-2,79
676,221	0,94
676,454	0,5
676,687	2,09
676,919	2,29
677,152	2,85
677,385	2,59
677,617	2,51
677,85	2,71
678,083	1,37
678,315	3,02
678,548	1,7
678,78	0,89
679,013	1,06
679,246	1,73
679,478	1,93
679,711	-0,4
679,943	2,6
680,175	-0,57
680,408	3,68
680,64	0,8
680,873	1,04
681,105	1
681,338	2,97
681,57	2,23
681,802	5,23
682,034	4,15
682,267	7,2
682,499	9,23
682,731	7,56
682,964	7,87
683,196	7,41
683,428	6,43
683,66	6
683,892	7,34
684,124	8,67
684,356	11,53
684,589	13,89
684,821	12,38
685,053	13,06
685,285	15,01
685,517	16,41
685,749	18,4
685,981	20,5
686,213	20,8
686,445	21,63
686,676	20,36
686,908	21,83
687,14	19,77
687,372	21,55
687,604	18,43
687,836	18,96
688,068	19,19
688,299	19,17
688,531	18,26
688,763	22,29
688,995	18,73
689,226	21,65
689,458	19,33
689,69	17,16
689,921	17,15
690,153	17,34
690,384	18,22
690,616	16,74
690,848	18,89
691,079	17,29
691,311	15,56
691,542	13,94
691,774	10,09
692,005	11,95
692,237	13,84
692,468	12
692,699	10,75
692,931	9,68
693,162	8,32
693,393	7,01
693,625	6,78
693,856	6,78
694,087	6,02
694,319	5,81
694,55	4,59
694,781	3,85
695,012	2,69
695,243	0,9
695,475	0,61
695,706	0,02
695,937	-1,01
696,168	-0,82
696,399	-2,13
696,63	-2,85
696,861	-2,57
697,092	1,3
697,323	4,31
697,554	4,44
697,785	4,02
698,016	2,69
698,247	-0,31
698,478	0,57
698,709	0,63
698,94	3,64
699,171	3,56
699,401	1,35
699,632	3,43
699,863	0,7
700,094	1,28
700,325	3,32
700,555	3,56
700,786	4,84
701,017	5,03
701,247	4,88
701,478	7,33
701,709	8,55
701,939	8,04
702,17	11,75
702,401	15,16
702,631	16,99
702,862	18,04
703,092	16,77
703,323	20,52
703,553	23,18
703,784	27,19
704,014	29,4
704,244	28,17
704,475	28,12
704,705	30,29
704,936	33,47
705,166	35,27
705,396	39,3
705,627	41,64
705,857	45,25
706,087	47,1
706,317	47,53
706,548	47,02
706,778	47,14
707,008	50,51
707,238	51,71
707,468	50,32
707,698	51,42
707,928	50,32
708,158	51,73
708,389	52,63
708,619	52,31
708,849	53,12
709,079	55,63
709,309	54,47
709,539	54,05
709,768	54,81
709,998	56,92
710,228	56,95
710,458	55,86
710,688	52,65
710,918	50,77
711,148	49
711,378	47,63
711,607	45,57
711,837	43,58
712,067	42,11
712,297	40,26
712,526	38,66
712,756	36,18
712,986	29,79
713,215	26,37
713,445	24,22
713,674	23,64
713,904	21,83
714,134	21,77
714,363	19,83
714,593	18,52
714,822	16,15
715,052	16,08
715,281	14,5
715,511	11,7
715,74	9,87
715,969	6,04
716,199	3,92
716,428	2,26
716,657	-0,44
716,887	-0,27
717,116	-4,58
717,345	-4
717,575	-6,01
717,804	-5,07
718,033	-6,27
718,262	-6,75
718,492	-6,15
718,721	-5,65
718,95	-5,67
719,179	-7,81
719,408	-8,07
719,637	-10,72
719,866	-12,71
720,095	-10,77
720,324	-11,51
720,553	-14,57
720,782	-15,81
721,011	-15,98
721,24	-17,09
721,469	-18,44
721,698	-18,45
721,927	-18,11
722,156	-20,01
722,385	-19,75
722,613	-16,59
722,842	-15,28
723,071	-10,56
723,3	-8,82
723,529	-8,73
723,757	-9,02
723,986	-12,46
724,215	-11,96
724,443	-10,96
724,672	-8,94
724,901	-9,82
725,129	-9,58
725,358	-7,79
725,586	-11,27
725,815	-14,49
726,043	-16,15
726,272	-17,26
726,5	-17,61
726,729	-16,89
726,957	-17,23
727,186	-18,57
727,414	-17,01
727,642	-15,21
727,871	-13,06
728,099	-12,81
728,327	-13,8
728,556	-10,34
728,784	-8,79
729,012	-9,89
729,241	-7,7
729,469	-8,12
729,697	-10,47
729,925	-11,48
730,153	-13,45
730,381	-15,94
730,61	-16,49
730,838	-17,05
731,066	-15,02
731,294	-13,96
731,522	-16,98
731,75	-19,91
731,978	-18,6
732,206	-19,61
732,434	-21,13
732,662	-18,06
732,89	-16,81
733,118	-16,99
733,346	-16,13
733,573	-15,68
733,801	-14,08
734,029	-10,06
734,257	-9,09
734,485	-7,26
734,712	-5,43
734,94	-6,27
735,168	-4,77
735,396	-4,16
735,623	-6,42
735,851	-6,23
736,078	-5,7
736,306	-5,48
736,534	-6,39
736,761	-5,17
736,989	-6,23
737,216	-7,01
737,444	-6,68
737,671	-5,27
737,899	-1,61
738,126	-3,29
738,354	-4,72
738,581	-3,35
738,809	-2,55
739,036	-4,74
739,263	-3,72
739,491	-5,11
739,718	-6,75
739,945	-3,64
740,173	-1,25
740,4	-2,45
740,627	-2,94
740,854	-3,21
741,081	-4,96
741,309	-6,58
741,536	-10,21
741,763	-11,69
741,99	-11,27
742,217	-11,04
742,444	-12,2
742,671	-12,06
742,898	-11,47
743,125	-12,95
743,352	-14,99
743,579	-14,4
743,806	-14,14
744,033	-11,9
744,26	-10,41
744,487	-11,61
744,714	-12,5
744,941	-13,12
745,167	-9,77
745,394	-9,62
745,621	-9,94
745,848	-9,16
746,075	-7,41
746,301	-4,67
746,528	-1,74
746,755	-1,67
746,981	-1,6
747,208	-0,88
747,435	2,27
747,661	2,22
747,888	2,8
748,114	1,44
748,341	2,52
748,567	4,62
748,794	4,17
749,02	3,85
749,247	1,83
749,473	1,57
749,7	2,7
749,926	2,52
750,152	6,21
750,379	5,95
750,605	6,75
750,831	5,7
751,058	3,95
751,284	1,28
751,51	2,89
751,737	4,33
751,963	3,11
752,189	1,15
752,415	0,36
752,641	-0,64
752,867	-1,04
753,094	-1,96
753,32	-3,22
753,546	-4,54
753,772	-4,34
753,998	-6,57
754,224	-7,1
754,45	-8,02
754,676	-8,56
754,902	-9,16
755,128	-8,45
755,354	-7,87
755,579	-7,7
755,805	-6,81
756,031	-7,56
756,257	-7,94
756,483	-8,47
756,709	-10,92
756,934	-10,83
757,16	-12,13
757,386	-10,34
757,612	-12,28
757,837	-13,39
758,063	-11,29
758,289	-7,56
758,514	-7,88
758,74	-9,98
758,965	-12,25
759,191	-10,57
759,416	-8,96
759,642	-6,95
759,868	-7,47
760,093	-6,16
760,318	-6,06
760,544	-5,04
760,769	-4,57
760,995	-3,95
761,22	-4,7
761,445	-3,41
761,671	-1,06
761,896	-0,32
762,121	-0,39
762,347	-0,03
762,572	-1,27
762,797	-1,62
763,022	-2,47
763,248	1,05
763,473	2,09
763,698	2,61
763,923	1,94
764,148	1,62
764,373	0,5
764,598	1,8
764,823	3,25
765,048	2,27
765,273	-1,24
765,498	-1,96
765,723	-2,03
765,948	-0,48
766,173	-2,13
766,398	-2,2
766,623	-4,87
766,848	-5
767,073	-7,96
767,298	-9,45
767,522	-9,67
767,747	-9,54
767,972	-9,46
768,197	-9,63
768,421	-10,73
768,646	-13,84
768,871	-16,56
769,095	-16,02
769,32	-15,17
769,545	-16,21
769,769	-14,19
769,994	-11,52
770,218	-14,48
770,443	-13,46
770,667	-12,97
770,892	-12,51
771,116	-12,92
771,341	-11,85
771,565	-12,56
771,79	-12,24
772,014	-13,35
772,238	-12,82
772,463	-10,54
772,687	-10,41
772,911	-11,51
773,136	-13,1
773,36	-12,3
773,584	-10,13
773,808	-11,77
774,033	-10,22
774,257	-9,79
774,481	-11,63
774,705	-12,19
774,929	-13,02
775,153	-13,39
775,377	-13,07
775,602	-13,02
775,826	-9,78
776,05	-9,13
776,274	-11,24
776,498	-11,49
776,722	-13,36
776,945	-13,63
777,169	-12,1
777,393	-13,2
777,617	-13,64
777,841	-13,88
778,065	-13,49
778,289	-14,68
778,512	-15,19
778,736	-15,97
778,96	-17,23
779,184	-16,59
779,407	-18,12
779,631	-16,21
779,855	-16,35
780,078	-15,42
780,302	-17,38
780,526	-19,08
780,749	-17,85
780,973	-17,24
781,196	-16,88
781,42	-17,53
781,643	-17,05
781,867	-16,08
782,09	-17,16
782,314	-16,39
782,537	-16,26
782,76	-17,94
782,984	-16,95
783,207	-16,46
783,431	-14,42
783,654	-13,75
783,877	-15,07
784,1	-17,2
784,324	-17,57
784,547	-17,68
784,77	-19,93
784,993	-20,93
785,216	-21,25
785,44	-20,29
785,663	-19,39
785,886	-17,06
786,109	-17,12
786,332	-16,59
786,555	-16,65
786,778	-15,46
787,001	-14,93
787,224	-12,66
787,447	-12,52
787,67	-12,51
787,893	-12,38
788,116	-14,16
788,339	-12,78
788,561	-12,92
788,784	-15,63
789,007	-16,95
789,23	-19,61
789,453	-19,79
789,675	-21,36
789,898	-23,03
790,121	-23,49
790,344	-24,38
790,566	-25,24
790,789	-25,18
791,012	-24,01
791,234	-21,31
791,457	-18,63
791,679	-17,8
791,902	-17,62
792,124	-17,37
792,347	-17,88
792,569	-19,15
792,792	-21,41
793,014	-18,93
793,237	-17,25
793,459	-17,44
793,681	-17,27
793,904	-17,58
794,126	-18,97
794,348	-17,14
794,571	-15,92
794,793	-17,18
795,015	-15,29
795,237	-16,17
795,46	-16,42
795,682	-15,61
795,904	-13,04
796,126	-13,41
796,348	-13,73
796,57	-10,15
796,792	-8,74
797,014	-6,62
797,237	-4,72
797,459	-3
797,681	-2,28
797,903	-4,09
798,124	-4,37
798,346	3,26
798,568	4,87
798,79	8,38
799,012	9,17
799,234	10,15
799,456	11,13
799,678	12,51
799,899	10,12
800,121	6,26
800,343	5,55
800,565	5,49
800,786	6,21
801,008	6,65
801,23	4,75
801,451	5,73
801,673	5,21
801,895	4,84
802,116	6,99
802,338	7,68
802,559	8,48
802,781	8,03
803,002	9,49
803,224	11,4
803,445	9,39
803,667	8,9
803,888	7,05
804,109	5,55
804,331	5,23
804,552	5,66
804,773	7,09
804,995	4,86
805,216	-5,09
805,437	-7,82
805,658	-9,45
805,88	-10,61
806,101	-10,73
806,322	-10,08
806,543	-10,43
806,764	-11,98
806,985	-9,29
807,207	-9,69
807,428	-8,99
807,649	-11,07
807,87	-10,82
808,091	-9,31
808,312	-8,83
808,533	-4,64
808,754	-3,08
808,975	-4,07
809,195	-2,09
809,416	-1,47
809,637	-3,56
809,858	-3,95
810,079	-4,96
810,3	-4,17
810,52	-5,65
810,741	-5,82
810,962	-6,53
811,183	-6,94
811,403	-6,91
811,624	-7,45
811,845	-6,24
812,065	-5,31
812,286	-3,81
812,506	-5
812,727	-5,03
812,948	-3,94
813,168	-3,78
813,389	-4,46
813,609	-3,2
813,83	-4,7
814,05	-5,71
814,27	-6,58
814,491	-3,55
814,711	-4,88
814,931	-6,85
815,152	-8,11
815,372	-10,1
815,592	-11,75
815,813	-12,35
816,033	-14,58
816,253	-13,9
816,473	-13,3
816,694	-13,02
816,914	-12,19
817,134	-11,32
817,354	-11,77
817,574	-11,42
817,794	-10,87
818,014	-12,24
818,234	-13,18
818,454	-12,77
818,674	-14,07
818,894	-16,41
819,114	-14,91
819,334	-13,88
819,554	-10,88
819,774	-10,17
819,994	-11,9
820,214	-12,51
820,433	-13,48
820,653	-13,05
820,873	-10,94
821,093	-10,37
821,312	-11,59
821,532	-10,12
821,752	-8
821,972	-9,34
822,191	-7,81
822,411	-7,86
822,63	-8,24
822,85	-7,67
823,07	-9,11
823,289	-7,5
823,509	-8,65
823,728	-7,68
823,948	-10,34
824,167	-10,86
824,387	-11,76
824,606	-11,96
824,825	-11,67
825,045	-10,94
825,264	-12,28
825,483	-11,23
825,703	-8,48
825,922	-10,83
826,141	-13,3
826,361	-14,9
826,58	-18,19
826,799	-19,23
827,018	-17,79
827,237	-17,01
827,456	-16,47
827,676	-17,03
827,895	-17,15
828,114	-16,52
828,333	-17,55
828,552	-18,87
828,771	-17,12
828,99	-19,86
829,209	-19,52
829,428	-17,59
829,647	-18,45
829,866	-19
830,084	-19,85
830,303	-18,96
830,522	-19,48
830,741	-18,29
830,96	-17,1
831,179	-15,92
831,397	-16,07
831,616	-16,07
831,835	-16,82
832,053	-15,53
832,272	-15,8
832,491	-16,2
832,709	-15,53
832,928	-13,98
833,147	-13,18
833,365	-9,98
833,584	-7,19
833,802	-5,07
834,021	-4,8
834,239	-3,64
834,458	-4,34
834,676	-5,53
834,894	-7,38
835,113	-6,94
835,331	-7,97
835,55	-8,76
835,768	-7,52
835,986	-6,61
836,204	-8,29
836,423	-7,39
836,641	-8,25
836,859	-8,38
837,077	-8,67
837,296	-9,36
837,514	-10,84
837,732	-11,04
837,95	-12,39
838,168	-10,12
838,386	-10,87
838,604	-9,03
838,822	-8,2
839,04	-7,9
839,258	-7,12
839,476	-5,93
839,694	-5,58
839,912	-8,27
840,13	-8,31
840,348	-7,38
840,566	-9,02
840,783	-7,54
841,001	-8,79
841,219	-7,96
841,437	-6,56
841,655	-4,62
841,872	-5,47
842,09	-4,51
842,308	-4,49
842,525	-5,02
842,743	-5,44
842,961	-6,88
843,178	-8,75
843,396	-4,61
843,613	-5,35
843,831	-3,24
844,048	-2,6
844,266	-1,3
844,483	-1,6
844,701	-1,42
844,918	-2,54
845,136	-2,01
845,353	-3,91
845,57	-3,92
845,788	-2,16
846,005	-3,63
846,222	-5,02
846,439	-3,63
846,657	-2,86
846,874	-4,27
847,091	-5,39
847,308	-5,41
847,526	-6,64
847,743	-6,79
847,96	-8,2
848,177	-8,68
848,394	-9,46
848,611	-9,7
848,828	-9,44
849,045	-10,57
849,262	-10,36
849,479	-10,28
849,696	-9,62
849,913	-10,71
850,13	-14,58
850,347	-11,66
850,564	-12,58
850,78	-14,54
850,997	-16,63
851,214	-16,3
851,431	-16,73
851,647	-19,1
851,864	-18,83
852,081	-17,75
852,298	-20,16
852,514	-21,46
852,731	-21,5
852,948	-19,21
853,164	-19,99
853,381	-19,75
853,597	-21,04
853,814	-22,52
854,03	-25,03
854,247	-23,38
854,463	-23,74
854,68	-23,42
854,896	-22,91
855,113	-22,66
855,329	-21,45
855,545	-20,54
855,762	-19,95
855,978	-22,4
856,194	-24,64
856,411	-22,08
856,627	-18,45
856,843	-18,22
857,059	-17,15
857,275	-18,86
857,492	-18,13
857,708	-14,53
857,924	-14,37
858,14	-11,9
858,356	-12,43
858,572	-11,55
858,788	-12,08
859,004	-10,27
859,22	-11,23
859,436	-10,2
859,652	-11,55
859,868	-12,81
860,084	-13,13
860,3	-12,39
860,516	-13,46
860,731	-11,91
860,947	-15,01
861,163	-13,47
861,379	-12,96
861,595	-12,12
861,81	-12,07
862,026	-12,02
862,242	-10,66
862,457	-11,38
862,673	-8,99
862,889	-8,23
863,104	-9,98
863,32	-10,75
863,535	-9,1
863,751	-12,06
863,966	-9,78
864,182	-7,97
864,397	-9,52
864,613	-9,78
864,828	-11,44
865,044	-9,18
865,259	-7,96
865,474	-8,04
865,69	-6,72
865,905	-6,53
866,12	-8,05
866,336	-9,72
866,551	-8,11
866,766	-9,48
866,981	-10,45
867,196	-8,41
867,412	-7,99
867,627	-6,69
867,842	-7,57
868,057	-7,74
868,272	-8,75
868,487	-9,36
868,702	-11,03
868,917	-13,7
869,132	-11,66
869,347	-11,18
869,562	-11,85
869,777	-10,78
869,992	-12,42
870,207	-12,89
870,422	-13,92
870,636	-14,71
870,851	-16,69
871,066	-18,58
871,281	-19,52
871,495	-19,69
871,71	-17,95
871,925	-20,59
872,14	-20,59
872,354	-23,06
872,569	-23,58
872,783	-21,91
872,998	-20,58
873,213	-20,6
873,427	-17,79
873,642	-16,24
873,856	-17,42
874,071	-18,11
874,285	-19,3
874,5	-20,28
874,714	-21,45
874,928	-21,91
875,143	-22,2
875,357	-22,13
875,571	-22,05
875,786	-22,29
876	-20,07
876,214	-18,28
876,429	-19,83
876,643	-19,49
876,857	-19
877,071	-17,93
877,285	-18,75
877,499	-20,04
877,714	-17,52
877,928	-14,99
878,142	-16,57
878,356	-18,75
878,57	-18,19
878,784	-18,33
878,998	-19,15
879,212	-17,74
879,426	-19,61
879,639	-18,84
879,853	-20,42
880,067	-20,6
880,281	-22,45
880,495	-20,51
880,709	-18,63
880,922	-18,53
881,136	-16,8
881,35	-15,04
881,564	-16,05
881,777	-17
881,991	-16,58
882,205	-14,33
882,418	-15,23
882,632	-18,35
882,845	-19,59
883,059	-19,5
883,273	-19,32
883,486	-20,71
883,7	-19,34
883,913	-20,17
884,126	-19,25
884,34	-20,99
884,553	-23,85
884,767	-20,59
884,98	-19,98
885,193	-20,82
885,407	-21,1
885,62	-18,64
885,833	-17,93
886,046	-16,54
886,26	-17,21
886,473	-17,45
886,686	-17,63
886,899	-16,37
887,112	-18,29
887,326	-21,05
887,539	-19,14
887,752	-19,21
887,965	-21,01
888,178	-19,12
888,391	-18,24
888,604	-17,67
888,817	-19,34
889,03	-17,29
889,243	-17,51
889,455	-17,97
889,668	-16,23
889,881	-14
890,094	-14,25
890,307	-15,46
890,52	-14,87
890,732	-13,96
890,945	-14,28
891,158	-13,65
891,37	-15,63
891,583	-15,09
891,796	-14,22
892,008	-14,62
892,221	-16,47
892,434	-19,7
892,646	-20,3
892,859	-20,87
893,071	-19,32
893,284	-18,05
893,496	-18,67
893,709	-18,24
893,921	-15,96
894,133	-16,99
894,346	-17,29
894,558	-15,89
894,771	-16,2
894,983	-14,33
895,195	-14,5
895,407	-13,58
895,62	-16,48
895,832	-15,14
896,044	-13,09
896,256	-15,99
896,468	-17,29
896,681	-14,84
896,893	-14,26
897,105	-12,76
897,317	-12,88
897,529	-11,13
897,741	-10,71
897,953	-8,37
898,165	-9,15
898,377	-8,98
898,589	-8,16
898,801	-8,12
899,013	-5,96
899,224	-4,26
899,436	-2,92
899,648	-4,55
899,86	-5,65
900,072	-3,82
900,283	-2,49
900,495	-2,48
900,707	-2,45
900,919	-4,68
901,13	-4,6
901,342	-6,94
901,554	-8,07
901,765	-7,62
901,977	-10,04
902,188	-9,59
902,4	-11,6
902,611	-13,32
902,823	-13,87
903,034	-16,33
903,246	-18,76
903,457	-18,75
903,669	-20,34
903,88	-21,29
904,091	-22,13
904,303	-20,96
904,514	-22,58
904,725	-22,35
904,936	-22,11
905,148	-22,27
905,359	-20,7
905,57	-21,49
905,781	-22,58
905,992	-23,46
906,204	-22,25
906,415	-23,12
906,626	-23,22
906,837	-22,97
907,048	-23,43
907,259	-23,61
907,47	-24,51
907,681	-25,26
907,892	-22,1
908,103	-22,84
908,314	-24,85
908,525	-22,1
908,735	-21,34
908,946	-21,88
909,157	-22,36
909,368	-19,31
909,579	-16,8
909,789	-18,37
910	-20,42
910,211	-19,48
910,421	-20,04
910,632	-18,58
910,843	-20,93
911,053	-18,7
911,264	-16,56
911,475	-16,48
911,685	-17,33
911,896	-17,29
912,106	-15,57
912,317	-16,62
912,527	-14,84
912,737	-15,89
912,948	-15,55
913,158	-15,82
913,369	-16,95
913,579	-15,47
913,789	-14,7
914	-12,18
914,21	-11,49
914,42	-12,21
914,63	-12,61
914,841	-10,04
915,051	-10,08
915,261	-10,91
915,471	-8,45
915,681	-7,96
915,891	-8,46
916,101	-10,22
916,311	-9,66
916,521	-7,87
916,731	-7,65
916,941	-4,41
917,151	-6,42
917,361	-5,46
917,571	-8,04
917,781	-9,5
917,991	-12,23
918,201	-11,42
918,411	-13,37
918,621	-14,8
918,83	-14,74
919,04	-16,09
919,25	-13,52
919,46	-11,91
919,669	-14,73
919,879	-15,6
920,089	-16,54
920,298	-17,37
920,508	-16,2
920,717	-15,7
920,927	-16,93
921,136	-15,64
921,346	-17,33
921,555	-19,58
921,765	-18,9
921,974	-20,51
922,184	-22,6
922,393	-23,56
922,603	-22,82
922,812	-20,9
923,021	-21,64
923,23	-22,34
923,44	-25,43
923,649	-24,37
923,858	-23,79
924,067	-24,06
924,277	-26,52
924,486	-24,01
924,695	-24,73
924,904	-23,58
925,113	-22,92
925,322	-22,72
925,531	-23,23
925,74	-25,02
925,949	-26,16
926,158	-24,38
926,367	-22,39
926,576	-21,65
926,785	-21,79
926,994	-23,61
927,203	-24,26
927,412	-24,11
927,621	-25,71
927,83	-23,68
928,038	-23,22
928,247	-24,3
928,456	-24,33
928,665	-22,03
928,873	-19,42
929,082	-18,63
929,291	-17,55
929,499	-16,42
929,708	-18,78
929,916	-18,37
930,125	-20,74
930,333	-20,85
930,542	-19,83
930,75	-16,06
930,959	-15,4
931,167	-14,5
931,376	-15,38
931,584	-14,19
931,793	-12,58
932,001	-11,67
932,209	-12,41
932,418	-14,62
932,626	-15,55
932,834	-17,78
933,042	-21,57
933,251	-21,81
933,459	-21,56
933,667	-21,21
933,875	-20,01
934,083	-18,41
934,291	-18,82
934,499	-18,27
934,707	-17,5
934,915	-18,05
935,123	-16,97
935,331	-18,02
935,539	-20,02
935,747	-21,29
935,955	-21,59
936,163	-19,52
936,371	-18,88
936,579	-16,25
936,787	-17,18
936,995	-18,62
937,202	-21,99
937,41	-22,67
937,618	-22,75
937,826	-22,06
938,033	-26,96
938,241	-28,83
938,449	-27,99
938,656	-26,5
938,864	-25,27
939,071	-25,21
939,279	-22,8
939,486	-19,81
939,694	-19,95
939,901	-21,07
940,109	-21,21
940,316	-21,1
940,524	-22,66
940,731	-23,43
940,939	-22,53
941,146	-22,86
941,353	-22,35
941,561	-24,32
941,768	-25,47
941,975	-24,09
942,182	-24,55
942,39	-23,52
942,597	-21,74
942,804	-21,98
943,011	-22,11
943,218	-21,01
943,425	-19,79
943,632	-18,19
943,839	-19,21
944,046	-19,82
944,253	-18,64
944,46	-16,49
944,667	-13,15
944,874	-13,59
945,081	-12,45
945,288	-10,78
945,495	-9,07
945,702	-9,31
945,909	-11,08
946,115	-10,03
946,322	-9,45
946,529	-9,76
946,736	-10,35
946,942	-8,96
947,149	-9,53
947,356	-9,82
947,562	-10,8
947,769	-11,42
947,976	-10,61
948,182	-10
948,389	-11,04
948,595	-10,82
948,802	-11,84
949,008	-12
949,215	-10,56
949,421	-11,18
949,628	-11,92
949,834	-11,95
950,04	-13,79
950,247	-10,64
950,453	-10,4
950,659	-12,12
950,865	-10,45
951,072	-14,39
951,278	-13,29
951,484	-14,83
951,69	-18,45
951,896	-18,89
952,103	-20,16
952,309	-19,61
952,515	-19,76
952,721	-18,46
952,927	-18,33
953,133	-19,88
953,339	-20,79
953,545	-20,99
953,751	-20,59
953,957	-18,43
954,163	-18,46
954,369	-17,4
954,574	-19,42
954,78	-18,69
954,986	-17,1
955,192	-15,56
955,398	-17,01
955,603	-18,79
955,809	-17,1
956,015	-16,17
956,22	-15,47
956,426	-12,87
956,632	-16,17
956,837	-15,59
957,043	-15,38
957,248	-15,73
957,454	-14,77
957,66	-15,9
957,865	-15,85
958,07	-13,71
958,276	-15,19
958,481	-16,15
958,687	-16,23
958,892	-16,03
959,097	-16,41
959,303	-16,5
959,508	-15,71
959,713	-15,27
959,919	-14,6
960,124	-15,77
960,329	-15,98
960,534	-14,51
960,739	-14,84
960,945	-11,89
961,15	-13,11
961,355	-15,64
961,56	-19,26
961,765	-20,52
961,97	-19,69
962,175	-19,38
962,38	-21,89
962,585	-20,91
962,79	-23,08
962,995	-23,17
963,2	-24,37
963,404	-22,95
963,609	-24,89
963,814	-25,35
964,019	-27,09
964,224	-27,74
964,428	-25,51
964,633	-23,75
964,838	-22,46
965,042	-22,82
965,247	-24,99
965,452	-25,15
965,656	-24,38
965,861	-24,27
966,066	-25,33
966,27	-24,07
966,475	-20,96
966,679	-23,72
966,884	-22,53
967,088	-23,95
967,292	-26,09
967,497	-24,07
967,701	-24,73
967,906	-23,01
968,11	-21,07
968,314	-20,11
968,518	-20,91
968,723	-19,51
968,927	-19,85
969,131	-18,44
969,335	-16,64
969,539	-16,62
969,744	-16,02
969,948	-13,12
970,152	-12,11
970,356	-11,74
970,56	-12,29
970,764	-14,5
970,968	-12,94
971,172	-11,68
971,376	-9,89
971,58	-7,86
971,784	-8,46
971,988	-9,19
972,192	-8,05
972,395	-7,36
972,599	-9,93
972,803	-11,91
973,007	-8,84
973,21	-10,28
973,414	-11,04
973,618	-11,38
973,822	-12,04
974,025	-10,64
974,229	-11,27
974,432	-12,8
974,636	-13,79
974,84	-13,13
975,043	-12,85
975,247	-14,73
975,45	-16,21
975,654	-14,85
975,857	-13,78
976,06	-14,57
976,264	-15,31
976,467	-14,8
976,671	-13,93
976,874	-12,51
977,077	-12,49
977,28	-11,9
977,484	-14,43
977,687	-16,22
977,89	-14,79
978,093	-14,28
978,297	-12,66
978,5	-13,55
978,703	-12,39
978,906	-10,77
979,109	-10,98
979,312	-11,34
979,515	-10,03
979,718	-10,34
979,921	-10,03
980,124	-10,72
980,327	-11,39
980,53	-11,17
980,733	-9,84
980,936	-8,03
981,138	-9,98
981,341	-10,1
981,544	-9,59
981,747	-8,65
981,949	-9,96
982,152	-9,67
982,355	-10,94
982,558	-8,77
982,76	-9,97
982,963	-11,09
983,165	-11,17
983,368	-10,77
983,571	-13,07
983,773	-11,67
983,976	-10,81
984,178	-11,4
984,381	-10,89
984,583	-13,75
984,785	-14,66
984,988	-13,35
985,19	-12,68
985,392	-14
985,595	-16,85
985,797	-17,74
985,999	-14,51
986,202	-13,31
986,404	-13,38
986,606	-10,11
986,808	-11,09
987,01	-10,36
987,212	-11,92
987,415	-13,27
987,617	-11,95
987,819	-11,8
988,021	-10,99
988,223	-12,99
988,425	-13,27
988,627	-12,66
988,829	-15,72
989,031	-15,23
989,232	-15,28
989,434	-15,25
989,636	-16,49
989,838	-17,14
990,04	-16,19
990,242	-17,96
990,443	-18,05
990,645	-16,24
990,847	-12,8
991,048	-11,78
991,25	-13,7
991,452	-13,41
991,653	-13,06
991,855	-11,89
992,057	-11,58
992,258	-10,77
992,46	-10,88
992,661	-9,94
992,863	-12,5
993,064	-10,83
993,265	-11,2
993,467	-12,27
993,668	-9,44
993,87	-11,37
994,071	-11,24
994,272	-10,87
994,473	-9,32
994,675	-9,62
994,876	-9,07
995,077	-9,41
995,278	-9,83
995,48	-9,19
995,681	-10,04
995,882	-8,27
996,083	-7,57
996,284	-9,19
996,485	-7,07
996,686	-8,46
996,887	-10,92
997,088	-15
997,289	-16,67
997,49	-16,5
997,691	-16,67
997,892	-17,93
998,092	-14,86
998,293	-16,26
998,494	-17,46
998,695	-16,48
998,896	-15,34
999,096	-14,34
999,297	-15,04
999,498	-16,86
999,698	-17,25
999,899	-19,57
1000,1	-19,94
1000,3	-19,08
1000,501	-19,66
1000,701	-19,75
1000,902	-19,81
1001,102	-19,6
1001,303	-19,21
1001,503	-19,25
1001,704	-18,76
1001,904	-19,98
1002,105	-20,03
1002,305	-19,23
1002,505	-20,68
1002,706	-22,2
1002,906	-23,35
1003,106	-22,89
1003,306	-21,3
1003,507	-18,81
1003,707	-19,57
1003,907	-18,57
1004,107	-17,37
1004,307	-18,81
1004,507	-16,59
1004,707	-16,68
1004,907	-18,52
1005,107	-18,35
1005,308	-18,67
1005,507	-19,27
1005,707	-17,45
1005,907	-17,92
1006,107	-15,3
1006,307	-13,13
1006,507	-15,16
1006,707	-15,9
1006,907	-15,14
1007,106	-14,83
1007,306	-15,48
1007,506	-13,92
1007,706	-14,33
1007,905	-15,56
1008,105	-14,96
1008,305	-14,95
1008,504	-15,34
1008,704	-11,78
1008,903	-10,68
1009,103	-7,67
1009,303	-9,35
1009,502	-10,18
1009,702	-11,18
1009,901	-10,47
1010,1	-13,32
1010,3	-10,22
1010,499	-12,53
1010,699	-14,19
1010,898	-15,87
1011,097	-15,65
1011,296	-16,19
1011,496	-16,83
1011,695	-17,4
1011,894	-18,09
1012,093	-15,14
1012,293	-16,45
1012,492	-16,66
1012,691	-15,9
1012,89	-16,84
1013,089	-18,82
1013,288	-17,63
1013,487	-17,68
1013,686	-18,01
1013,885	-18,49
1014,084	-17,31
1014,283	-16,33
1014,482	-18,74
1014,681	-19,27
1014,88	-22,23
1015,078	-22,1
1015,277	-23,89
1015,476	-23,11
1015,675	-22,95
1015,873	-23,14
1016,072	-24,97
1016,271	-22,54
1016,47	-26,56
1016,668	-24,49
1016,867	-24,78
1017,065	-26,49
1017,264	-26,54
1017,463	-26,7
1017,661	-26,42
1017,86	-25,19
1018,058	-25,03
1018,256	-27,18
1018,455	-28,39
1018,653	-28,07
1018,852	-28,68
1019,05	-29,11
1019,248	-29,48
1019,447	-31,24
1019,645	-31,46
1019,843	-33,95
1020,041	-33,71
1020,24	-34,6
1020,438	-32,64
1020,636	-31,66
1020,834	-33,16
1021,032	-31,01
1021,23	-31,71
1021,428	-31,28
1021,626	-28,69
1021,824	-28,01
1022,022	-28,79
1022,22	-26,49
1022,418	-25,77
1022,616	-25,66
1022,814	-26,15
1023,012	-26,66
1023,21	-23,54
1023,408	-23,78
1023,606	-25,07
1023,803	-21,31
1024,001	-22,02
1024,199	-24,18
1024,397	-22,39
1024,594	-21,66
1024,792	-23,13
1024,99	-22,13
1025,187	-21,5
1025,385	-18,31
1025,582	-18,65
1025,78	-19,17
1025,977	-18,1
1026,175	-17,49
1026,372	-17,54
1026,57	-20,17
1026,767	-18,83
1026,965	-18,21
1027,162	-18,02
1027,359	-17,28
1027,557	-17,31
1027,754	-19,99
1027,951	-21,42
1028,148	-18,98
1028,346	-22,19
1028,543	-24,49
1028,74	-25,54
1028,937	-27,25
1029,134	-27,49
1029,331	-28,76
1029,528	-27,21
1029,725	-28,11
1029,923	-31
1030,12	-27,73
1030,317	-26,38
1030,513	-26,13
1030,71	-25,71
1030,907	-24,48
1031,104	-24,43
1031,301	-24,23
1031,498	-24,76
1031,695	-23,32
1031,892	-22,34
1032,088	-23,27
1032,285	-24,76
1032,482	-25,89
1032,678	-27,67
1032,875	-28,98
1033,072	-28,38
1033,268	-28,82
1033,465	-28,53
1033,662	-29,38
1033,858	-29,51
1034,055	-28,14
1034,251	-26,37
1034,448	-25,55
1034,644	-24,55
1034,84	-21,44
1035,037	-19,49
1035,233	-18,72
1035,43	-16,68
1035,626	-17,92
1035,822	-17,71
1036,019	-18,06
1036,215	-20,45
1036,411	-20,1
1036,607	-21,22
1036,803	-23,15
1037	-23,23
1037,196	-24,73
1037,392	-25,64
1037,588	-27,09
1037,784	-27,21
1037,98	-28,95
1038,176	-27,22
1038,372	-25,87
1038,568	-24,17
1038,764	-22,43
1038,96	-20,37
1039,156	-21,3
1039,352	-21,73
1039,547	-20,99
1039,743	-20,62
1039,939	-18,37
1040,135	-18,03
1040,331	-20,62
1040,526	-18,99
1040,722	-20,25
1040,918	-22,15
1041,113	-24,57
1041,309	-25,09
1041,505	-27,14
1041,7	-25,85
1041,896	-25,45
1042,091	-26,8
1042,287	-27,49
1042,482	-27,19
1042,678	-27,51
1042,873	-25,92
1043,069	-26,9
1043,264	-25,66
1043,459	-24,21
1043,655	-24
1043,85	-25,03
1044,045	-23,15
1044,24	-23,78
1044,436	-23,46
1044,631	-24,12
1044,826	-23,77
1045,021	-26,46
1045,216	-25,39
