Data from FLMT021711__13__16-31-29-219.txt Node

Date: Tue Nov 05 16:31:29 CET 2024
User: Etudiants TP
Spectrometer: FLMT02171
Trigger mode: 0
Integration Time (sec): 1.000000E-1
Scans to average: 5
Electric dark correction enabled: true
Nonlinearity correction enabled: false
Boxcar width: 15
XAxis mode: Wavelengths
Number of Pixels in Spectrum: 3648
>>>>>Begin Spectral Data<<<<<
194.658	-49.35
194.923	-46.72
195.188	-43.48
195.453	-42.55
195.717	-37.97
195.982	-36.28
196.247	-36.1
196.512	-37.72
196.777	-37.02
197.042	-34.39
197.307	-33.98
197.572	-31.01
197.837	-31.15
198.101	-29.66
198.366	-27.45
198.631	-26.47
198.896	-21.62
199.161	-16.37
199.425	-10.8
199.69	-3.31
199.955	-3.21
200.22	-5.18
200.484	-5.91
200.749	-6.63
201.014	-5.42
201.278	-4.95
201.543	-4.67
201.807	-5.8
202.072	-5.2
202.337	-7.41
202.601	-7.57
202.866	-8.55
203.13	-8.53
203.395	-9.44
203.659	-9.63
203.924	-11.9
204.189	-11.37
204.453	-10.09
204.717	-7.65
204.982	-6.1
205.246	-6.13
205.511	-4.46
205.775	-4.93
206.04	-1.11
206.304	-0.6
206.568	0.51
206.833	1.11
207.097	1.07
207.361	0.86
207.626	4.02
207.89	4.54
208.154	4.74
208.419	6.08
208.683	5.99
208.947	8.38
209.211	7.01
209.476	8.69
209.74	8.86
210.004	9.47
210.268	9.8
210.532	13.25
210.796	13.14
211.061	13.37
211.325	14.07
211.589	14.1
211.853	14.36
212.117	14.49
212.381	14.19
212.645	14.79
212.909	14.53
213.173	12.52
213.437	13.83
213.701	13.76
213.965	13.85
214.229	10.38
214.493	9.11
214.757	9.03
215.021	8.48
215.285	11.43
215.549	14.3
215.813	11.51
216.077	12.01
216.34	13.93
216.604	13.37
216.868	14.62
217.132	15.67
217.396	16.7
217.659	16.22
217.923	13.17
218.187	13.16
218.451	13.3
218.714	11.78
218.978	11.76
219.242	13.99
219.505	15.38
219.769	15.92
220.033	16.57
220.296	19.26
220.56	20.9
220.824	18.8
221.087	18.69
221.351	17.96
221.614	16.94
221.878	18.13
222.142	17.16
222.405	16.83
222.669	19.94
222.932	15.58
223.196	14.46
223.459	12
223.722	12.7
223.986	11.86
224.249	11.35
224.513	11.34
224.776	10.97
225.04	10.1
225.303	10.58
225.566	8.86
225.83	10.15
226.093	13.13
226.356	12.28
226.62	9.26
226.883	9.54
227.146	9.97
227.409	9.59
227.673	7.69
227.936	7.11
228.199	7.21
228.462	5.13
228.725	3.06
228.989	3.44
229.252	4.27
229.515	7.65
229.778	5.78
230.041	4.75
230.304	4.02
230.567	5.39
230.83	4.12
231.093	7.63
231.356	8.41
231.619	12.52
231.882	10.73
232.145	12.01
232.408	10.57
232.671	9.85
232.934	10.31
233.197	10.03
233.46	8.14
233.723	10.57
233.986	8
234.249	5.81
234.512	6.67
234.775	11.02
235.037	10.51
235.3	10.74
235.563	11.41
235.826	11.18
236.089	13.67
236.351	13.08
236.614	14.02
236.877	14.03
237.14	15.48
237.402	14.54
237.665	11.08
237.928	11.44
238.19	9.54
238.453	11.51
238.716	9.95
238.978	9.61
239.241	8.06
239.503	9.98
239.766	7.09
240.029	5.9
240.291	7.83
240.554	7.4
240.816	7.5
241.079	7.73
241.341	7.62
241.604	7.47
241.866	5.37
242.129	5.87
242.391	7.11
242.653	6.12
242.916	6.21
243.178	6.69
243.441	6.7
243.703	3.65
243.965	2.46
244.228	1.01
244.49	0.81
244.752	1.1
245.015	3.04
245.277	4.8
245.539	4.71
245.801	6.54
246.064	6.37
246.326	6.15
246.588	5.78
246.85	8.69
247.112	7.61
247.374	9.03
247.637	10.1
247.899	10.31
248.161	10.22
248.423	6.95
248.685	6.55
248.947	6.84
249.209	5.75
249.471	6.57
249.733	5.47
249.995	4.08
250.257	4.46
250.519	4.38
250.781	6.47
251.043	4.32
251.305	5.89
251.567	8.39
251.829	9.67
252.091	9.44
252.353	7.92
252.615	7.72
252.876	7.06
253.138	4.62
253.4	1.37
253.662	2.79
253.924	3.17
254.185	4.38
254.447	4.47
254.709	4.73
254.971	3.43
255.232	6.16
255.494	4.19
255.756	2.32
256.017	2.14
256.279	3.52
256.541	3.25
256.802	5.06
257.064	4.53
257.326	5.09
257.587	4.68
257.849	5.99
258.11	9.53
258.372	10.47
258.633	10.51
258.895	10.29
259.156	8.58
259.418	7.1
259.679	3.73
259.941	2.19
260.202	3.74
260.464	4.79
260.725	4.04
260.987	2.83
261.248	2.59
261.509	3.95
261.771	2.97
262.032	5.8
262.293	5.65
262.555	4.68
262.816	3.35
263.077	4.23
263.338	1.44
263.6	2.61
263.861	1.17
264.122	0.85
264.383	0.9
264.645	1.93
264.906	-0.27
265.167	-0.33
265.428	-1.5
265.689	-1.24
265.95	-2.71
266.211	-3.79
266.473	-5.01
266.734	-7.86
266.995	-9.78
267.256	-8.31
267.517	-6.39
267.778	-5.41
268.039	-3.86
268.3	-5.07
268.561	-7.02
268.822	-4.09
269.083	-5.33
269.344	-6.93
269.604	-7.4
269.865	-8.58
270.126	-12.96
270.387	-12.35
270.648	-10.45
270.909	-10.49
271.17	-12.49
271.43	-14.51
271.691	-16.02
271.952	-16.57
272.213	-16.02
272.473	-16.9
272.734	-15.51
272.995	-13.56
273.256	-12.61
273.516	-10.13
273.777	-11.25
274.038	-9.12
274.298	-10.56
274.559	-10.36
274.82	-4.75
275.08	-3.45
275.341	-2.72
275.601	-4.42
275.862	-5.72
276.122	-5.8
276.383	-5.22
276.643	-3.46
276.904	-6.05
277.164	-3.1
277.425	-1.2
277.685	1.02
277.946	2.22
278.206	3.23
278.467	3.41
278.727	4.42
278.987	3.6
279.248	4.51
279.508	6.1
279.768	6.81
280.029	8.57
280.289	7.65
280.549	6.67
280.81	7.49
281.07	6.63
281.33	8.28
281.59	6.02
281.851	8.48
282.111	8.31
282.371	8.52
282.631	10.58
282.891	8
283.151	6.4
283.412	4.14
283.672	4.56
283.932	5.5
284.192	6.9
284.452	6.19
284.712	5.21
284.972	6.09
285.232	4.73
285.492	6.71
285.752	4.85
286.012	8.47
286.272	9.91
286.532	8.56
286.792	8.34
287.052	10.07
287.312	9.18
287.571	9.05
287.831	10.06
288.091	7.72
288.351	8.02
288.611	10.96
288.871	9.43
289.13	8.42
289.39	4.29
289.65	6.27
289.91	4.02
290.17	5.26
290.429	7.46
290.689	3.77
290.949	0.55
291.208	2.31
291.468	6.71
291.728	7.39
291.987	8.38
292.247	6.76
292.506	9.8
292.766	10.81
293.026	10.16
293.285	11.02
293.545	12.47
293.804	12.36
294.064	9.55
294.323	7.4
294.583	8.53
294.842	9.01
295.102	9.17
295.361	9.42
295.621	9.37
295.88	9.59
296.139	9.55
296.399	9.54
296.658	5.32
296.917	5.43
297.177	4.36
297.436	5.89
297.695	3.86
297.955	4.4
298.214	3.13
298.473	2.97
298.732	6.52
298.992	9.68
299.251	9.71
299.51	4.63
299.769	4.7
300.028	4.97
300.287	5.06
300.547	4.36
300.806	2.55
301.065	4.09
301.324	5.13
301.583	1.32
301.842	-0.89
302.101	-2.49
302.36	-1.06
302.619	-1.93
302.878	-1.89
303.137	-3.95
303.396	-2.92
303.655	-2.09
303.914	-4.42
304.173	-3.75
304.432	-4.66
304.691	-0.74
304.95	-2.88
305.208	0.41
305.467	0.51
305.726	1.97
305.985	2.73
306.244	3.2
306.503	3.43
306.761	1.17
307.02	-0.94
307.279	-0.59
307.537	0.24
307.796	-1.78
308.055	-3.79
308.314	-2.23
308.572	-4.39
308.831	-2.37
309.09	-0.99
309.348	0.26
309.607	-0.03
309.865	2.21
310.124	2.9
310.382	3.44
310.641	4.03
310.9	3.25
311.158	5.12
311.417	4.51
311.675	4.75
311.933	5.47
312.192	6.18
312.45	6.37
312.709	4.27
312.967	4.66
313.226	5.4
313.484	5.39
313.742	4.03
314.001	3
314.259	2.48
314.517	3.47
314.776	5.91
315.034	8.35
315.292	7.4
315.55	7.43
315.809	7.4
316.067	9.01
316.325	7.04
316.583	7.24
316.841	5.76
317.1	3.54
317.358	-1.22
317.616	-2.1
317.874	-2.45
318.132	-3.46
318.39	-4.22
318.648	-4.58
318.906	-6.39
319.164	-8.55
319.422	-8.86
319.68	-9.01
319.938	-9.55
320.196	-9.63
320.454	-8.89
320.712	-7.58
320.97	-7.07
321.228	-8.99
321.486	-8.22
321.744	-6.62
322.002	-5.35
322.26	-7.34
322.517	-8.05
322.775	-11.02
323.033	-12.48
323.291	-11.61
323.549	-9.99
323.806	-8.79
324.064	-8.94
324.322	-7.86
324.58	-7.89
324.837	-6.99
325.095	-8.86
325.353	-6.34
325.61	-3.79
325.868	-4.24
326.126	-2.01
326.383	-3.33
326.641	-4.6
326.898	-2.6
327.156	-2.06
327.413	-0.91
327.671	-1.82
327.928	-0.44
328.186	0.89
328.443	-0.45
328.701	2.14
328.958	2.16
329.216	3.06
329.473	1.8
329.731	2.1
329.988	2.01
330.245	4.35
330.503	5.65
330.76	5.72
331.017	7.4
331.275	5.37
331.532	4.43
331.789	2.63
332.047	1.35
332.304	-1.71
332.561	-2.27
332.818	-2.62
333.076	0.56
333.333	0.3
333.59	0.07
333.847	0.79
334.104	-0.22
334.361	0.6
334.618	1.25
334.876	-1.52
335.133	-2.18
335.39	-4.78
335.647	-3.39
335.904	-5.59
336.161	-7.41
336.418	-6.16
336.675	-8.83
336.932	-8.12
337.189	-8.88
337.446	-8.13
337.703	-9.43
337.96	-11.75
338.216	-11.2
338.473	-15.18
338.73	-13.16
338.987	-13.94
339.244	-10.64
339.501	-10.66
339.757	-10.1
340.014	-8.48
340.271	-6.23
340.528	-4.88
340.785	-1.73
341.041	-3.48
341.298	-5.79
341.555	-5.9
341.811	-6.3
342.068	-7.37
342.325	-7.51
342.581	-7.03
342.838	-5.03
343.094	-4.42
343.351	-3.86
343.608	-5.3
343.864	-3.6
344.121	-2.79
344.377	-3.54
344.634	-5.51
344.89	-6.49
345.147	-7.99
345.403	-8.1
345.66	-8.69
345.916	-7.03
346.172	-9.3
346.429	-9.07
346.685	-11.56
346.942	-11.75
347.198	-15.34
347.454	-14.64
347.711	-14.6
347.967	-16.32
348.223	-16.11
348.48	-16.45
348.736	-15.86
348.992	-14.12
349.248	-11.28
349.504	-11.47
349.761	-11.16
350.017	-10.73
350.273	-10.63
350.529	-10.5
350.785	-11.58
351.041	-11.85
351.297	-9.63
351.554	-9.6
351.81	-9.72
352.066	-10.37
352.322	-11.8
352.578	-9.34
352.834	-9.26
353.09	-7.93
353.346	-8.15
353.602	-8.03
353.858	-8.43
354.114	-8.32
354.369	-6.63
354.625	-4.19
354.881	-4.52
355.137	-3.09
355.393	-3.3
355.649	-3.54
355.905	-3.9
356.16	-4.16
356.416	-2.94
356.672	-6.37
356.928	-6.83
357.183	-6.7
357.439	-6.47
357.695	-7.48
357.951	-4.44
358.206	-5.45
358.462	-6.37
358.718	-7.09
358.973	-6.7
359.229	-7.62
359.484	-7.61
359.74	-6.54
359.996	-7.14
360.251	-3.02
360.507	-4.65
360.762	-4.12
361.018	-2.35
361.273	-3.35
361.529	-2.77
361.784	-3.52
362.04	-2.85
362.295	-3.15
362.55	-3.31
362.806	-1.55
363.061	-0.92
363.316	-1.72
363.572	-0.7
363.827	1.8
364.082	0.35
364.338	-0.39
364.593	-0.51
364.848	-0.29
365.104	-0.85
365.359	1.17
365.614	1.27
365.869	-0.82
366.124	-0.47
366.38	-1.29
366.635	0.93
366.89	2.67
367.145	3.26
367.4	6.16
367.655	6.55
367.91	8.66
368.165	6.51
368.42	5.39
368.675	4.89
368.93	4.89
369.185	3.06
369.44	1.54
369.695	2.99
369.95	2.72
370.205	1.98
370.46	1.45
370.715	0.29
370.97	1.28
371.225	2.53
371.48	3.66
371.734	3.22
371.989	5.22
372.244	5.28
372.499	6.53
372.754	5.51
373.008	2.89
373.263	-0.04
373.518	2.42
373.773	0.39
374.027	-0.54
374.282	2.4
374.537	2.06
374.791	2.55
375.046	1.24
375.301	-0.64
375.555	-2.02
375.81	-2.1
376.064	0.26
376.319	2.7
376.573	3.91
376.828	1.07
377.082	4.61
377.337	4.73
377.591	3.79
377.846	5.14
378.1	7.79
378.355	7.91
378.609	7.92
378.863	5.32
379.118	5.21
379.372	3.35
379.627	2.46
379.881	2.1
380.135	1.98
380.389	1.54
380.644	2.81
380.898	3.94
381.152	5.06
381.407	3.83
381.661	6.37
381.915	8.4
382.169	7.13
382.423	6.88
382.677	6.02
382.932	7.81
383.186	8.19
383.44	8.56
383.694	9.43
383.948	6.19
384.202	4.7
384.456	5.02
384.71	5.71
384.964	4.81
385.218	5.23
385.472	4.37
385.726	2.49
385.98	1.02
386.234	0.75
386.488	-1.42
386.742	-0.02
386.996	-1.3
387.249	-0.88
387.503	0.23
387.757	-0.42
388.011	-0.79
388.265	-0.35
388.518	-0.23
388.772	1.69
389.026	2.07
389.28	0.93
389.533	-0.2
389.787	0.79
390.041	-1.23
390.295	-0.59
390.548	-1.93
390.802	-0.72
391.055	-2.2
391.309	-1.42
391.563	-3.24
391.816	-0.57
392.07	-0.91
392.323	-0.21
392.577	1.77
392.83	2.14
393.084	6.87
393.337	10.42
393.591	11.94
393.844	12.04
394.098	13.77
394.351	16.75
394.604	17.82
394.858	19.76
395.111	21.09
395.364	19.24
395.618	20.87
395.871	20.58
396.124	20.23
396.378	19.03
396.631	18.31
396.884	15.66
397.137	15.5
397.391	16.53
397.644	15.41
397.897	16.71
398.15	16.36
398.403	18.37
398.657	16.92
398.91	16.36
399.163	16.87
399.416	16.61
399.669	13.27
399.922	13.99
400.175	13.67
400.428	14.28
400.681	17.89
400.934	18.6
401.187	21.87
401.44	25.89
401.693	27.08
401.946	26.96
402.199	24.89
402.452	24.25
402.704	21.94
402.957	20.93
403.21	22.71
403.463	21.57
403.716	22.81
403.969	23.54
404.221	23.53
404.474	25.02
404.727	27.78
404.98	29.58
405.232	30.14
405.485	30.62
405.738	32.92
405.99	34.31
406.243	34.72
406.496	35.34
406.748	36.68
407.001	34.44
407.253	35.24
407.506	35.97
407.759	35.13
408.011	32.76
408.264	30.99
408.516	27.67
408.769	21.96
409.021	17.97
409.274	13.55
409.526	12.65
409.778	10.23
410.031	10.77
410.283	10.57
410.536	14.58
410.788	13.2
411.04	12.81
411.293	13.58
411.545	13.89
411.797	13.12
412.049	13.27
412.302	13.27
412.554	14.59
412.806	13.04
413.058	10.14
413.311	10.28
413.563	8.69
413.815	8.43
414.067	6.51
414.319	7.75
414.571	7.88
414.823	7.73
415.075	6.75
415.328	8.05
415.58	10.53
415.832	11.67
416.084	13.12
416.336	12.46
416.588	15.42
416.84	14.09
417.091	17
417.343	14.19
417.595	15.41
417.847	17.94
418.099	18.93
418.351	18.26
418.603	20.64
418.855	21.34
419.106	21.99
419.358	21.41
419.61	21.32
419.862	22.18
420.114	19.83
420.365	19.32
420.617	20.39
420.869	20.01
421.12	19.87
421.372	20.78
421.624	20.33
421.875	22.54
422.127	19.7
422.379	20.47
422.63	21.75
422.882	21.36
423.133	21.57
423.385	22.09
423.636	22.31
423.888	22.85
424.139	24.37
424.391	21.79
424.642	21.32
424.894	20.36
425.145	21.99
425.396	20.64
425.648	21.74
425.899	20.87
426.151	21.04
426.402	21.35
426.653	21.16
426.905	19.47
427.156	18.74
427.407	18.95
427.658	18.38
427.91	18.98
428.161	18.75
428.412	20.44
428.663	21.59
428.914	23.66
429.166	24.57
429.417	24.13
429.668	22.1
429.919	20.22
430.17	20.21
430.421	22.27
430.672	25.41
430.923	26.42
431.174	27.64
431.425	36.73
431.676	50.46
431.927	66.16
432.178	90.35
432.429	113.75
432.68	131.84
432.931	147.47
433.182	159.99
433.433	165.17
433.683	170.91
433.934	172.97
434.185	174.06
434.436	174.05
434.687	176.94
434.937	179.46
435.188	179.37
435.439	178.69
435.69	180.48
435.94	179.04
436.191	179.88
436.442	181.71
436.692	179.13
436.943	177.88
437.194	178
437.444	179.39
437.695	184.22
437.945	184.81
438.196	181.69
438.447	180.94
438.697	179.88
438.948	176.81
439.198	166.32
439.449	149.62
439.699	132.26
439.949	110.01
440.2	87.33
440.45	69.72
440.701	55.39
440.951	45.42
441.201	38.82
441.452	32.9
441.702	28.97
441.952	26.8
442.203	25.77
442.453	23.94
442.703	24.2
442.953	24.71
443.204	26.27
443.454	24.39
443.704	25.41
443.954	21.49
444.204	20.18
444.455	22.18
444.705	22.44
444.955	21.87
445.205	21.58
445.455	17.74
445.705	17.46
445.955	17.59
446.205	16.44
446.455	15.22
446.705	16.41
446.955	17.59
447.205	19.29
447.455	20.32
447.705	18.9
447.955	18.37
448.205	18.33
448.454	16.88
448.704	16.99
448.954	15.08
449.204	15.36
449.454	15.84
449.704	15.56
449.953	15.85
450.203	16.13
450.453	12.73
450.703	13.9
450.952	12.34
451.202	12.14
451.452	12.02
451.701	14.03
451.951	16.67
452.201	15.38
452.45	15.19
452.7	16.17
452.949	16.92
453.199	17.46
453.448	18.59
453.698	21.4
453.947	21.24
454.197	22.05
454.446	20.55
454.696	22.22
454.945	21.64
455.195	21.47
455.444	22.39
455.693	24.62
455.943	22.73
456.192	24.19
456.442	24.08
456.691	25
456.94	25.74
457.189	26.06
457.439	27.53
457.688	28.97
457.937	28.64
458.186	29.93
458.436	30.02
458.685	30.98
458.934	31.2
459.183	31.13
459.432	34.05
459.681	34.57
459.93	33
460.179	32.38
460.429	31.66
460.678	31.95
460.927	34.08
461.176	32.69
461.425	32.24
461.674	34.96
461.923	35.36
462.172	35.31
462.42	34.01
462.669	34.6
462.918	34.84
463.167	34.96
463.416	32.37
463.665	33.66
463.914	33.52
464.162	31.66
464.411	32.64
464.66	33.12
464.909	31.05
465.158	30.92
465.406	29.65
465.655	31.37
465.904	33.47
466.152	33.3
466.401	34.03
466.65	35.21
466.898	33.7
467.147	30.45
467.395	29.64
467.644	32.76
467.893	33.17
468.141	31.75
468.39	30.25
468.638	28.62
468.887	27.02
469.135	25.02
469.384	22.51
469.632	22.07
469.88	21.9
470.129	23.63
470.377	21.72
470.626	23.62
470.874	24.83
471.122	25.06
471.371	23.38
471.619	22.47
471.867	25.94
472.115	25.13
472.364	24.22
472.612	26.58
472.86	23.94
473.108	24.31
473.356	23.96
473.605	21.84
473.853	20.45
474.101	19.11
474.349	17.94
474.597	20.09
474.845	19.04
475.093	18.12
475.341	15.45
475.589	15.3
475.837	17.65
476.085	18.95
476.333	18.34
476.581	21.06
476.829	20.3
477.077	23.37
477.325	24.31
477.573	25.78
477.821	23.39
478.069	24.98
478.317	23.83
478.564	26.33
478.812	25.34
479.06	25.7
479.308	25.41
479.555	24.63
479.803	24.69
480.051	26.13
480.299	26.87
480.546	30.07
480.794	30.34
481.042	32.48
481.289	34.38
481.537	36.45
481.784	38.31
482.032	42.34
482.28	44.51
482.527	48.3
482.775	51.51
483.022	56.13
483.27	60.86
483.517	66.09
483.765	67.81
484.012	70.32
484.259	71.06
484.507	77.42
484.754	80.11
485.002	81.93
485.249	83.59
485.496	88.8
485.744	90.1
485.991	91.78
486.238	90.46
486.486	95.68
486.733	97.26
486.98	101.98
487.227	102.18
487.474	104.72
487.722	107.53
487.969	107.78
488.216	107.43
488.463	106.04
488.71	104.99
488.957	104.19
489.204	104.17
489.451	104.42
489.699	103.08
489.946	99.93
490.193	96.85
490.44	94.73
490.687	92.63
490.934	89.01
491.18	81.98
491.427	81.16
491.674	80.58
491.921	78.77
492.168	74.39
492.415	70.55
492.662	69.74
492.909	68.93
493.155	66.3
493.402	64.56
493.649	62.02
493.896	61.84
494.142	57.46
494.389	56.78
494.636	52.68
494.883	50.18
495.129	47.65
495.376	42.66
495.623	40.42
495.869	40.2
496.116	42
496.362	41.46
496.609	41.23
496.855	43.19
497.102	41.71
497.348	39.17
497.595	38.48
497.841	39.87
498.088	37.13
498.334	34.72
498.581	32.11
498.827	32.67
499.074	30.94
499.32	30.08
499.566	31.45
499.813	30.35
500.059	28.02
500.305	26.86
500.552	23.88
500.798	21.9
501.044	23.02
501.29	20.79
501.537	16.37
501.783	16.71
502.029	16.91
502.275	13.67
502.521	10.56
502.767	10.15
503.013	12.53
503.26	11.51
503.506	7.79
503.752	7.02
503.998	5.08
504.244	6.67
504.49	3.5
504.736	3.7
504.982	3.59
505.228	4.81
505.474	3.66
505.72	4.55
505.966	4.9
506.211	7.02
506.457	7.35
506.703	5.84
506.949	4.38
507.195	2.7
507.441	0.61
507.686	2.54
507.932	1.08
508.178	4.26
508.424	2.45
508.669	0.87
508.915	1.07
509.161	3.33
509.406	4.29
509.652	4.14
509.898	7.74
510.143	10.51
510.389	10.04
510.634	6.78
510.88	9.54
511.125	12.61
511.371	13.05
511.616	14.39
511.862	11.27
512.107	9.8
512.353	9.69
512.598	9.67
512.844	7.73
513.089	5.95
513.335	6.34
513.58	5.45
513.825	5.47
514.071	4.7
514.316	4.81
514.561	6.67
514.806	4.88
515.052	6.85
515.297	5.76
515.542	8.12
515.787	7.4
516.033	9.64
516.278	9.97
516.523	8.9
516.768	7.75
517.013	5.66
517.258	4.54
517.503	4.03
517.748	4.4
517.993	4.13
518.238	4.1
518.483	2.37
518.728	0.9
518.973	-1.03
519.218	-1.78
519.463	-1.9
519.708	-3.58
519.953	-4.38
520.198	-4.56
520.443	-3.33
520.688	-0.08
520.933	-0.46
521.177	-0.74
521.422	-3.07
521.667	-0.89
521.912	-1.48
522.157	-3.8
522.401	-1.2
522.646	-2.62
522.891	-2.8
523.135	-3.93
523.38	-4.99
523.625	-6.1
523.869	-5.58
524.114	-3.72
524.358	-3.89
524.603	-3.3
524.848	-4.12
525.092	-4.9
525.337	-3.93
525.581	-3.3
525.826	-1.3
526.07	-1.25
526.315	-0.85
526.559	-1.15
526.803	-3.03
527.048	-0.71
527.292	1.13
527.537	1.1
527.781	0.23
528.025	-0.99
528.269	-1.14
528.514	-1.39
528.758	-0.47
529.002	-0.13
529.247	0.5
529.491	1.1
529.735	4.87
529.979	4.37
530.223	6.72
530.467	5.5
530.712	4.11
530.956	4.83
531.2	5.22
531.444	4.03
531.688	5.48
531.932	5.07
532.176	5.57
532.42	5.2
532.664	5.76
532.908	4.37
533.152	1.88
533.396	0.81
533.64	0.29
533.884	0.27
534.128	1.37
534.371	2.7
534.615	4.57
534.859	3.56
535.103	4.7
535.347	7.3
535.59	9.55
535.834	9
536.078	11.72
536.322	13.99
536.565	18.04
536.809	18.04
537.053	21.59
537.296	22.93
537.54	27.37
537.784	32.54
538.027	38.52
538.271	43.42
538.514	48.22
538.758	54.64
539.001	59.97
539.245	64.96
539.488	71.25
539.732	77.12
539.975	82.59
540.219	89.36
540.462	93.82
540.706	100.18
540.949	104.9
541.192	109.42
541.436	117.47
541.679	125.15
541.922	130.59
542.166	132.91
542.409	139.88
542.652	145.92
542.895	152.48
543.139	158.6
543.382	166.72
543.625	170.36
543.868	172.78
544.111	174.36
544.354	176.82
544.598	177.19
544.841	176.77
545.084	174.75
545.327	171.65
545.57	169.13
545.813	168.39
546.056	164.38
546.299	160.46
546.542	157.68
546.785	155.93
547.028	153.03
547.271	149.04
547.514	145.94
547.756	139.7
547.999	137.65
548.242	135.73
548.485	131.8
548.728	129.16
548.971	122.13
549.213	117.5
549.456	111.77
549.699	105.48
549.942	99.52
550.184	92.6
550.427	86.17
550.67	79.66
550.912	69.56
551.155	64.85
551.398	60.1
551.64	54.73
551.883	51.17
552.125	46.23
552.368	42.91
552.61	37.74
552.853	35.8
553.095	32.62
553.338	29.86
553.58	28.37
553.823	25.61
554.065	25.14
554.308	18.73
554.55	15.38
554.792	12.92
555.035	10.63
555.277	8.17
555.519	6.06
555.762	2.41
556.004	0.92
556.246	-3.02
556.488	-3.69
556.731	-6.57
556.973	-5.41
557.215	-6.15
557.457	-5.01
557.699	-4.82
557.941	-8.62
558.183	-9.35
558.426	-7.22
558.668	-10.49
558.91	-9.68
559.152	-10.46
559.394	-12.35
559.636	-10.71
559.878	-10.15
560.12	-10.42
560.362	-9.58
560.604	-9.21
560.845	-10.45
561.087	-11.35
561.329	-10
561.571	-13.11
561.813	-10.52
562.055	-10.4
562.297	-10.77
562.538	-11.78
562.78	-8.74
563.022	-10.55
563.264	-9.22
563.505	-9.76
563.747	-9.33
563.989	-10.38
564.23	-10.97
564.472	-13.35
564.714	-11.29
564.955	-12.53
565.197	-13.99
565.438	-12.6
565.68	-11.44
565.921	-13.23
566.163	-11.97
566.404	-12.95
566.646	-10.28
566.887	-9.3
567.129	-8.42
567.37	-8.39
567.612	-6.94
567.853	-9.59
568.094	-8.58
568.336	-8.21
568.577	-8.61
568.818	-9.29
569.06	-8.43
569.301	-10.75
569.542	-12.17
569.783	-11.72
570.025	-10.89
570.266	-11.16
570.507	-10.11
570.748	-9.38
570.989	-8.14
571.23	-6.04
571.472	-6.53
571.713	-7.48
571.954	-6.11
572.195	-7.52
572.436	-5.61
572.677	-4.27
572.918	-1.93
573.159	-2.68
573.4	-4.07
573.641	-3.74
573.882	-2.51
574.123	-3.52
574.364	-5.63
574.604	-6.24
574.845	-8.08
575.086	-7.78
575.327	-6.47
575.568	-7.24
575.809	-7
576.049	-6.62
576.29	-5.9
576.531	-2.57
576.771	-0.19
577.012	2.83
577.253	5.67
577.494	6.64
577.734	6.63
577.975	7.78
578.215	6.4
578.456	5.93
578.697	5.42
578.937	8.05
579.178	8.06
579.418	7.9
579.659	8.51
579.899	5.69
580.14	6
580.38	4.97
580.62	5.69
580.861	9.54
581.101	10.07
581.342	9.91
581.582	6.19
581.822	9
582.063	9.9
582.303	11.89
582.543	12.64
582.783	13.73
583.024	16.83
583.264	20
583.504	18.71
583.744	19.61
583.984	18.43
584.224	20.22
584.465	17.91
584.705	17.45
584.945	18.4
585.185	18.31
585.425	18.98
585.665	19.87
585.905	18.68
586.145	19.49
586.385	18.72
586.625	21.77
586.865	22.05
587.105	22.65
587.345	23.42
587.585	22.76
587.824	21.85
588.064	20.54
588.304	17.44
588.544	16.94
588.784	15.31
589.024	18.86
589.263	18.77
589.503	17.57
589.743	19.79
589.982	19.83
590.222	19.19
590.462	16.07
590.701	13.58
590.941	15.81
591.181	14.21
591.42	13.01
591.66	13.61
591.899	16.91
592.139	15.39
592.378	14.27
592.618	11.85
592.857	10.81
593.097	10.46
593.336	10.46
593.576	9.36
593.815	8.5
594.055	7.75
594.294	7.96
594.533	6.6
594.773	7.35
595.012	8.77
595.251	9.96
595.491	12.9
595.73	14.89
595.969	15.85
596.208	16.7
596.447	19.47
596.687	19.47
596.926	19.04
597.165	14.72
597.404	15.36
597.643	14.07
597.882	12.13
598.121	10.93
598.36	12.56
598.599	12.67
598.838	11.35
599.077	7.88
599.316	6.77
599.555	5.99
599.794	6.83
600.033	9.52
600.272	9.54
600.511	8.08
600.75	9.96
600.989	10.39
601.228	11.29
601.466	9.59
601.705	9.39
601.944	10.11
602.183	11.41
602.422	10.79
602.66	10.02
602.899	8.59
603.138	9.44
603.376	8.01
603.615	8.56
603.854	7.39
604.092	7.45
604.331	7.84
604.569	9.22
604.808	9.31
605.047	10.21
605.285	11.88
605.524	13.23
605.762	11.52
606	13.96
606.239	15.93
606.477	17.46
606.716	16.79
606.954	19.07
607.193	20.05
607.431	21.16
607.669	27.04
607.908	33.64
608.146	41.59
608.384	49.15
608.622	56.48
608.861	63.43
609.099	68.09
609.337	71.86
609.575	74.25
609.813	77.56
610.052	80.4
610.29	79.45
610.528	79.11
610.766	81.43
611.004	84.33
611.242	85.21
611.48	85
611.718	85.47
611.956	87.11
612.194	85.9
612.432	87.53
612.67	87.38
612.908	89.97
613.146	88.03
613.384	87.11
613.621	85.89
613.859	86.38
614.097	85.8
614.335	84.6
614.573	82.96
614.811	80.19
615.048	74.27
615.286	68.98
615.524	62.2
615.761	54.49
615.999	47.48
616.237	41.25
616.474	37.93
616.712	35.08
616.95	29.35
617.187	26.69
617.425	25.36
617.662	25.31
617.9	23.14
618.137	20.02
618.375	16.78
618.612	13.89
618.85	15.03
619.087	15.18
619.325	13.82
619.562	11.31
619.799	9.02
620.037	8.77
620.274	6.45
620.511	7.69
620.749	4.4
620.986	3.54
621.223	2.3
621.461	1.47
621.698	1.37
621.935	1.64
622.172	2.3
622.409	4.62
622.647	5.07
622.884	2.76
623.121	2.82
623.358	0.4
623.595	0.53
623.832	1.15
624.069	-0.68
624.306	2.14
624.543	2.64
624.78	3.35
625.017	2.23
625.254	3.11
625.491	4.94
625.728	5.11
625.965	4.74
626.202	4.12
626.438	4.25
626.675	3.47
626.912	7.21
627.149	7.89
627.386	7.85
627.622	7.06
627.859	7.81
628.096	9.14
628.333	10.64
628.569	10.46
628.806	11.52
629.043	11.26
629.279	12.47
629.516	13.86
629.752	9.02
629.989	9.65
630.225	9.25
630.462	10.36
630.699	11.31
630.935	11.96
631.171	8.64
631.408	9.2
631.644	6.53
631.881	4.28
632.117	1.16
632.354	2.44
632.59	2.8
632.826	1.63
633.063	1.7
633.299	1.76
633.535	0.29
633.771	-0.69
634.008	1.58
634.244	0.43
634.48	-0.03
634.716	1.29
634.953	-1.68
635.189	-1.76
635.425	-1.12
635.661	0.38
635.897	0.31
636.133	0.42
636.369	-0.44
636.605	-3.47
636.841	-4.81
637.077	-2.96
637.313	-3.96
637.549	-3.13
637.785	-4.36
638.021	-4.19
638.257	-5.97
638.493	-4.26
638.729	-6.4
638.965	-2.92
639.2	-1.73
639.436	-2.6
639.672	-2.61
639.908	-3.66
640.144	0.21
640.379	1.29
640.615	0.5
640.851	3.05
641.086	4.42
641.322	2.37
641.558	2.68
641.793	2.68
642.029	0.85
642.264	1.29
642.5	0.27
642.736	-1.84
642.971	-1.64
643.207	-4.27
643.442	-5.72
643.678	-5.47
643.913	-4.3
644.148	-5.19
644.384	-3.88
644.619	-4.19
644.855	-3.98
645.09	-3.6
645.325	-4.76
645.561	-4.57
645.796	-6.05
646.031	-3.14
646.266	-6.21
646.502	-6.85
646.737	-4.58
646.972	-3.98
647.207	-3.49
647.442	-5.65
647.678	-7.06
647.913	-5.24
648.148	-4.84
648.383	-5.73
648.618	-5.22
648.853	-4.84
649.088	-3.18
649.323	-1.04
649.558	0.98
649.793	1.59
650.028	2.7
650.263	0.03
650.498	3.2
650.733	3.3
650.968	3.19
651.202	4.44
651.437	3.31
651.672	0.89
651.907	1.29
652.142	1.88
652.376	1.7
652.611	2.7
652.846	4.47
653.081	4.52
653.315	4.34
653.55	5.07
653.785	3.78
654.019	5.31
654.254	3.23
654.488	3.23
654.723	1.37
654.958	0.41
655.192	-1.07
655.427	-5.48
655.661	-5
655.896	-5.02
656.13	-3.58
656.364	-4.95
656.599	-7.15
656.833	-6.12
657.068	-3.92
657.302	-4.42
657.536	-5.87
657.771	-5.08
658.005	-2.76
658.239	-2.46
658.474	-4.27
658.708	-2.87
658.942	-2.69
659.176	-3.49
659.41	-6.11
659.645	-5.93
659.879	-3.79
660.113	-6.45
660.347	-6.91
660.581	-10.26
660.815	-10.28
661.049	-10.47
661.283	-13.97
661.517	-14.17
661.751	-15.28
661.985	-15.4
662.219	-14.34
662.453	-13.87
662.687	-10.44
662.921	-11.91
663.155	-11.7
663.389	-15.79
663.622	-16.61
663.856	-15.01
664.09	-16.48
664.324	-17.92
664.558	-17.77
664.791	-17.34
665.025	-18.9
665.259	-21.08
665.492	-19.77
665.726	-17.7
665.96	-17.49
666.193	-17.67
666.427	-17.27
666.661	-17.27
666.894	-18.01
667.128	-19.27
667.361	-16.88
667.595	-17.44
667.828	-17.14
668.062	-16.49
668.295	-15.1
668.529	-12.67
668.762	-12.62
668.995	-12.71
669.229	-11.09
669.462	-11.16
669.695	-10.98
669.929	-13.83
670.162	-15.11
670.395	-15.44
670.629	-13.12
670.862	-12.73
671.095	-16.06
671.328	-15.31
671.561	-16.64
671.795	-14.89
672.028	-14.24
672.261	-13.47
672.494	-11.58
672.727	-14.24
672.96	-13.86
673.193	-14.94
673.426	-11.88
673.659	-11.49
673.892	-10.08
674.125	-10.32
674.358	-11.1
674.591	-12.81
674.824	-13.39
675.057	-12.31
675.29	-14.25
675.523	-12.57
675.755	-13.82
675.988	-13.69
676.221	-11.29
676.454	-12.06
676.687	-10.89
676.919	-11.82
677.152	-10.6
677.385	-9.24
677.617	-8.9
677.85	-9.08
678.083	-9.15
678.315	-6.36
678.548	-7.53
678.78	-7.74
679.013	-9.94
679.246	-9.31
679.478	-8.3
679.711	-10.27
679.943	-9.49
680.175	-12.19
680.408	-8.4
680.64	-11.58
680.873	-11.89
681.105	-11.91
681.338	-9.52
681.57	-9.65
681.802	-8.48
682.034	-7.1
682.267	-4.12
682.499	-2.59
682.731	-4.42
682.964	-4.51
683.196	-5.69
683.428	-7.69
683.66	-8.51
683.892	-6.92
684.124	-5.09
684.356	-4.21
684.589	-3.76
684.821	-3.96
685.053	-4.38
685.285	-3.88
685.517	-1.97
685.749	-0.92
685.981	-0.54
686.213	0.96
686.445	0.83
686.676	-1.21
686.908	-0.59
687.14	-0.94
687.372	0.27
687.604	-2.33
687.836	-0.31
688.068	-0.04
688.299	-0.87
688.531	-3.01
688.763	1.02
688.995	-0.34
689.226	2.89
689.458	0.81
689.69	-0.31
689.921	-2.25
690.153	-2.03
690.384	-0.42
690.616	-0.35
690.848	0.12
691.079	-3.37
691.311	-4.88
691.542	-5.56
691.774	-6.56
692.005	-4.77
692.237	-2.97
692.468	-3.71
692.699	-5.6
692.931	-6.42
693.162	-7.95
693.393	-8.37
693.625	-9.38
693.856	-9.2
694.087	-8.6
694.319	-7.06
694.55	-7.19
694.781	-6.57
695.012	-7.09
695.243	-8.44
695.475	-7.78
695.706	-7.43
695.937	-9.92
696.168	-9.59
696.399	-12.4
696.63	-11.71
696.861	-10.83
697.092	-6.46
697.323	-5
697.554	-4.9
697.785	-4.21
698.016	-3.35
698.247	-3.93
698.478	-3.57
698.709	-2.89
698.94	-1.28
699.171	-1.41
699.401	-4
699.632	-2.51
699.863	-3.69
700.094	-4.27
700.325	-1.95
700.555	-1.45
700.786	-0.39
701.017	-0.07
701.247	0.06
701.478	0.73
701.709	0.74
701.939	-2.03
702.17	-0.56
702.401	1.79
702.631	2.77
702.862	1.34
703.092	1.64
703.323	4.14
703.553	5.26
703.784	4
704.014	4.78
704.244	1.18
704.475	1.53
704.705	2.7
704.936	3.67
705.166	4.09
705.396	6.66
705.627	8.52
705.857	9.48
706.087	10.34
706.317	8.06
706.548	7.58
706.778	7.04
707.008	9.46
707.238	11.06
707.468	9.64
707.698	8.42
707.928	8.48
708.158	7.7
708.389	7.2
708.619	6.77
708.849	6.8
709.079	8.91
709.309	8.01
709.539	6.78
709.768	7.32
709.998	10.6
710.228	9.18
710.458	7.19
710.688	5.05
710.918	6.34
711.148	4.92
711.378	5.16
711.607	2.93
711.837	2.71
712.067	2.5
712.297	1.11
712.526	1.62
712.756	1.21
712.986	-2.34
713.215	-4.62
713.445	-4.04
713.674	-3.17
713.904	-3.32
714.134	-3.23
714.363	-4.22
714.593	-4.78
714.822	-5.08
715.052	-4.93
715.281	-4.74
715.511	-6.71
715.74	-8.01
715.969	-9.59
716.199	-10.69
716.428	-10.69
716.657	-12.44
716.887	-11.14
717.116	-13.8
717.345	-13.1
717.575	-12.91
717.804	-12.05
718.033	-13.44
718.262	-13.79
718.492	-12.82
718.721	-12.31
718.95	-13.39
719.179	-15.77
719.408	-15.84
719.637	-19.82
719.866	-22.15
720.095	-19.96
720.324	-19.81
720.553	-21.71
720.782	-23.54
721.011	-24.71
721.24	-26.87
721.469	-27.17
721.698	-26.55
721.927	-26.76
722.156	-27.79
722.385	-27
722.613	-23.61
722.842	-22.99
723.071	-20.44
723.3	-18.34
723.529	-19.29
723.757	-18.79
723.986	-21.86
724.215	-21.43
724.443	-19.7
724.672	-17.5
724.901	-17.52
725.129	-15.98
725.358	-14.91
725.586	-16
725.815	-14.68
726.043	-15.66
726.272	-15.33
726.5	-15.18
726.729	-13.85
726.957	-15.46
727.186	-17.25
727.414	-17.48
727.642	-15.46
727.871	-13.22
728.099	-12.43
728.327	-11.64
728.556	-10.38
728.784	-10.08
729.012	-11.56
729.241	-9.59
729.469	-9.65
729.697	-10.97
729.925	-10.79
730.153	-12.73
730.381	-13.71
730.61	-14.48
730.838	-15.2
731.066	-14.29
731.294	-14.64
731.522	-17.89
731.75	-20.62
731.978	-20.15
732.206	-20.75
732.434	-20.93
732.662	-20.01
732.89	-22.71
733.118	-22.46
733.346	-22.37
733.573	-22.4
733.801	-21.32
734.029	-15.32
734.257	-14.58
734.485	-11.68
734.712	-10.76
734.94	-12.73
735.168	-10.76
735.396	-11.12
735.623	-11.28
735.851	-9.98
736.078	-7.78
736.306	-7.45
736.534	-8.17
736.761	-8.4
736.989	-10.54
737.216	-10.68
737.444	-12.51
737.671	-11.46
737.899	-8.3
738.126	-9.05
738.354	-8.11
738.581	-7.33
738.809	-7.72
739.036	-9.91
739.263	-9.37
739.491	-11.53
739.718	-12.01
739.945	-8.34
740.173	-7.25
740.4	-7.86
740.627	-8.86
740.854	-8.96
741.081	-11.65
741.309	-12.75
741.536	-15.51
741.763	-16.9
741.99	-14.84
742.217	-15.64
742.444	-16.38
742.671	-15.91
742.898	-15.71
743.125	-18.29
743.352	-20.62
743.579	-20.71
743.806	-20.86
744.033	-18.42
744.26	-17.14
744.487	-16.73
744.714	-16.1
744.941	-16.06
745.167	-13.9
745.394	-14.8
745.621	-13.86
745.848	-13.23
746.075	-10.66
746.301	-9.49
746.528	-5.45
746.755	-6.03
746.981	-5.63
747.208	-3.83
747.435	-1.46
747.661	-0.87
747.888	-0.82
748.114	-2.92
748.341	-0.18
748.567	0.53
748.794	-1.58
749.02	-2.64
749.247	-4.62
749.473	-4.75
749.7	-5.02
749.926	-6.85
750.152	-1.95
750.379	-1.69
750.605	-0.99
750.831	-1.29
751.058	-2.57
751.284	-4.53
751.51	-1.64
751.737	-2.21
751.963	-4.09
752.189	-4.5
752.415	-4.76
752.641	-5.93
752.867	-5.6
753.094	-6.79
753.32	-6.6
753.546	-7.7
753.772	-6.46
753.998	-8.79
754.224	-10.37
754.45	-11.03
754.676	-11.73
754.902	-12.06
755.128	-11.13
755.354	-13.63
755.579	-12.61
755.805	-10
756.031	-11.61
756.257	-11.65
756.483	-11.49
756.709	-14.3
756.934	-13.87
757.16	-16.18
757.386	-16.09
757.612	-17.41
757.837	-17.33
758.063	-16.4
758.289	-13.5
758.514	-15.33
758.74	-16.47
758.965	-17.35
759.191	-16.96
759.416	-15.83
759.642	-15.4
759.868	-15.25
760.093	-13.98
760.318	-15.55
760.544	-15.25
760.769	-16.62
760.995	-16.79
761.22	-15.88
761.445	-14.63
761.671	-12.25
761.896	-10.83
762.121	-10.01
762.347	-8.72
762.572	-11.58
762.797	-11.5
763.022	-11.16
763.248	-8.18
763.473	-8.3
763.698	-7.02
763.923	-6.31
764.148	-7
764.373	-6.33
764.598	-5.63
764.823	-4.93
765.048	-6.49
765.273	-10.17
765.498	-11.12
765.723	-9.91
765.948	-8.53
766.173	-9.97
766.398	-9.22
766.623	-9.7
766.848	-10.07
767.073	-10.71
767.298	-10.98
767.522	-12.31
767.747	-10.44
767.972	-11.05
768.197	-11.22
768.421	-13.53
768.646	-16.66
768.871	-18.62
769.095	-19.01
769.32	-16.92
769.545	-16.26
769.769	-15.66
769.994	-14.67
770.218	-17.33
770.443	-15.38
770.667	-15.19
770.892	-14.34
771.116	-16.1
771.341	-15.27
771.565	-16.07
771.79	-14.93
772.014	-14.2
772.238	-14.34
772.463	-13.59
772.687	-13.88
772.911	-14.58
773.136	-16.44
773.36	-16.22
773.584	-16.46
773.808	-17.34
774.033	-17.09
774.257	-17.4
774.481	-17.17
774.705	-18.79
774.929	-18.98
775.153	-19.46
775.377	-18.07
775.602	-17.05
775.826	-15.71
776.05	-15.23
776.274	-17.85
776.498	-16.11
776.722	-16.09
776.945	-15.43
777.169	-14.98
777.393	-17.49
777.617	-16.21
777.841	-16.63
778.065	-13.18
778.289	-14.34
778.512	-15.28
778.736	-15.8
778.96	-16.04
779.184	-12.71
779.407	-11.9
779.631	-11.23
779.855	-11.01
780.078	-9.51
780.302	-11.75
780.526	-12.44
780.749	-12.4
780.973	-11.9
781.196	-11.04
781.42	-12.33
781.643	-11.57
781.867	-9.99
782.09	-12.11
782.314	-12.39
782.537	-11.97
782.76	-13
782.984	-11.72
783.207	-11.22
783.431	-11.95
783.654	-14.36
783.877	-15.21
784.1	-15.84
784.324	-15.43
784.547	-16.95
784.77	-19.96
784.993	-22.17
785.216	-22.55
785.44	-21.2
785.663	-22.54
785.886	-20.25
786.109	-22.05
786.332	-22.57
786.555	-23.58
786.778	-22.6
787.001	-22.04
787.224	-20.51
787.447	-19.25
787.67	-18.86
787.893	-19.01
788.116	-19.81
788.339	-18.08
788.561	-18.87
788.784	-22.17
789.007	-21.98
789.23	-24.32
789.453	-25.27
789.675	-26.51
789.898	-27.68
790.121	-29.17
790.344	-29.49
790.566	-28.34
790.789	-28.53
791.012	-29.05
791.234	-26.4
791.457	-22.93
791.679	-21.74
791.902	-20.73
792.124	-22.01
792.347	-22.82
792.569	-23.64
792.792	-26.93
793.014	-24.07
793.237	-23.26
793.459	-21.73
793.681	-22.6
793.904	-23.08
794.126	-24.67
794.348	-24.85
794.571	-23.52
794.793	-24.16
795.015	-23.59
795.237	-25.31
795.46	-24.02
795.682	-22.71
795.904	-21.61
796.126	-20.93
796.348	-20.73
796.57	-18.5
796.792	-18
797.014	-13.64
797.237	-12.69
797.459	-11.91
797.681	-10.87
797.903	-11.88
798.124	-12.25
798.346	-5.09
798.568	-3.86
798.79	-2.16
799.012	-0.33
799.234	0.82
799.456	2.85
799.678	5.55
799.899	3.14
800.121	1.89
800.343	1.77
800.565	2.19
800.786	3.22
801.008	4.48
801.23	3.24
801.451	3.89
801.673	2.06
801.895	2.34
802.116	4.66
802.338	3.77
802.559	3.6
802.781	3.23
803.002	3.77
803.224	5.64
803.445	4.42
803.667	4.31
803.888	1.02
804.109	0.34
804.331	0.21
804.552	0.07
804.773	2.38
804.995	1.13
805.216	-9.38
805.437	-11.5
805.658	-12.87
805.88	-13.9
806.101	-13.64
806.322	-14.4
806.543	-15.76
806.764	-18.24
806.985	-17.34
807.207	-18.19
807.428	-18.69
807.649	-22.35
807.87	-23.68
808.091	-22.05
808.312	-22.22
808.533	-17.66
808.754	-16.93
808.975	-18.97
809.195	-16.81
809.416	-15.31
809.637	-15.8
809.858	-17.55
810.079	-20.25
810.3	-18.62
810.52	-19.02
810.741	-20.03
810.962	-20.75
811.183	-20.86
811.403	-21.12
811.624	-22.3
811.845	-21.14
812.065	-20.73
812.286	-19.97
812.506	-19.75
812.727	-19.82
812.948	-19.3
813.168	-18.38
813.389	-17.95
813.609	-14.9
813.83	-15.93
814.05	-15.91
814.27	-14.31
814.491	-10.78
814.711	-9.93
814.931	-10.95
815.152	-12.51
815.372	-14.2
815.592	-13.87
815.813	-14.54
816.033	-16.11
816.253	-16.35
816.473	-16.52
816.694	-13.35
816.914	-11.9
817.134	-12.32
817.354	-12.26
817.574	-10.44
817.794	-10.27
818.014	-12.17
818.234	-12.47
818.454	-12.69
818.674	-15.14
818.894	-16.36
819.114	-14.49
819.334	-14.07
819.554	-12.32
819.774	-10.5
819.994	-11.47
820.214	-13.39
820.433	-13.31
820.653	-12.94
820.873	-11.92
821.093	-11.45
821.312	-13.12
821.532	-11.48
821.752	-10.75
821.972	-11.27
822.191	-11.37
822.411	-13.6
822.63	-12.83
822.85	-11.23
823.07	-13.62
823.289	-12.54
823.509	-14.67
823.728	-13.65
823.948	-15.75
824.167	-17.21
824.387	-19.84
824.606	-18.53
824.825	-18.32
825.045	-17.38
825.264	-16.86
825.483	-14.24
825.703	-12.39
825.922	-13.33
826.141	-14.6
826.361	-15.66
826.58	-19.4
826.799	-20.87
827.018	-18.41
827.237	-18.16
827.456	-16.35
827.676	-17.05
827.895	-17.32
828.114	-16.45
828.333	-17.46
828.552	-17.62
828.771	-15.52
828.99	-15.44
829.209	-15.43
829.428	-13.27
829.647	-14.63
829.866	-13.4
830.084	-13.79
830.303	-14.04
830.522	-14.32
830.741	-13.68
830.96	-12.45
831.179	-10.16
831.397	-11.24
831.616	-10.98
831.835	-10.43
832.053	-9.44
832.272	-10.21
832.491	-9.54
832.709	-11.71
832.928	-11.04
833.147	-9.47
833.365	-8.53
833.584	-6.44
833.802	-4.92
834.021	-5.28
834.239	-4.55
834.458	-5.46
834.676	-9.3
834.894	-10.69
835.113	-11.3
835.331	-11.56
835.55	-12.73
835.768	-13.74
835.986	-12.32
836.204	-14.48
836.423	-13.47
836.641	-15.19
836.859	-16.56
837.077	-15.4
837.296	-15
837.514	-15.19
837.732	-16.29
837.95	-17.32
838.168	-15.23
838.386	-14.5
838.604	-13.72
838.822	-13.96
839.04	-14.73
839.258	-13.54
839.476	-10.34
839.694	-10.32
839.912	-12.02
840.13	-10.8
840.348	-7.95
840.566	-11.16
840.783	-10.18
841.001	-12.47
841.219	-10.42
841.437	-9.04
841.655	-6.57
841.872	-6.64
842.09	-6.02
842.308	-4.41
842.525	-3.39
842.743	-2.31
842.961	-2.78
843.178	-4.08
843.396	1.17
843.613	2.16
843.831	2.44
844.048	1.64
844.266	1.91
844.483	2.1
844.701	0.65
844.918	0.27
845.136	-1.06
845.353	-2.52
845.57	-2.15
845.788	-0.34
846.005	-3.18
846.222	-4.32
846.439	-4.34
846.657	-4.72
846.874	-5.68
847.091	-8.26
847.308	-7.1
847.526	-7.79
847.743	-7.88
847.96	-10.36
848.177	-9.73
848.394	-10.18
848.611	-11.37
848.828	-12.61
849.045	-14.13
849.262	-13.97
849.479	-15.15
849.696	-15.59
849.913	-16.24
850.13	-21.19
850.347	-18.77
850.564	-19.45
850.78	-20.76
850.997	-22.37
851.214	-21.71
851.431	-19.9
851.647	-22.86
851.864	-21.44
852.081	-20.54
852.298	-23.85
852.514	-26.04
852.731	-23.93
852.948	-21.77
853.164	-21.49
853.381	-20.59
853.597	-20.63
853.814	-21.54
854.03	-22.91
854.247	-21.37
854.463	-21.72
854.68	-21.04
854.896	-20.06
855.113	-20.82
855.329	-20.54
855.545	-19.76
855.762	-19.74
855.978	-21.78
856.194	-22.39
856.411	-19.85
856.627	-19.67
856.843	-17.33
857.059	-16.58
857.275	-17.38
857.492	-15.63
857.708	-12.16
857.924	-12.48
858.14	-11.18
858.356	-11.73
858.572	-12.21
858.788	-13.91
859.004	-12.06
859.22	-12.84
859.436	-14.07
859.652	-15.92
859.868	-16.44
860.084	-17.05
860.3	-16.8
860.516	-18.21
860.731	-17.9
860.947	-20.51
861.163	-19.47
861.379	-18.54
861.595	-17.85
861.81	-15.97
862.026	-14.86
862.242	-15.15
862.457	-15.38
862.673	-14.43
862.889	-14.81
863.104	-15.58
863.32	-14.24
863.535	-14.58
863.751	-17.96
863.966	-14.85
864.182	-13.83
864.397	-15.84
864.613	-16.14
864.828	-17.44
865.044	-15.15
865.259	-13.3
865.474	-12.35
865.69	-11.05
865.905	-10.09
866.12	-11.7
866.336	-12.28
866.551	-11.38
866.766	-11.79
866.981	-12.87
867.196	-11.89
867.412	-11.66
867.627	-11.53
867.842	-11.97
868.057	-11.99
868.272	-13.43
868.487	-15.45
868.702	-16.62
868.917	-16.14
869.132	-16.26
869.347	-16.96
869.562	-16.79
869.777	-16.47
869.992	-18.46
870.207	-18.97
870.422	-18.86
870.636	-21.3
870.851	-22.32
871.066	-22.9
871.281	-22.95
871.495	-23.07
871.71	-22.03
871.925	-25.14
872.14	-26.22
872.354	-27.36
872.569	-27.22
872.783	-24.26
872.998	-24.81
873.213	-25.17
873.427	-22.81
873.642	-21.62
873.856	-21.52
874.071	-22.32
874.285	-22.74
874.5	-23.73
874.714	-26.27
874.928	-26.13
875.143	-26.11
875.357	-26.54
875.571	-27.41
875.786	-26.31
876	-22.66
876.214	-22.8
876.429	-24.21
876.643	-22.85
876.857	-22.17
877.071	-22.38
877.285	-22.77
877.499	-25.42
877.714	-23.15
877.928	-21.54
878.142	-23.09
878.356	-25.15
878.57	-24.26
878.784	-22.44
878.998	-23.17
879.212	-22.32
879.426	-24.96
879.639	-23.77
879.853	-24.22
880.067	-25.01
880.281	-26.47
880.495	-25.56
880.709	-23.83
880.922	-22.41
881.136	-20.78
881.35	-18.01
881.564	-19.16
881.777	-20.85
881.991	-20.2
882.205	-17.78
882.418	-18.59
882.632	-21.54
882.845	-21.82
883.059	-21.38
883.273	-21.71
883.486	-22.01
883.7	-20.02
883.913	-18.48
884.126	-17.16
884.34	-19.19
884.553	-20.62
884.767	-17.51
884.98	-17.06
885.193	-16.96
885.407	-17.42
885.62	-15.57
885.833	-15.46
886.046	-13.16
886.26	-13.53
886.473	-14.72
886.686	-16.32
886.899	-14.69
887.112	-16.14
887.326	-17.46
887.539	-18.03
887.752	-17.76
887.965	-20.3
888.178	-19.16
888.391	-17.3
888.604	-17.01
888.817	-18.35
889.03	-17.39
889.243	-18.03
889.455	-17.94
889.668	-17.07
889.881	-14.72
890.094	-15.49
890.307	-16.32
890.52	-15.71
890.732	-14.37
890.945	-15.49
891.158	-15.4
891.37	-17.21
891.583	-17.24
891.796	-16.55
892.008	-17.77
892.221	-18.98
892.434	-22.06
892.646	-23.03
892.859	-23.72
893.071	-22.11
893.284	-19.85
893.496	-19.6
893.709	-18.56
893.921	-18.18
894.133	-18.65
894.346	-19.76
894.558	-18.01
894.771	-16.92
894.983	-17
895.195	-15.76
895.407	-15.77
895.62	-18.77
895.832	-17.64
896.044	-15.7
896.256	-16.63
896.468	-18.16
896.681	-15.85
896.893	-15.78
897.105	-16.63
897.317	-17.78
897.529	-16.38
897.741	-16.44
897.953	-14.75
898.165	-14.47
898.377	-15.57
898.589	-15.21
898.801	-15.35
899.013	-13.59
899.224	-12.44
899.436	-10.41
899.648	-10.78
899.86	-12.44
900.072	-10.33
900.283	-10.3
900.495	-8.7
900.707	-6.59
900.919	-7.19
901.13	-8.06
901.342	-10.59
901.554	-9.5
901.765	-9.95
901.977	-10.77
902.188	-10
902.4	-11.52
902.611	-12.73
902.823	-14.71
903.034	-16.2
903.246	-18.62
903.457	-19.27
903.669	-19.84
903.88	-18.64
904.091	-18.08
904.303	-17.25
904.514	-18.32
904.725	-17.33
904.936	-17.32
905.148	-17.08
905.359	-15.21
905.57	-14.46
905.781	-15.28
905.992	-16
906.204	-15.98
906.415	-14.98
906.626	-17.52
906.837	-16.07
907.048	-17.95
907.259	-19.66
907.47	-21.37
907.681	-21.05
907.892	-18.21
908.103	-19.68
908.314	-21.14
908.525	-18.77
908.735	-18.69
908.946	-18.55
909.157	-19.12
909.368	-16.21
909.579	-15.89
909.789	-16.79
910	-17.4
910.211	-15.41
910.421	-17.29
910.632	-17.06
910.843	-19.89
911.053	-17.85
911.264	-16.67
911.475	-17.55
911.685	-17.01
911.896	-17.08
912.106	-17.09
912.317	-18.61
912.527	-18.9
912.737	-19.68
912.948	-20.69
913.158	-21.43
913.369	-23.52
913.579	-20.93
913.789	-20.84
914	-17.49
914.21	-17.53
914.42	-18.32
914.63	-18.82
914.841	-19.3
915.051	-19.81
915.261	-19.06
915.471	-17.91
915.681	-17.3
915.891	-17.55
916.101	-17.58
916.311	-17.16
916.521	-17.32
916.731	-18.45
916.941	-16.47
917.151	-16.65
917.361	-13.51
917.571	-16.35
917.781	-17.13
917.991	-18.39
918.201	-18.55
918.411	-20.56
918.621	-21.38
918.83	-20.17
919.04	-20.23
919.25	-17.68
919.46	-15.78
919.669	-17.36
919.879	-16.31
920.089	-19.05
920.298	-20.01
920.508	-20.37
920.717	-21.09
920.927	-22.39
921.136	-21.87
921.346	-22.15
921.555	-23.78
921.765	-23.78
921.974	-24.03
922.184	-26.61
922.393	-28.2
922.603	-29.81
922.812	-27.72
923.021	-27.06
923.23	-27.57
923.44	-29.84
923.649	-31.29
923.858	-32.42
924.067	-32.21
924.277	-34.39
924.486	-31.99
924.695	-33.35
924.904	-31.58
925.113	-30.77
925.322	-29.52
925.531	-28.88
925.74	-31.51
925.949	-32.93
926.158	-30.7
926.367	-31.54
926.576	-29.9
926.785	-30.24
926.994	-30.5
927.203	-28.42
927.412	-29.63
927.621	-30.5
927.83	-28.07
928.038	-27.37
928.247	-26.44
928.456	-27.22
928.665	-26.61
928.873	-24.56
929.082	-22.34
929.291	-21.95
929.499	-21.99
929.708	-22.95
929.916	-21.45
930.125	-20.62
930.333	-20.61
930.542	-18.13
930.75	-15.61
930.959	-15.05
931.167	-14.29
931.376	-15.86
931.584	-15.55
931.793	-14.48
932.001	-16.21
932.209	-16.39
932.418	-17.06
932.626	-17.84
932.834	-18.35
933.042	-20.48
933.251	-19.46
933.459	-20.4
933.667	-21.88
933.875	-21.03
934.083	-19.46
934.291	-18.75
934.499	-18.61
934.707	-19.68
934.915	-19.21
935.123	-16.86
935.331	-17.33
935.539	-19.31
935.747	-19.76
935.955	-19.08
936.163	-18.64
936.371	-18.1
936.579	-16.61
936.787	-17.18
936.995	-19.79
937.202	-22.05
937.41	-22.9
937.618	-23.27
937.826	-22.13
938.033	-24.84
938.241	-28.27
938.449	-27.04
938.656	-25.14
938.864	-25.64
939.071	-25.58
939.279	-22.66
939.486	-21.22
939.694	-22.49
939.901	-24.56
940.109	-22.69
940.316	-21.4
940.524	-22.74
940.731	-24.23
940.939	-24.84
941.146	-24.44
941.353	-25.36
941.561	-25.55
941.768	-25.79
941.975	-23.53
942.182	-24.65
942.39	-24.73
942.597	-24.04
942.804	-24.61
943.011	-26.19
943.218	-25.15
943.425	-24.16
943.632	-22.51
943.839	-22.01
944.046	-22.66
944.253	-22.83
944.46	-22.23
944.667	-18.9
944.874	-17.68
945.081	-16.72
945.288	-15.15
945.495	-15.15
945.702	-16.57
945.909	-17.79
946.115	-16.75
946.322	-14.67
946.529	-17.14
946.736	-17.56
946.942	-15.44
947.149	-15.81
947.356	-15.53
947.562	-16.63
947.769	-16.53
947.976	-18.46
948.182	-16.86
948.389	-18.73
948.595	-18.05
948.802	-17.21
949.008	-16.77
949.215	-16.26
949.421	-16.58
949.628	-18.42
949.834	-18.9
950.04	-19.13
950.247	-16.58
950.453	-16.46
950.659	-17.46
950.865	-16.35
951.072	-20.51
951.278	-20.36
951.484	-21.62
951.69	-24.71
951.896	-23.87
952.103	-23.87
952.309	-22.31
952.515	-21.9
952.721	-21.69
952.927	-19.68
953.133	-20.94
953.339	-23.33
953.545	-23.93
953.751	-24.71
953.957	-22.4
954.163	-23.5
954.369	-22.73
954.574	-25.79
954.78	-25.51
954.986	-24.45
955.192	-24.47
955.398	-24.89
955.603	-26.82
955.809	-24.71
956.015	-23.99
956.22	-23.3
956.426	-24.04
956.632	-25.27
956.837	-24.36
957.043	-24.38
957.248	-23.17
957.454	-21.48
957.66	-22.87
957.865	-24.39
958.07	-22.76
958.276	-24.05
958.481	-25.51
958.687	-28.07
958.892	-28.58
959.097	-30.24
959.303	-30.83
959.508	-31.6
959.713	-29.98
959.919	-29.23
960.124	-29.54
960.329	-30.07
960.534	-27.02
960.739	-26
960.945	-24.75
961.15	-25.16
961.355	-26.54
961.56	-28.97
961.765	-31.26
961.97	-30.69
962.175	-29.3
962.38	-31.26
962.585	-31.09
962.79	-32.39
962.995	-34.55
963.2	-35.66
963.404	-35.56
963.609	-38.16
963.814	-38.95
964.019	-40.73
964.224	-41.36
964.428	-38.83
964.633	-37.57
964.838	-36.92
965.042	-35.17
965.247	-36.2
965.452	-34.09
965.656	-32.93
965.861	-31.24
966.066	-33.01
966.27	-31.43
966.475	-28.37
966.679	-31.72
966.884	-31.6
967.088	-32.58
967.292	-32.11
967.497	-30.93
967.701	-31.44
967.906	-29.83
968.11	-25.55
968.314	-22.47
968.518	-25.32
968.723	-23.94
968.927	-23.42
969.131	-22.29
969.335	-20.2
969.539	-19.05
969.744	-17.62
969.948	-14.72
970.152	-13.52
970.356	-13.12
970.56	-11.9
970.764	-13.55
970.968	-11.27
971.172	-10.8
971.376	-10.23
971.58	-8.92
971.784	-8.34
971.988	-11.22
972.192	-9.57
972.395	-10.13
972.599	-12.48
972.803	-13.12
973.007	-11.06
973.21	-11.14
973.414	-11.3
973.618	-11.5
973.822	-11.07
974.025	-11.05
974.229	-10.98
974.432	-14.84
974.636	-17.94
974.84	-17
975.043	-15.91
975.247	-17.47
975.45	-18.18
975.654	-17.67
975.857	-16.5
976.06	-16.77
976.264	-19.79
976.467	-18.34
976.671	-17.56
976.874	-16.43
977.077	-17.53
977.28	-19.13
977.484	-21.03
977.687	-21.8
977.89	-21.34
978.093	-22.56
978.297	-20.19
978.5	-21.44
978.703	-19.51
978.906	-17.15
979.109	-18.3
979.312	-17.48
979.515	-19.45
979.718	-18.72
979.921	-20.49
980.124	-20.96
980.327	-21.65
980.53	-22.67
980.733	-21.11
980.936	-18.79
981.138	-19.4
981.341	-17.83
981.544	-17.42
981.747	-17.44
981.949	-19.1
982.152	-19.62
982.355	-20.41
982.558	-16.67
982.76	-19.36
982.963	-19.57
983.165	-19.57
983.368	-18.01
983.571	-18.73
983.773	-16.98
983.976	-16.36
984.178	-15.66
984.381	-14.58
984.583	-17.27
984.785	-16.79
984.988	-13.8
985.19	-13.42
985.392	-13.6
985.595	-15.72
985.797	-14.26
985.999	-13.39
986.202	-9.37
986.404	-10.76
986.606	-7.84
986.808	-7.95
987.01	-7.59
987.212	-8.39
987.415	-9.72
987.617	-9.65
987.819	-10.41
988.021	-8.77
988.223	-9.86
988.425	-10.83
988.627	-10.21
988.829	-12.93
989.031	-11.58
989.232	-12.77
989.434	-12.85
989.636	-13.57
989.838	-12.97
990.04	-10.76
990.242	-12.06
990.443	-13.59
990.645	-13.59
990.847	-11.57
991.048	-12.38
991.25	-15.25
991.452	-16.96
991.653	-18.37
991.855	-17.57
992.057	-18.41
992.258	-17.95
992.46	-20.19
992.661	-18.35
992.863	-19.32
993.064	-18.25
993.265	-18.35
993.467	-18.3
993.668	-16.87
993.87	-17.33
994.071	-16.53
994.272	-17.68
994.473	-16
994.675	-15.42
994.876	-15.71
995.077	-15.49
995.278	-14.68
995.48	-14.25
995.681	-15.38
995.882	-14.02
996.083	-15.1
996.284	-18.17
996.485	-17.84
996.686	-19.57
996.887	-19.67
997.088	-22.2
997.289	-23.01
997.49	-23.68
997.691	-22.66
997.892	-22.28
998.092	-19.02
998.293	-19.45
998.494	-20.68
998.695	-20.31
998.896	-20.03
999.096	-20.46
999.297	-19.9
999.498	-20.52
999.698	-23.21
999.899	-24.87
1000.1	-26.86
1000.3	-27.56
1000.501	-27.9
1000.701	-29.52
1000.902	-30.26
1001.102	-30.39
1001.303	-28.85
1001.503	-30.18
1001.704	-28.86
1001.904	-28.66
1002.105	-29.35
1002.305	-28.44
1002.505	-30.1
1002.706	-29.9
1002.906	-28.65
1003.106	-29.2
1003.306	-28.02
1003.507	-26.88
1003.707	-27.14
1003.907	-26.31
1004.107	-24.59
1004.307	-26.63
1004.507	-24.65
1004.707	-24.49
1004.907	-26.42
1005.107	-27.08
1005.308	-27.22
1005.507	-29.29
1005.707	-27.79
1005.907	-27.74
1006.107	-25.59
1006.307	-25.25
1006.507	-24.63
1006.707	-23.1
1006.907	-21.98
1007.106	-21.43
1007.306	-22.48
1007.506	-23.27
1007.706	-23.5
1007.905	-24.4
1008.105	-24.74
1008.305	-26.31
1008.504	-26.26
1008.704	-21.25
1008.903	-20.54
1009.103	-18.98
1009.303	-20.34
1009.502	-19.1
1009.702	-19.34
1009.901	-19.13
1010.1	-21.85
1010.3	-20.67
1010.499	-21.18
1010.699	-22.71
1010.898	-24.73
1011.097	-23.72
1011.296	-23.51
1011.496	-24.07
1011.695	-23.67
1011.894	-24.72
1012.093	-20.48
1012.293	-21.35
1012.492	-21.05
1012.691	-21.52
1012.89	-22.25
1013.089	-22.67
1013.288	-22.34
1013.487	-20.95
1013.686	-20.89
1013.885	-22.86
1014.084	-21.85
1014.283	-21.9
1014.482	-21.29
1014.681	-21.04
1014.88	-24.41
1015.078	-23.61
1015.277	-26.45
1015.476	-26.34
1015.675	-25.79
1015.873	-25.24
1016.072	-25.45
1016.271	-22.44
1016.47	-25.76
1016.668	-25.61
1016.867	-26.94
1017.065	-27.1
1017.264	-26.8
1017.463	-26.65
1017.661	-27.24
1017.86	-26.56
1018.058	-25.57
1018.256	-28.45
1018.455	-29.28
1018.653	-28.58
1018.852	-27.9
1019.05	-29.91
1019.248	-32.71
1019.447	-32.61
1019.645	-34
1019.843	-35.24
1020.041	-33.1
1020.24	-33.22
1020.438	-31.58
1020.636	-32.62
1020.834	-34.31
1021.032	-31.94
1021.23	-33.15
1021.428	-30.85
1021.626	-28.1
1021.824	-28.74
1022.022	-29.39
1022.22	-28.26
1022.418	-27.75
1022.616	-27.92
1022.814	-27.95
1023.012	-27.03
1023.21	-25.75
1023.408	-27.14
1023.606	-27.17
1023.803	-23.29
1024.001	-23.62
1024.199	-25.22
1024.397	-24.45
1024.594	-24.3
1024.792	-25.33
1024.99	-25.21
1025.187	-23.71
1025.385	-19.27
1025.582	-20.11
1025.78	-19.85
1025.977	-18.78
1026.175	-18.47
1026.372	-19.57
1026.57	-19.79
1026.767	-18.42
1026.965	-18.04
1027.162	-18.55
1027.359	-18.68
1027.557	-17.68
1027.754	-20.67
1027.951	-20.86
1028.148	-20.52
1028.346	-22.04
1028.543	-25.23
1028.74	-24.85
1028.937	-27.55
1029.134	-28.91
1029.331	-28.62
1029.528	-27.12
1029.725	-28.7
1029.923	-29.95
1030.12	-26.9
1030.317	-27.08
1030.513	-26.47
1030.71	-24.84
1030.907	-23.55
1031.104	-23.19
1031.301	-23.89
1031.498	-23.62
1031.695	-23.87
1031.892	-23.38
1032.088	-23.03
1032.285	-24.26
1032.482	-24.84
1032.678	-27.45
1032.875	-27.57
1033.072	-26.63
1033.268	-27.15
1033.465	-26.38
1033.662	-28.12
1033.858	-26.96
1034.055	-26.82
1034.251	-25.21
1034.448	-25.21
1034.644	-23.73
1034.84	-22.15
1035.037	-19.67
1035.233	-18.56
1035.43	-18.84
1035.626	-19.83
1035.822	-18.84
1036.019	-20.33
1036.215	-24.59
1036.411	-23.99
1036.607	-24.49
1036.803	-26.16
1037	-27.19
1037.196	-29.66
1037.392	-29.56
1037.588	-31.33
1037.784	-28.83
1037.98	-28.75
1038.176	-28.74
1038.372	-28.26
1038.568	-26.64
1038.764	-24.82
1038.96	-24.1
1039.156	-25.24
1039.352	-25.84
1039.547	-25.57
1039.743	-25.02
1039.939	-23.34
1040.135	-22.82
1040.331	-22.86
1040.526	-21.77
1040.722	-22.59
1040.918	-24.54
1041.113	-26.17
1041.309	-26.17
1041.505	-26.97
1041.7	-25.82
1041.896	-26.08
1042.091	-26.86
1042.287	-25.68
1042.482	-25.63
1042.678	-26.03
1042.873	-25.38
1043.069	-25.11
1043.264	-23.17
1043.459	-22.48
1043.655	-21.94
1043.85	-24.2
1044.045	-23.81
1044.24	-24.44
1044.436	-24.08
1044.631	-24.46
1044.826	-25.03
1045.021	-26
1045.216	-25.6
