Data from FLMT021711__22__16-32-40-840.txt Node

Date: Tue Nov 05 16:32:40 CET 2024
User: Etudiants TP
Spectrometer: FLMT02171
Trigger mode: 0
Integration Time (sec): 1.000000E-1
Scans to average: 5
Electric dark correction enabled: true
Nonlinearity correction enabled: false
Boxcar width: 15
XAxis mode: Wavelengths
Number of Pixels in Spectrum: 3648
>>>>>Begin Spectral Data<<<<<
194.658	-49.73
194.923	-49.63
195.188	-44.06
195.453	-42.35
195.717	-37.31
195.982	-36.54
196.247	-34.39
196.512	-36.7
196.777	-35.86
197.042	-34.22
197.307	-34.41
197.572	-31.15
197.837	-31.48
198.101	-29.64
198.366	-28.08
198.631	-26.06
198.896	-21.57
199.161	-16.3
199.425	-11.39
199.69	-3.45
199.955	-2.62
200.22	-5.85
200.484	-5.33
200.749	-6.82
201.014	-6.52
201.278	-6.76
201.543	-5.98
201.807	-7.14
202.072	-5.48
202.337	-5.47
202.601	-6.33
202.866	-6.49
203.13	-4.14
203.395	-5.65
203.659	-6.2
203.924	-8.18
204.189	-8.68
204.453	-8.49
204.717	-5.49
204.982	-4.95
205.246	-4.04
205.511	-2.63
205.775	-2.98
206.04	2.11
206.304	2.08
206.568	4.58
206.833	2.93
207.097	3.91
207.361	5.52
207.626	9.29
207.89	8.54
208.154	8.97
208.419	10.56
208.683	11.25
208.947	14.65
209.211	14.05
209.476	14.97
209.74	15.73
210.004	16.18
210.268	16.31
210.532	17.58
210.796	18.05
211.061	17.43
211.325	18.04
211.589	17.33
211.853	17.83
212.117	17.44
212.381	18.33
212.645	19
212.909	17.71
213.173	16.89
213.437	16.95
213.701	17.93
213.965	18.31
214.229	13.92
214.493	13.8
214.757	12.06
215.021	13.48
215.285	16.27
215.549	16.97
215.813	14.84
216.077	15.35
216.34	16.25
216.604	15.56
216.868	15.6
217.132	14.51
217.396	13.71
217.659	13.83
217.923	11.21
218.187	9.84
218.451	10.02
218.714	8.55
218.978	8.47
219.242	11.31
219.505	11.28
219.769	12.46
220.033	11.46
220.296	12.39
220.56	13.31
220.824	10.64
221.087	11.65
221.351	11.15
221.614	10.41
221.878	10.15
222.142	8.88
222.405	8.98
222.669	10.84
222.932	8.84
223.196	6.6
223.459	3.91
223.722	4.48
223.986	2.1
224.249	0.78
224.513	1.07
224.776	2.79
225.04	1.31
225.303	2.13
225.566	1.37
225.83	2.34
226.093	4.11
226.356	4.69
226.62	2.46
226.883	4.13
227.146	5.05
227.409	3.72
227.673	1.14
227.936	-0.15
228.199	1.38
228.462	0.78
228.725	-0.47
228.989	0.38
229.252	1.24
229.515	5.16
229.778	4.66
230.041	4.62
230.304	3.36
230.567	4.08
230.83	2.29
231.093	3.03
231.356	3.89
231.619	8.72
231.882	7.86
232.145	9.82
232.408	10.42
232.671	10.53
232.934	9.32
233.197	7.63
233.46	5.99
233.723	9
233.986	8.7
234.249	7.89
234.512	8.3
234.775	11.24
235.037	10.67
235.3	10.26
235.563	10.07
235.826	11.03
236.089	12.34
236.351	11.91
236.614	13.91
236.877	14.6
237.14	15.44
237.402	14.18
237.665	9.58
237.928	8.19
238.19	6.97
238.453	7.78
238.716	6.94
238.978	6.54
239.241	5.66
239.503	8.44
239.766	4.64
240.029	4.79
240.291	7.69
240.554	6.59
240.816	4.94
241.079	5.53
241.341	6.92
241.604	6.06
241.866	2.94
242.129	2.86
242.391	5.19
242.653	5.11
242.916	4.61
243.178	3.82
243.441	4.48
243.703	4.06
243.965	2.71
244.228	2.52
244.49	2.24
244.752	2.78
245.015	3.51
245.277	6.65
245.539	5.97
245.801	5.91
246.064	7.98
246.326	6.93
246.588	8.2
246.85	10.01
247.112	11.03
247.374	13.7
247.637	13.7
247.899	13.36
248.161	11.32
248.423	8.28
248.685	8.22
248.947	8.61
249.209	8.66
249.471	9.33
249.733	10.77
249.995	9.76
250.257	8.38
250.519	5.81
250.781	7.31
251.043	5.13
251.305	6.04
251.567	6.74
251.829	7.15
252.091	7.84
252.353	5.86
252.615	6.48
252.876	4.41
253.138	3.25
253.4	-0.93
253.662	-0.05
253.924	2.39
254.185	0.96
254.447	1.65
254.709	1.22
254.971	1.69
255.232	3.14
255.494	0.46
255.756	-1.33
256.017	-0.16
256.279	1.78
256.541	2.27
256.802	2.61
257.064	3.89
257.326	2.06
257.587	2.26
257.849	2.5
258.11	3.71
258.372	4.35
258.633	5.33
258.895	4.43
259.156	4.58
259.418	3.48
259.679	0.86
259.941	-0.99
260.202	0.49
260.464	2.15
260.725	1
260.987	-0.34
261.248	0.35
261.509	2.11
261.771	2.49
262.032	3.4
262.293	3.93
262.555	2.7
262.816	1.47
263.077	-0.69
263.338	-3.07
263.6	-1.01
263.861	-2.61
264.122	-3.82
264.383	-1.79
264.645	-1.02
264.906	-1.77
265.167	-1.37
265.428	-0.32
265.689	1.06
265.95	-0.05
266.211	1.94
266.473	1.01
266.734	-1.5
266.995	-4.5
267.256	-3.31
267.517	-1.41
267.778	0.58
268.039	1.77
268.3	1.23
268.561	-0.63
268.822	2.61
269.083	1.83
269.344	-1.12
269.604	-3.02
269.865	-3.76
270.126	-5.85
270.387	-3.62
270.648	-1.1
270.909	-1.26
271.17	-2.83
271.43	-5.37
271.691	-7.78
271.952	-7.18
272.213	-5.59
272.473	-8.81
272.734	-8.07
272.995	-6.77
273.256	-7.2
273.516	-5.6
273.777	-6.74
274.038	-5.74
274.298	-7.41
274.559	-7.13
274.82	-3.59
275.08	-0.23
275.341	1.08
275.601	0.15
275.862	-2.24
276.122	-1.67
276.383	-1.51
276.643	0.92
276.904	-0.71
277.164	2.23
277.425	2.39
277.685	6.29
277.946	7.71
278.206	9.04
278.467	7.95
278.727	6.74
278.987	6.97
279.248	7.74
279.508	9.42
279.768	10.71
280.029	11.24
280.289	8.04
280.549	7.35
280.81	7.79
281.07	7.15
281.33	8.24
281.59	6.85
281.851	7.59
282.111	7.14
282.371	6.85
282.631	7.95
282.891	7.64
283.151	5.54
283.412	3.53
283.672	3.51
283.932	4.96
284.192	5.91
284.452	4.11
284.712	1.3
284.972	1.25
285.232	-0.26
285.492	2.88
285.752	0.4
286.012	4.43
286.272	5.6
286.532	4.58
286.792	5.55
287.052	7
287.312	8.11
287.571	7.43
287.831	7.74
288.091	5.38
288.351	6.76
288.611	9.53
288.871	8.26
289.13	8.58
289.39	6.25
289.65	6.05
289.91	4.47
290.17	6.55
290.429	9
290.689	8.44
290.949	4.35
291.208	5.88
291.468	7.57
291.728	8.92
291.987	10.54
292.247	9.38
292.506	11.96
292.766	14.09
293.026	12.33
293.285	13.35
293.545	14.83
293.804	15.4
294.064	11.62
294.323	9.13
294.583	9.79
294.842	10.71
295.102	10.56
295.361	10.6
295.621	11.76
295.88	12.17
296.139	12.82
296.399	13.81
296.658	10.65
296.917	11.11
297.177	8.22
297.436	10.07
297.695	10.27
297.955	10.41
298.214	8.53
298.473	9.86
298.732	9.92
298.992	13.25
299.251	12.72
299.51	10.82
299.769	10.96
300.028	10.11
300.287	9.65
300.547	8.46
300.806	8.54
301.065	11.53
301.324	12.61
301.583	10.74
301.842	6.83
302.101	5.01
302.36	5.36
302.619	4.71
302.878	4.91
303.137	2.82
303.396	3.93
303.655	4.06
303.914	1.67
304.173	1.76
304.432	-0.08
304.691	2.41
304.95	-0.81
305.208	3.46
305.467	3.07
305.726	1.41
305.985	1.99
306.244	3.2
306.503	1.77
306.761	0.72
307.02	-0.4
307.279	0.82
307.537	1.12
307.796	-1.41
308.055	-3.71
308.314	-1.67
308.572	-2.66
308.831	-2.58
309.09	-2.84
309.348	-2.93
309.607	-5.23
309.865	-1.38
310.124	-0.73
310.382	-0.08
310.641	1.52
310.9	-0.72
311.158	0.96
311.417	0.54
311.675	2.46
311.933	3.27
312.192	4.93
312.45	6.11
312.709	5.45
312.967	7.06
313.226	7.14
313.484	6.57
313.742	6.86
314.001	5.79
314.259	4.62
314.517	5.34
314.776	7.06
315.034	9.27
315.292	8.19
315.55	6.39
315.809	5.57
316.067	6.21
316.325	3.76
316.583	6.34
316.841	4.86
317.1	3.85
317.358	1.89
317.616	1.74
317.874	1.4
318.132	1.04
318.39	1.84
318.648	0.36
318.906	0.05
319.164	-0.72
319.422	-2.19
319.68	-4.65
319.938	-3.49
320.196	-4.07
320.454	-4.55
320.712	-3.75
320.97	-3.94
321.228	-5.74
321.486	-5.04
321.744	-4.81
322.002	-2.36
322.26	-2.74
322.517	-3.32
322.775	-5.66
323.033	-7.77
323.291	-6.29
323.549	-4.36
323.806	-2.19
324.064	-0.72
324.322	0.06
324.58	-2.62
324.837	-0.32
325.095	-2.23
325.353	-1.34
325.61	1.16
325.868	0.18
326.126	1.21
326.383	-0.4
326.641	-0.49
326.898	0.94
327.156	0.9
327.413	2.16
327.671	2.88
327.928	3.33
328.186	4.14
328.443	4.39
328.701	6.78
328.958	7.09
329.216	7.54
329.473	6.09
329.731	7.25
329.988	7.48
330.245	9.05
330.503	9.35
330.76	10.17
331.017	12.14
331.275	10.35
331.532	11.28
331.789	9.08
332.047	7.49
332.304	6.07
332.561	7.21
332.818	5.76
333.076	6.76
333.333	8.5
333.59	8.18
333.847	9.15
334.104	7.93
334.361	7.84
334.618	7.07
334.876	6.07
335.133	6.52
335.39	5.13
335.647	6.38
335.904	4.08
336.161	1.42
336.418	1.38
336.675	-2.46
336.932	-0.95
337.189	-2.79
337.446	-1.23
337.703	-1.98
337.96	-5.48
338.216	-5.31
338.473	-7.3
338.73	-7.05
338.987	-7.65
339.244	-4.3
339.501	-7.01
339.757	-5.85
340.014	-3.06
340.271	-2.79
340.528	-2.95
340.785	0.34
341.041	1.7
341.298	-1.87
341.555	-2
341.811	-1.86
342.068	-3.24
342.325	-2.67
342.581	-0.98
342.838	0.09
343.094	0.08
343.351	0.14
343.608	-1.72
343.864	1.55
344.121	3.55
344.377	3.02
344.634	3.22
344.89	1.59
345.147	2.69
345.403	1.59
345.66	0.52
345.916	2.68
346.172	0.64
346.429	0.15
346.685	-1.4
346.942	-0.33
347.198	-4.64
347.454	-3.36
347.711	-2.73
347.967	-6.25
348.223	-5.1
348.48	-4.85
348.736	-3.55
348.992	-4.81
349.248	-1.45
349.504	-1.32
349.761	-1.42
350.017	-0.13
350.273	-0.09
350.529	-1.94
350.785	-2.98
351.041	-3.69
351.297	-1.87
351.554	-2.39
351.81	-5.93
352.066	-6.34
352.322	-5.46
352.578	-5.68
352.834	-5.64
353.09	-5.07
353.346	-4.42
353.602	-5.12
353.858	-6.8
354.114	-6.78
354.369	-6.26
354.625	-3.88
354.881	-6.57
355.137	-4.59
355.393	-4.17
355.649	-4.68
355.905	-4.26
356.16	-3.58
356.416	-2.61
356.672	-7.72
356.928	-7.74
357.183	-8.76
357.439	-8.26
357.695	-9.84
357.951	-6.78
358.206	-7.86
358.462	-7.52
358.718	-7.97
358.973	-7.9
359.229	-7.83
359.484	-7.39
359.74	-4.25
359.996	-4.11
360.251	-2.72
360.507	-2.23
360.762	-1.97
361.018	-0.69
361.273	-1.21
361.529	1.43
361.784	1.87
362.04	3.45
362.295	4.66
362.55	4.57
362.806	6.99
363.061	8.1
363.316	7.61
363.572	7.63
363.827	10.09
364.082	6.62
364.338	5.98
364.593	6.76
364.848	8.53
365.104	7.72
365.359	8.81
365.614	9.94
365.869	8.06
366.124	8.05
366.38	7.75
366.635	8.88
366.89	10.56
367.145	10.21
367.4	12.88
367.655	12.13
367.91	13.09
368.165	12.1
368.42	9.76
368.675	10.25
368.93	9.58
369.185	7.07
369.44	7.51
369.695	8.5
369.95	7.58
370.205	6.06
370.46	4.83
370.715	4.5
370.97	3.67
371.225	4.28
371.48	5.07
371.734	4.85
371.989	6.78
372.244	7.08
372.499	8.46
372.754	7.76
373.008	5
373.263	1.06
373.518	2.37
373.773	0.84
374.027	0.32
374.282	2.11
374.537	1.82
374.791	1.56
375.046	0.54
375.301	-0.85
375.555	-1.67
375.81	-1.36
376.064	-0.92
376.319	2.1
376.573	0.75
376.828	-2.31
377.082	0.63
377.337	-1.43
377.591	-2.39
377.846	-2.06
378.1	0.17
378.355	0.09
378.609	-1.5
378.863	-4.57
379.118	-3.67
379.372	-3.82
379.627	-6.67
379.881	-6.4
380.135	-6.14
380.389	-6.06
380.644	-6.19
380.898	-3.69
381.152	-1.19
381.407	-1.41
381.661	0.63
381.915	2.25
382.169	2.38
382.423	1.52
382.677	-0.41
382.932	-0.26
383.186	-0.29
383.44	-0.57
383.694	1.68
383.948	0.98
384.202	0.09
384.456	1.82
384.71	3.41
384.964	2.43
385.218	2.5
385.472	1.7
385.726	1.03
385.98	0.56
386.234	1.44
386.488	-0.14
386.742	2.92
386.996	1.46
387.249	3.37
387.503	5.83
387.757	5.42
388.011	5.33
388.265	4.47
388.518	3.96
388.772	4.41
389.026	4.27
389.28	1.26
389.533	0.34
389.787	2.33
390.041	0.29
390.295	1.18
390.548	1.75
390.802	5.7
391.055	4.69
391.309	5.18
391.563	2.56
391.816	2.32
392.07	1.07
392.323	2.51
392.577	4.04
392.83	4.59
393.084	9.93
393.337	12.92
393.591	13.97
393.844	14.72
394.098	16.98
394.351	19.92
394.604	20.1
394.858	20.48
395.111	19.09
395.364	17.51
395.618	18.76
395.871	15.67
396.124	15.4
396.378	15.56
396.631	15.7
396.884	13.79
397.137	14.33
397.391	14.8
397.644	12.36
397.897	13.34
398.15	13.53
398.403	15.92
398.657	13.32
398.91	13.31
399.163	13.7
399.416	13.79
399.669	12.66
399.922	12.56
400.175	10.61
400.428	11.71
400.681	12.82
400.934	11.44
401.187	12.94
401.44	14.38
401.693	13.29
401.946	11.15
402.199	8.13
402.452	6.4
402.704	4.22
402.957	3.75
403.21	5.27
403.463	5.13
403.716	8.03
403.969	8.55
404.221	8.02
404.474	9.29
404.727	12.89
404.98	15.6
405.232	16.49
405.485	18.7
405.738	20.46
405.99	20.93
406.243	20.83
406.496	21.78
406.748	21.07
407.001	19.62
407.253	19.46
407.506	20.86
407.759	21.81
408.011	18.59
408.264	17.34
408.516	17.7
408.769	12.53
409.021	10.87
409.274	8.71
409.526	9.39
409.778	8.47
410.031	11.23
410.283	11.76
410.536	16.58
410.788	14.92
411.04	14.2
411.293	15.29
411.545	15.54
411.797	16.18
412.049	14.82
412.302	14.24
412.554	13.92
412.806	12.36
413.058	9.56
413.311	9.77
413.563	8.13
413.815	6.95
414.067	5.78
414.319	4.19
414.571	4.86
414.823	3.99
415.075	3.21
415.328	2.55
415.58	4.31
415.832	6.92
416.084	7.93
416.336	6.74
416.588	11.01
416.84	9.61
417.091	11.25
417.343	9.01
417.595	11.31
417.847	11.44
418.099	13.06
418.351	11.55
418.603	14.5
418.855	15.17
419.106	14.37
419.358	13.53
419.61	12.95
419.862	14.86
420.114	14.31
420.365	14.23
420.617	13.97
420.869	14.09
421.12	12.96
421.372	14.46
421.624	14.99
421.875	13.99
422.127	12.36
422.379	12.86
422.63	14.87
422.882	14.68
423.133	15.23
423.385	15.36
423.636	15.54
423.888	14.74
424.139	16.23
424.391	13.37
424.642	11.93
424.894	11.7
425.145	12.99
425.396	10.18
425.648	12.68
425.899	10.82
426.151	11.44
426.402	10.19
426.653	11.24
426.905	10.69
427.156	9.69
427.407	10.28
427.658	10.17
427.91	8.53
428.161	7.51
428.412	9.74
428.663	10.46
428.914	10.76
429.166	11.7
429.417	12.45
429.668	11.98
429.919	11.33
430.17	11.08
430.421	11.41
430.672	14.64
430.923	14.76
431.174	14.22
431.425	16.71
431.676	20.62
431.927	22.81
432.178	30.24
432.429	36.72
432.68	42.27
432.931	47.05
433.182	51.57
433.433	49.68
433.683	53.25
433.934	52.68
434.185	51.44
434.436	50.29
434.687	51.28
434.937	52.47
435.188	50.59
435.439	50.53
435.69	52.1
435.94	51.48
436.191	51.75
436.442	52.48
436.692	51.75
436.943	49.13
437.194	46.91
437.444	48.8
437.695	52.16
437.945	52.44
438.196	51.41
438.447	49.28
438.697	49.39
438.948	48.82
439.198	45.3
439.449	38.9
439.699	34.39
439.949	28.46
440.2	23.43
440.45	18.04
440.701	12.7
440.951	10.12
441.201	11.1
441.452	7.62
441.702	7.24
441.952	8.44
442.203	7.55
442.453	7.11
442.703	8.18
442.953	9.38
443.204	9.76
443.454	8
443.704	9.4
443.954	6.65
444.204	6.07
444.455	5.46
444.705	6.2
444.955	7.92
445.205	7.61
445.455	5.04
445.705	5.69
445.955	5.76
446.205	5.64
446.455	6.65
446.705	6.88
446.955	6.91
447.205	8.47
447.455	10.05
447.705	7.58
447.955	5.12
448.205	5.42
448.454	5.6
448.704	6.22
448.954	4.07
449.204	4.43
449.454	4.35
449.704	2.82
449.953	3.32
450.203	4.34
450.453	2.54
450.703	3.64
450.952	2.33
451.202	2.97
451.452	2.53
451.701	4.78
451.951	8.18
452.201	9.15
452.45	8.71
452.7	8.47
452.949	7.02
453.199	6.93
453.448	7.67
453.698	8.57
453.947	7.93
454.197	7.07
454.446	5.66
454.696	7.84
454.945	8.61
455.195	6.83
455.444	8.87
455.693	12.63
455.943	11.37
456.192	12.15
456.442	12.22
456.691	12.06
456.94	12.4
457.189	11.32
457.439	13.3
457.688	14.44
457.937	13.15
458.186	13.75
458.436	12.76
458.685	13.13
458.934	12.14
459.183	10.94
459.432	12.01
459.681	11.44
459.93	10.91
460.179	11.29
460.429	9.91
460.678	12.63
460.927	15.08
461.176	14.27
461.425	14.97
461.674	16.97
461.923	17.36
462.172	16.23
462.42	15.36
462.669	16.07
462.918	16.58
463.167	16.8
463.416	14.55
463.665	14.82
463.914	14.17
464.162	12.42
464.411	12.63
464.66	13.7
464.909	12.29
465.158	12.01
465.406	12.31
465.655	14.14
465.904	15.03
466.152	15.81
466.401	17.21
466.65	18.44
466.898	18.26
467.147	14.51
467.395	13.52
467.644	14.68
467.893	14.43
468.141	14.84
468.39	11.86
468.638	10.03
468.887	7.36
469.135	5.4
469.384	4.82
469.632	4.48
469.88	5.39
470.129	6.38
470.377	3.54
470.626	6.19
470.874	6.12
471.122	7.93
471.371	7.95
471.619	7.94
471.867	10.98
472.115	11.34
472.364	9.59
472.612	12.1
472.86	11.32
473.108	10.61
473.356	10.3
473.605	8.81
473.853	7.27
474.101	5.64
474.349	5.33
474.597	7.95
474.845	8.54
475.093	7.52
475.341	5.46
475.589	5.72
475.837	6.73
476.085	9.18
476.333	8.4
476.581	11.06
476.829	11.54
477.077	13.61
477.325	13.48
477.573	14.66
477.821	13.05
478.069	14.83
478.317	13.46
478.564	16.04
478.812	14.15
479.06	12.03
479.308	11.71
479.555	11.67
479.803	10.72
480.051	12.56
480.299	13.1
480.546	14.07
480.794	13.48
481.042	14.56
481.289	16.04
481.537	16.75
481.784	16.68
482.032	21.35
482.28	20.07
482.527	20.41
482.775	21.4
483.022	24.59
483.27	26.73
483.517	30.85
483.765	30.3
484.012	32.08
484.259	31.72
484.507	34.23
484.754	35.01
485.002	36.3
485.249	37.22
485.496	40.92
485.744	41.34
485.991	41.63
486.238	41.07
486.486	45.08
486.733	47.56
486.98	49.97
487.227	49.82
487.474	52.28
487.722	54.07
487.969	52.71
488.216	52.85
488.463	52.92
488.71	50.85
488.957	50.08
489.204	50.68
489.451	52.85
489.699	50.7
489.946	49.82
490.193	49.65
490.44	48.64
490.687	48.22
490.934	45.98
491.18	41.51
491.427	42.63
491.674	43.3
491.921	43.43
492.168	41.79
492.415	39.18
492.662	38.95
492.909	39.68
493.155	37.94
493.402	35.94
493.649	33.6
493.896	32.71
494.142	28.78
494.389	27.67
494.636	26.18
494.883	22.26
495.129	20.61
495.376	18.64
495.623	19.07
495.869	20.32
496.116	20
496.362	21.32
496.609	22.72
496.855	24.93
497.102	23.61
497.348	23.08
497.595	22.58
497.841	24.44
498.088	23.78
498.334	21.41
498.581	19.13
498.827	19.91
499.074	20.31
499.32	19.94
499.566	22.07
499.813	21.58
500.059	20.58
500.305	20.38
500.552	18.35
500.798	16.45
501.044	19.16
501.29	18.05
501.537	15.56
501.783	17.84
502.029	19.84
502.275	16.95
502.521	16.06
502.767	15.84
503.013	17.6
503.26	15.21
503.506	11.76
503.752	12.72
503.998	9.74
504.244	9.5
504.49	6.11
504.736	7.19
504.982	5.08
505.228	6.73
505.474	5.36
505.72	6.3
505.966	6.78
506.211	8.7
506.457	7.96
506.703	4.82
506.949	4.91
507.195	2.95
507.441	0.36
507.686	2.06
507.932	0.39
508.178	1.47
508.424	1.6
508.669	-0.15
508.915	0.83
509.161	3.97
509.406	3.46
509.652	3.55
509.898	5.21
510.143	6.46
510.389	5.94
510.634	2.43
510.88	5.63
511.125	7.46
511.371	7.38
511.616	8.7
511.862	6.5
512.107	6.02
512.353	6.55
512.598	7.43
512.844	5.29
513.089	4.09
513.335	3.89
513.58	3.84
513.825	3.46
514.071	3.59
514.316	3.8
514.561	2.77
514.806	1.43
515.052	3.68
515.297	1.47
515.542	3.51
515.787	3.72
516.033	4.57
516.278	4.99
516.523	5.64
516.768	3.01
517.013	1.57
517.258	0.8
517.503	1.98
517.748	2.44
517.993	1.51
518.238	1.65
518.483	-0.08
518.728	-1.15
518.973	-1.61
519.218	-1.57
519.463	-1.27
519.708	-1.16
519.953	-2.69
520.198	-3.07
520.443	-1.25
520.688	1.05
520.933	1.2
521.177	0.39
521.422	-0.41
521.667	1.2
521.912	0.15
522.157	-1.34
522.401	1.47
522.646	1.17
522.891	2.63
523.135	1.59
523.38	1.48
523.625	-0.13
523.869	2.02
524.114	2.43
524.358	4.11
524.603	4.51
524.848	3.11
525.092	1.15
525.337	2.43
525.581	4.15
525.826	6.22
526.07	7.26
526.315	8.27
526.559	7.54
526.803	5.82
527.048	8.66
527.292	9.85
527.537	9.98
527.781	9.98
528.025	7.58
528.269	8.58
528.514	8.43
528.758	7.66
529.002	8.21
529.247	9.46
529.491	10.63
529.735	13.58
529.979	13.44
530.223	15.16
530.467	12.87
530.712	12.17
530.956	11.4
531.2	13.26
531.444	10.87
531.688	12.26
531.932	9.72
532.176	10.19
532.42	11.39
532.664	14.48
532.908	14.24
533.152	13.96
533.396	13.31
533.64	13.54
533.884	13.54
534.128	14.47
534.371	18.68
534.615	22.41
534.859	22.39
535.103	24.13
535.347	26.47
535.59	30.41
535.834	30.92
536.078	35.55
536.322	42.47
536.565	50.19
536.809	56.42
537.053	65.8
537.296	74.55
537.54	85.33
537.784	96.95
538.027	112.74
538.271	129.23
538.514	146.1
538.758	162.28
539.001	177.2
539.245	191.49
539.488	209.31
539.732	224.74
539.975	238.07
540.219	251.56
540.462	265
540.706	278.79
540.949	290.79
541.192	302.66
541.436	318.04
541.679	334.74
541.922	348.38
542.166	360.8
542.409	379.73
542.652	398.52
542.895	418.55
543.139	436.31
543.382	454.34
543.625	466.8
543.868	476.51
544.111	482.8
544.354	485.72
544.598	487.8
544.841	486.98
545.084	483.8
545.327	478.42
545.57	471.6
545.813	463.77
546.056	452.92
546.299	442.76
546.542	434.02
546.785	425.68
547.028	414.09
547.271	404.07
547.514	394.02
547.756	383.28
547.999	373.57
548.242	363.5
548.485	351.54
548.728	342.24
548.971	328.42
549.213	316.04
549.456	302.7
549.699	286.11
549.942	265.95
550.184	245.73
550.427	224.65
550.67	206.56
550.912	185.61
551.155	171
551.398	157.67
551.64	144.4
551.883	135.72
552.125	124.84
552.368	116.87
552.61	106.84
552.853	100.97
553.095	94.14
553.338	86.02
553.58	78.96
553.823	71.27
554.065	68.14
554.308	60.18
554.55	54.03
554.792	46.62
555.035	41.37
555.277	36.53
555.519	33.43
555.762	30
556.004	28.75
556.246	23.69
556.488	22.56
556.731	17.41
556.973	14.93
557.215	12.44
557.457	14.39
557.699	16.64
557.941	13.25
558.183	12.53
558.426	14.33
558.668	10.81
558.91	10.33
559.152	10.86
559.394	7.4
559.636	8.44
559.878	8.99
560.12	8.14
560.362	8.03
560.604	6.48
560.845	6.13
561.087	6.05
561.329	7.94
561.571	4.13
561.813	4.91
562.055	3.98
562.297	3.96
562.538	4.59
562.78	5.85
563.022	3.51
563.264	2.59
563.505	2.24
563.747	2.78
563.989	0.98
564.23	0.8
564.472	0.23
564.714	2.51
564.955	1.98
565.197	-2.87
565.438	-0.07
565.68	1.29
565.921	-1.34
566.163	-0.41
566.404	-3.14
566.646	-1.67
566.887	-0.04
567.129	-0.38
567.37	-2.18
567.612	-1.53
567.853	-2.85
568.094	-2.14
568.336	-3.5
568.577	-3.73
568.818	-2.82
569.06	-3.43
569.301	-5.73
569.542	-4.7
569.783	-2.71
570.025	-3.07
570.266	-3.35
570.507	-1.88
570.748	-1.7
570.989	0.17
571.23	1.73
571.472	2.03
571.713	2.16
571.954	1.8
572.195	0.53
572.436	1.53
572.677	5.6
572.918	6.78
573.159	5.1
573.4	5.57
573.641	7.62
573.882	10.08
574.123	8.93
574.364	6.42
574.604	7.88
574.845	7.51
575.086	9.68
575.327	11.44
575.568	12.93
575.809	13.86
576.049	16.89
576.29	15.42
576.531	21.17
576.771	24.73
577.012	27.81
577.253	29.71
577.494	29.97
577.734	31.69
577.975	32.51
578.215	34.13
578.456	32.95
578.697	34.19
578.937	36.29
579.178	36.68
579.418	36.96
579.659	37.97
579.899	37.42
580.14	37.36
580.38	37.83
580.62	40.07
580.861	43.84
581.101	43.21
581.342	43.65
581.582	41.38
581.822	44.33
582.063	44.45
582.303	46.87
582.543	45.65
582.783	45.54
583.024	47.19
583.264	51.59
583.504	50.03
583.744	51.77
583.984	49.85
584.224	50.42
584.465	49.63
584.705	48.73
584.945	50.68
585.185	50.03
585.425	51.67
585.665	52.06
585.905	51.39
586.145	51.01
586.385	51.08
586.625	53.31
586.865	54.32
587.105	54.02
587.345	52.42
587.585	50.92
587.824	49
588.064	46.52
588.304	43.24
588.544	43.57
588.784	41.73
589.024	42.46
589.263	41.66
589.503	40.56
589.743	42.07
589.982	42.64
590.222	43.77
590.462	41.06
590.701	37.97
590.941	38.37
591.181	38.42
591.42	36.72
591.66	38.32
591.899	40.43
592.139	40.59
592.378	40.86
592.618	39.95
592.857	38.06
593.097	37.99
593.336	37.66
593.576	35.99
593.815	35.79
594.055	33.7
594.294	33.57
594.533	32
594.773	31.72
595.012	32.58
595.251	32.64
595.491	35.5
595.73	38.37
595.969	38.2
596.208	39.61
596.447	43.23
596.687	43.51
596.926	42.5
597.165	38.37
597.404	39.82
597.643	37.19
597.882	36.46
598.121	37.04
598.36	37.88
598.599	36.59
598.838	35.76
599.077	31.29
599.316	29.59
599.555	28.26
599.794	27.68
600.033	28.41
600.272	28.77
600.511	27.47
600.75	28.15
600.989	30.36
601.228	28.08
601.466	27.46
601.705	27.25
601.944	28.47
602.183	31.25
602.422	30.04
602.66	30.12
602.899	28.03
603.138	26.21
603.376	25.32
603.615	24.38
603.854	23.41
604.092	22.61
604.331	23.35
604.569	24.93
604.808	22.91
605.047	24.15
605.285	24.42
605.524	25.01
605.762	24.45
606	26.75
606.239	29.29
606.477	32.76
606.716	33.14
606.954	37.73
607.193	42.07
607.431	49.86
607.669	60.55
607.908	72.56
608.146	88.57
608.384	101.21
608.622	114.79
608.861	128.02
609.099	138.39
609.337	148.09
609.575	155.35
609.813	166.26
610.052	173.47
610.29	176.56
610.528	181.2
610.766	185.82
611.004	190.42
611.242	193.83
611.48	198.31
611.718	200.38
611.956	203.32
612.194	206.62
612.432	208.17
612.67	209.74
612.908	212.97
613.146	213.11
613.384	213.44
613.621	212.91
613.859	212.83
614.097	210.7
614.335	206.57
614.573	202.13
614.811	194.08
615.048	182.67
615.286	170.85
615.524	156.29
615.761	141.13
615.999	129.07
616.237	117.18
616.474	109.01
616.712	100.56
616.95	91.86
617.187	81.96
617.425	75.69
617.662	72.84
617.9	67.84
618.137	61.6
618.375	55.95
618.612	50.56
618.85	49.9
619.087	49.68
619.325	47.2
619.562	42.9
619.799	40.93
620.037	39.13
620.274	35.38
620.511	35.66
620.749	32.38
620.986	29.31
621.223	26.62
621.461	27.32
621.698	28.47
621.935	27.44
622.172	26.61
622.409	28.61
622.647	28.58
622.884	27.28
623.121	29.1
623.358	29.33
623.595	29.09
623.832	29.49
624.069	27.97
624.306	29.98
624.543	31.24
624.78	31.69
625.017	29.29
625.254	30.04
625.491	31.82
625.728	33.78
625.965	33.57
626.202	31.63
626.438	28.84
626.675	27.93
626.912	30.84
627.149	32.59
627.386	33.88
627.622	33.4
627.859	33.08
628.096	34.58
628.333	36.91
628.569	38.79
628.806	40.34
629.043	40.74
629.279	41.6
629.516	43.57
629.752	40.89
629.989	41.24
630.225	39.95
630.462	39.32
630.699	38.26
630.935	37.19
631.171	33.06
631.408	32.37
631.644	28.86
631.881	26.9
632.117	24.73
632.354	26.49
632.59	25.61
632.826	24.37
633.063	24.67
633.299	26.02
633.535	23.29
633.771	23.18
634.008	24.58
634.244	22.67
634.48	19.43
634.716	18.99
634.953	17.14
635.189	15.93
635.425	14.8
635.661	16.18
635.897	13.97
636.133	11.99
636.369	9.68
636.605	6.37
636.841	5.16
637.077	6.51
637.313	4.94
637.549	5.08
637.785	3.48
638.021	3.96
638.257	3.31
638.493	5.79
638.729	4.71
638.965	8.12
639.2	8.81
639.436	9.35
639.672	8.13
639.908	6.69
640.144	10.53
640.379	11.81
640.615	9.26
640.851	11.12
641.086	10.48
641.322	7.35
641.558	7.51
641.793	7.58
642.029	5.16
642.264	5.54
642.5	6.29
642.736	5.35
642.971	5.2
643.207	3.83
643.442	1.9
643.678	1.22
643.913	3.09
644.148	2.68
644.384	3.58
644.619	4.61
644.855	5.76
645.09	7.81
645.325	6.88
645.561	7.66
645.796	6.68
646.031	8.6
646.266	6.05
646.502	5.1
646.737	6.19
646.972	7.61
647.207	8.91
647.442	6.08
647.678	3.25
647.913	6.82
648.148	7.44
648.383	8.02
648.618	10.05
648.853	10.54
649.088	13.1
649.323	16.39
649.558	16.78
649.793	16.28
650.028	16.74
650.263	12.99
650.498	14.09
650.733	14.89
650.968	15.07
651.202	16.76
651.437	15.38
651.672	12.99
651.907	10.91
652.142	12.22
652.376	10.78
652.611	12.59
652.846	13.72
653.081	13.04
653.315	12.87
653.55	12.79
653.785	12.78
654.019	14.03
654.254	12.2
654.488	13.26
654.723	12.14
654.958	10.48
655.192	7.32
655.427	3.65
655.661	5.6
655.896	6.31
656.13	7.83
656.364	5.29
656.599	2.37
656.833	8.23
657.068	10.44
657.302	10.36
657.536	9.44
657.771	11.2
658.005	12.2
658.239	13.3
658.474	11.34
658.708	12.24
658.942	12.09
659.176	11.6
659.41	8.96
659.645	9.79
659.879	9.81
660.113	8.19
660.347	7.61
660.581	6.06
660.815	5.92
661.049	5.08
661.283	1.77
661.517	1.09
661.751	-0.39
661.985	-2.45
662.219	-0.94
662.453	-0.95
662.687	1.46
662.921	-1.76
663.155	-2.12
663.389	-7.12
663.622	-9.43
663.856	-8
664.09	-13.25
664.324	-13.5
664.558	-13.58
664.791	-12.85
665.025	-14.11
665.259	-14.17
665.492	-15.76
665.726	-14.95
665.96	-14.85
666.193	-16.12
666.427	-13.48
666.661	-14.18
666.894	-15.58
667.128	-16.94
667.361	-15.32
667.595	-15.26
667.828	-15.54
668.062	-16.05
668.295	-15.61
668.529	-14.58
668.762	-13.06
668.995	-13.15
669.229	-9.82
669.462	-8.76
669.695	-8.32
669.929	-9.76
670.162	-9.08
670.395	-11.23
670.629	-9.42
670.862	-5.5
671.095	-7.34
671.328	-7.08
671.561	-10.07
671.795	-10.18
672.028	-8.14
672.261	-8.15
672.494	-7.57
672.727	-7.03
672.96	-5.32
673.193	-6.11
673.426	-1.6
673.659	-2.05
673.892	-2.63
674.125	-3.18
674.358	-2.99
674.591	-4.69
674.824	-4.88
675.057	-6.11
675.29	-6.54
675.523	-4.88
675.755	-5.89
675.988	-6.93
676.221	-5.03
676.454	-5.6
676.687	-5.14
676.919	-6.17
677.152	-5.75
677.385	-5.37
677.617	-3.85
677.85	-3.38
678.083	-5.82
678.315	-3.5
678.548	-5.55
678.78	-5.63
679.013	-5.43
679.246	-4.33
679.478	-2.23
679.711	-4.44
679.943	-3.76
680.175	-7.34
680.408	-3.94
680.64	-7.9
680.873	-7.06
681.105	-3.51
681.338	-1.6
681.57	-2.96
681.802	-2.13
682.034	-2.46
682.267	1.18
682.499	1.83
682.731	-0.51
682.964	-0.28
683.196	-1.32
683.428	-2.98
683.66	-4.57
683.892	-2.71
684.124	0.21
684.356	2.35
684.589	2.24
684.821	1.15
685.053	1.74
685.285	1.77
685.517	2.15
685.749	3.75
685.981	4.88
686.213	5.97
686.445	4.1
686.676	2.07
686.908	3.66
687.14	3.16
687.372	5.11
687.604	2.06
687.836	2.94
688.068	1.12
688.299	-0.3
688.531	-1.97
688.763	1.96
688.995	1.46
689.226	3.89
689.458	2.58
689.69	2
689.921	1
690.153	0.74
690.384	2.04
690.616	1.51
690.848	1.9
691.079	-1.19
691.311	-4.01
691.542	-6.67
691.774	-6.89
692.005	-4.35
692.237	-2.37
692.468	-2.53
692.699	-3.44
692.931	-3.47
693.162	-5.49
693.393	-7.22
693.625	-8.22
693.856	-8.21
694.087	-7.64
694.319	-6.82
694.55	-7
694.781	-8.17
695.012	-7.57
695.243	-7
695.475	-7.79
695.706	-7.73
695.937	-9.08
696.168	-9.12
696.399	-11.07
696.63	-11.65
696.861	-12.16
697.092	-8.63
697.323	-5.86
697.554	-4.12
697.785	-4.67
698.016	-3.36
698.247	-4.26
698.478	-2.63
698.709	-0.64
698.94	-0.18
699.171	-0.72
699.401	-4.6
699.632	-3.3
699.863	-5.15
700.094	-6.33
700.325	-4.03
700.555	-2.06
700.786	-1.54
701.017	-1.45
701.247	-2.36
701.478	-2.21
701.709	-3.18
701.939	-4.03
702.17	-2.61
702.401	-0.83
702.631	-0.09
702.862	-0.07
703.092	-2.41
703.323	0.27
703.553	2.39
703.784	3.11
704.014	2.98
704.244	-1.24
704.475	-2.4
704.705	-3.3
704.936	-2
705.166	-1.85
705.396	-0.6
705.627	-0.42
705.857	-0.06
706.087	1.33
706.317	-0.25
706.548	-0.11
706.778	-0.97
707.008	0.43
707.238	1.61
707.468	1.67
707.698	-0.46
707.928	-0.52
708.158	-0.82
708.389	-2.24
708.619	-3.1
708.849	-2.79
709.079	-0.77
709.309	-2.84
709.539	-5.11
709.768	-4.04
709.998	-1.4
710.228	0.32
710.458	-1.88
710.688	-4.5
710.918	-3.74
711.148	-2.89
711.378	-0.9
711.607	-1.81
711.837	-0.58
712.067	-1.38
712.297	-2.63
712.526	-2.87
712.756	-1.93
712.986	-3.79
713.215	-6.09
713.445	-5.68
713.674	-4.3
713.904	-4.39
714.134	-1.9
714.363	-2.69
714.593	-4.97
714.822	-4.93
715.052	-4.71
715.281	-3.87
715.511	-4.2
715.74	-4.19
715.969	-5.42
716.199	-6.4
716.428	-6.68
716.657	-6.32
716.887	-5.75
717.116	-8.46
717.345	-9.08
717.575	-8.94
717.804	-8.42
718.033	-10.61
718.262	-11.26
718.492	-9.92
718.721	-8.89
718.95	-10.35
719.179	-12.59
719.408	-11.49
719.637	-13.91
719.866	-16.01
720.095	-15.31
720.324	-15.9
720.553	-17.88
720.782	-19.01
721.011	-17.69
721.24	-20.39
721.469	-21.03
721.698	-21.01
721.927	-21.42
722.156	-23.03
722.385	-23.33
722.613	-20.32
722.842	-19.36
723.071	-15.45
723.3	-12.98
723.529	-13.63
723.757	-13.42
723.986	-15.58
724.215	-15.1
724.443	-13.33
724.672	-11.92
724.901	-11.04
725.129	-9.98
725.358	-6.77
725.586	-9.38
725.815	-10.63
726.043	-10.37
726.272	-9.37
726.5	-9.94
726.729	-7.67
726.957	-10.15
727.186	-12.08
727.414	-10.81
727.642	-9.34
727.871	-9.55
728.099	-11.13
728.327	-11.62
728.556	-10.02
728.784	-8.3
729.012	-9.12
729.241	-6.52
729.469	-8.87
729.697	-11.2
729.925	-11.44
730.153	-14.03
730.381	-15.02
730.61	-13.97
730.838	-15.67
731.066	-14.94
731.294	-15
731.522	-18.34
731.75	-20.57
731.978	-20.79
732.206	-21.29
732.434	-23.5
732.662	-22.43
732.89	-23.5
733.118	-24.67
733.346	-24.37
733.573	-23.28
733.801	-23.4
734.029	-18.43
734.257	-16.69
734.485	-14.95
734.712	-13.47
734.94	-13.75
735.168	-11.52
735.396	-10.79
735.623	-11.24
735.851	-10.54
736.078	-8.73
736.306	-8.5
736.534	-6.39
736.761	-5.91
736.989	-7.11
737.216	-7.45
737.444	-8.8
737.671	-8.59
737.899	-4.51
738.126	-4.72
738.354	-4.85
738.581	-2.76
738.809	-2.2
739.036	-4.16
739.263	-3.56
739.491	-5.76
739.718	-5.51
739.945	-1.88
740.173	-0.94
740.4	-0.94
740.627	-2.52
740.854	-3.23
741.081	-4.33
741.309	-5.55
741.536	-8.25
741.763	-8.95
741.99	-7.66
742.217	-6.59
742.444	-6.4
742.671	-5.97
742.898	-6.79
743.125	-8.63
743.352	-11.08
743.579	-10.98
743.806	-10.67
744.033	-7.98
744.26	-7.31
744.487	-8.27
744.714	-7.34
744.941	-9.49
745.167	-7
745.394	-7.97
745.621	-8.4
745.848	-8.96
746.075	-6.19
746.301	-4.1
746.528	0.22
746.755	0.19
746.981	-0.87
747.208	0.28
747.435	1.65
747.661	2.8
747.888	3.91
748.114	1.5
748.341	3.82
748.567	4.91
748.794	3.02
749.02	2.1
749.247	-0.95
749.473	-1.68
749.7	-1.96
749.926	-1.97
750.152	1.59
750.379	2.92
750.605	3.1
750.831	2.6
751.058	-0.56
751.284	-2
751.51	0.27
751.737	0.49
751.963	-0.31
752.189	-1.71
752.415	-2.71
752.641	-3.39
752.867	-3.93
753.094	-6.98
753.32	-8.06
753.546	-9.39
753.772	-9.06
753.998	-9.96
754.224	-10.87
754.45	-11.47
754.676	-12.82
754.902	-13.35
755.128	-11.74
755.354	-13.19
755.579	-12.18
755.805	-9.97
756.031	-10.88
756.257	-10.25
756.483	-11.23
756.709	-12.64
756.934	-12.14
757.16	-14.59
757.386	-13.68
757.612	-16.12
757.837	-16.48
758.063	-13.67
758.289	-10.38
758.514	-12.08
758.74	-14.79
758.965	-16.34
759.191	-15.96
759.416	-13.73
759.642	-12.39
759.868	-10.64
760.093	-7.7
760.318	-8.13
760.544	-9.37
760.769	-9.8
760.995	-9.17
761.22	-9.12
761.445	-7.03
761.671	-5.53
761.896	-3.39
762.121	-4.13
762.347	-3.49
762.572	-6.28
762.797	-7.05
763.022	-7.1
763.248	-4.7
763.473	-2.05
763.698	-1.33
763.923	-1.78
764.148	-2.71
764.373	-4.94
764.598	-4.56
764.823	-2.83
765.048	-5.63
765.273	-9.43
765.498	-9.12
765.723	-8.1
765.948	-5.96
766.173	-6.84
766.398	-6.33
766.623	-8.9
766.848	-9.97
767.073	-12.13
767.298	-12.56
767.522	-12.18
767.747	-11.3
767.972	-12.12
768.197	-11.34
768.421	-14.03
768.646	-17.2
768.871	-20.66
769.095	-19.62
769.32	-20.18
769.545	-18.81
769.769	-17.39
769.994	-14.77
770.218	-17.11
770.443	-17.38
770.667	-17.26
770.892	-17.37
771.116	-17.31
771.341	-15.29
771.565	-14.51
771.79	-14.45
772.014	-14.41
772.238	-15.07
772.463	-12.53
772.687	-13.29
772.911	-14.88
773.136	-16.57
773.36	-16.48
773.584	-14.88
773.808	-16.21
774.033	-14.28
774.257	-14.18
774.481	-15.19
774.705	-15.9
774.929	-16.57
775.153	-16.55
775.377	-14.43
775.602	-13.65
775.826	-10.88
776.05	-10.53
776.274	-10.01
776.498	-10.7
776.722	-12.23
776.945	-11.68
777.169	-12.59
777.393	-13.35
777.617	-13.93
777.841	-12.73
778.065	-10.88
778.289	-12.54
778.512	-13.02
778.736	-13.15
778.96	-13.15
779.184	-11.14
779.407	-12.74
779.631	-10.56
779.855	-10.45
780.078	-8.96
780.302	-10.46
780.526	-11.82
780.749	-10.4
780.973	-10.38
781.196	-9.94
781.42	-10.96
781.643	-11.13
781.867	-10.23
782.09	-12.73
782.314	-14.43
782.537	-13.66
782.76	-15.43
782.984	-14.38
783.207	-15.43
783.431	-14.16
783.654	-16.01
783.877	-17.93
784.1	-16.73
784.324	-17.47
784.547	-18.57
784.77	-22.37
784.993	-23.76
785.216	-23.32
785.44	-23.03
785.663	-24.23
785.886	-22.01
786.109	-22.04
786.332	-23.37
786.555	-24.28
786.778	-23.2
787.001	-22.58
787.224	-20.05
787.447	-19.23
787.67	-18.74
787.893	-19.37
788.116	-19.22
788.339	-17.84
788.561	-18.06
788.784	-20.22
789.007	-20.58
789.23	-20.4
789.453	-20.86
789.675	-23.12
789.898	-25.01
790.121	-25.66
790.344	-26.52
790.566	-24.82
790.789	-25.3
791.012	-25.07
791.234	-23.38
791.457	-20.22
791.679	-18.22
791.902	-17.68
792.124	-16.27
792.347	-17.03
792.569	-17.37
792.792	-20.98
793.014	-18.55
793.237	-16.55
793.459	-16.82
793.681	-15.72
793.904	-16.83
794.126	-19.23
794.348	-18.83
794.571	-18.27
794.793	-18.48
795.015	-18.43
795.237	-18.93
795.46	-16.65
795.682	-14.78
795.904	-12.55
796.126	-13.73
796.348	-14.5
796.57	-10.45
796.792	-10.03
797.014	-7.1
797.237	-5.88
797.459	-5.29
797.681	-4.51
797.903	-7.27
798.124	-5.99
798.346	1.78
798.568	3.62
798.79	6.28
799.012	5.87
799.234	7.79
799.456	9.26
799.678	11.33
799.899	9.15
800.121	7.7
800.343	8.44
800.565	7.29
800.786	8.39
801.008	9.25
801.23	9.47
801.451	10.27
801.673	7.77
801.895	6.51
802.116	8.37
802.338	6.98
802.559	7.63
802.781	5.96
803.002	7.12
803.224	9.59
803.445	7.98
803.667	8.64
803.888	7.45
804.109	8.04
804.331	8.01
804.552	6.77
804.773	9.12
804.995	6.67
805.216	-3.71
805.437	-6.93
805.658	-9.2
805.88	-11.25
806.101	-11.66
806.322	-12.02
806.543	-12.19
806.764	-13.25
806.985	-12.63
807.207	-12.34
807.428	-11.42
807.649	-14.54
807.87	-16.01
808.091	-15.58
808.312	-15.38
808.533	-10.35
808.754	-8.27
808.975	-10.83
809.195	-9.15
809.416	-10.44
809.637	-10.63
809.858	-11.97
810.079	-12.96
810.3	-12.29
810.52	-12.91
810.741	-15.26
810.962	-17.31
811.183	-18.53
811.403	-17.44
811.624	-17.82
811.845	-17.41
812.065	-15.61
812.286	-14.6
812.506	-15.58
812.727	-14.61
812.948	-14.58
813.168	-15.03
813.389	-16.15
813.609	-15.03
813.83	-15.32
814.05	-16.66
814.27	-15.38
814.491	-11.34
814.711	-11.45
814.931	-14.36
815.152	-15.02
815.372	-17.26
815.592	-18.03
815.813	-16.93
816.033	-18.99
816.253	-17.21
816.473	-17.78
816.694	-17.03
816.914	-15.57
817.134	-15.27
817.354	-17.08
817.574	-15.5
817.794	-14.51
818.014	-14.27
818.234	-13.97
818.454	-15.44
818.674	-15.84
818.894	-17.37
819.114	-15.38
819.334	-13.72
819.554	-12.65
819.774	-10.78
819.994	-9.9
820.214	-9.25
820.433	-9.37
820.653	-9.88
820.873	-8.46
821.093	-9.17
821.312	-11.47
821.532	-9.56
821.752	-7.78
821.972	-9.19
822.191	-8.29
822.411	-9.64
822.63	-10.18
822.85	-9.46
823.07	-12.81
823.289	-11.95
823.509	-12.46
823.728	-14.32
823.948	-15.22
824.167	-14.94
824.387	-15.88
824.606	-16.19
824.825	-16.13
825.045	-16.9
825.264	-17.09
825.483	-16.32
825.703	-15.1
825.922	-16.3
826.141	-16.98
826.361	-17.84
826.58	-20.63
826.799	-23.32
827.018	-23.23
827.237	-22.89
827.456	-21.44
827.676	-21.75
827.895	-23.06
828.114	-22.19
828.333	-22.33
828.552	-22.71
828.771	-20.56
828.99	-22.44
829.209	-23.09
829.428	-21.12
829.647	-20.45
829.866	-19.08
830.084	-19.48
830.303	-19.75
830.522	-18.21
830.741	-17.61
830.96	-17.09
831.179	-16.73
831.397	-18.25
831.616	-19.2
831.835	-19.32
832.053	-17.43
832.272	-18.22
832.491	-18.03
832.709	-19.27
832.928	-18.9
833.147	-17.87
833.365	-16.72
833.584	-13.33
833.802	-10.82
834.021	-10.38
834.239	-10.08
834.458	-11.07
834.676	-12.92
834.894	-14.9
835.113	-15.96
835.331	-16.24
835.55	-18.5
835.768	-17.8
835.986	-15.61
836.204	-16.83
836.423	-17.55
836.641	-18.05
836.859	-17.71
837.077	-16.51
837.296	-16.84
837.514	-18.07
837.732	-18.22
837.95	-18.72
838.168	-16.3
838.386	-15.71
838.604	-13.91
838.822	-14.08
839.04	-14.63
839.258	-13.67
839.476	-12.35
839.694	-12.43
839.912	-13.85
840.13	-13.98
840.348	-12.18
840.566	-15.43
840.783	-15.37
841.001	-16.68
841.219	-16
841.437	-13.45
841.655	-11.3
841.872	-11.16
842.09	-10.7
842.308	-9.71
842.525	-8.77
842.743	-8.69
842.961	-9.63
843.178	-11.61
843.396	-7.91
843.613	-8.01
843.831	-6.71
844.048	-6.33
844.266	-5.13
844.483	-4.52
844.701	-5.59
844.918	-5.07
845.136	-5.89
845.353	-7.69
845.57	-6.89
845.788	-4.76
846.005	-6.96
846.222	-7.88
846.439	-7.31
846.657	-7.34
846.874	-7.48
847.091	-10.41
847.308	-9.32
847.526	-9.38
847.743	-9.5
847.96	-11.51
848.177	-11.8
848.394	-13.23
848.611	-12.89
848.828	-12.49
849.045	-13.57
849.262	-13.72
849.479	-14.61
849.696	-15.15
849.913	-15.49
850.13	-19.32
850.347	-16.67
850.564	-18.22
850.78	-20.01
850.997	-22.28
851.214	-22.77
851.431	-21.81
851.647	-24.41
851.864	-23.15
852.081	-21.06
852.298	-23.47
852.514	-24.02
852.731	-22.45
852.948	-21.39
853.164	-21.95
853.381	-21.43
853.597	-23.1
853.814	-23.54
854.03	-25
854.247	-23.28
854.463	-22.52
854.68	-21.78
854.896	-22
855.113	-20.32
855.329	-19.88
855.545	-18.53
855.762	-18.4
855.978	-21.41
856.194	-21.87
856.411	-18.56
856.627	-16.14
856.843	-15.12
857.059	-15.24
857.275	-15.67
857.492	-15.81
857.708	-12.86
857.924	-12.35
858.14	-10.14
858.356	-10.94
858.572	-11.5
858.788	-13.09
859.004	-11.77
859.22	-13.92
859.436	-14.21
859.652	-14.16
859.868	-15.98
860.084	-16
860.3	-14.38
860.516	-14.58
860.731	-13.77
860.947	-17.16
861.163	-16.32
861.379	-15.37
861.595	-14.81
861.81	-15.33
862.026	-16.29
862.242	-16.92
862.457	-16.56
862.673	-14.67
862.889	-14.5
863.104	-15.72
863.32	-15.58
863.535	-16.22
863.751	-17.91
863.966	-15.8
864.182	-12.39
864.397	-14.43
864.613	-15.44
864.828	-16.82
865.044	-15.48
865.259	-13.29
865.474	-14.25
865.69	-13.89
865.905	-12.68
866.12	-13.77
866.336	-15.11
866.551	-12.33
866.766	-12.35
866.981	-13.67
867.196	-13.56
867.412	-13.19
867.627	-12
867.842	-12.63
868.057	-12.21
868.272	-12.25
868.487	-13.51
868.702	-15
868.917	-14.37
869.132	-13.92
869.347	-13.51
869.562	-14.27
869.777	-14.18
869.992	-15.44
870.207	-15.2
870.422	-17.21
870.636	-17.72
870.851	-20.75
871.066	-21.52
871.281	-22.24
871.495	-22.32
871.71	-20.06
871.925	-23.66
872.14	-23.36
872.354	-24.4
872.569	-24.99
872.783	-24.37
872.998	-24.62
873.213	-25.8
873.427	-23.99
873.642	-22.95
873.856	-22.95
874.071	-23.44
874.285	-25.47
874.5	-26.92
874.714	-29.1
874.928	-30.46
875.143	-29.96
875.357	-29.99
875.571	-31.88
875.786	-31.81
876	-29.09
876.214	-27.66
876.429	-30.02
876.643	-29.44
876.857	-29.13
877.071	-28.19
877.285	-30.81
877.499	-33.15
877.714	-30.71
877.928	-28.06
878.142	-29.24
878.356	-31.05
878.57	-28.95
878.784	-27.17
878.998	-27.33
879.212	-25.34
879.426	-26.35
879.639	-23.96
879.853	-25.16
880.067	-25.66
880.281	-27.15
880.495	-26.51
880.709	-24.97
880.922	-22.92
881.136	-21.25
881.35	-19.23
881.564	-18.76
881.777	-21.5
881.991	-19.75
882.205	-18.27
882.418	-19.29
882.632	-21.31
882.845	-21.23
883.059	-19.06
883.273	-19.87
883.486	-21.13
883.7	-18.66
883.913	-17.62
884.126	-15.28
884.34	-17.56
884.553	-19.62
884.767	-17.24
884.98	-17.16
885.193	-18.83
885.407	-20.38
885.62	-18.58
885.833	-20.34
886.046	-18.7
886.26	-20.95
886.473	-20.94
886.686	-21.89
886.899	-19.03
887.112	-20.06
887.326	-21.43
887.539	-22.02
887.752	-22.17
887.965	-23.03
888.178	-22.28
888.391	-19.48
888.604	-20.18
888.817	-20.72
889.03	-18.77
889.243	-20.49
889.455	-23.39
889.668	-24.06
889.881	-20.78
890.094	-20.57
890.307	-23.4
890.52	-22.35
890.732	-22.3
890.945	-22.01
891.158	-21.49
891.37	-23.27
891.583	-22.51
891.796	-20.29
892.008	-22
892.221	-23.33
892.434	-25.23
892.646	-26.4
892.859	-26.22
893.071	-24.94
893.284	-22.99
893.496	-23.9
893.709	-23.33
893.921	-22.68
894.133	-23.02
894.346	-23.28
894.558	-23.44
894.771	-23.8
894.983	-22.52
895.195	-20.09
895.407	-20.74
895.62	-23.3
895.832	-21.8
896.044	-18.34
896.256	-17.52
896.468	-19.51
896.681	-18.36
896.893	-15.83
897.105	-15.83
897.317	-16.04
897.529	-14.61
897.741	-13.85
897.953	-11.78
898.165	-13.84
898.377	-15.48
898.589	-13.67
898.801	-14.89
899.013	-12.3
899.224	-11.51
899.436	-8.8
899.648	-10.08
899.86	-12.45
900.072	-10.75
900.283	-9.7
900.495	-8.84
900.707	-7.61
900.919	-9.36
901.13	-8.31
901.342	-10.58
901.554	-11.44
901.765	-12.08
901.977	-13.64
902.188	-12.9
902.4	-14.02
902.611	-15.73
902.823	-18.08
903.034	-20.21
903.246	-20.99
903.457	-22.92
903.669	-23.5
903.88	-23.48
904.091	-23.55
904.303	-23.11
904.514	-24.43
904.725	-22.39
904.936	-21.16
905.148	-21.58
905.359	-17.79
905.57	-18.11
905.781	-18.28
905.992	-20.74
906.204	-18.17
906.415	-17.69
906.626	-20.69
906.837	-19.63
907.048	-20.53
907.259	-20.9
907.47	-21.93
907.681	-22.82
907.892	-18.77
908.103	-19.5
908.314	-21.13
908.525	-18.49
908.735	-19.53
908.946	-20.83
909.157	-20.69
909.368	-18.54
909.579	-17.31
909.789	-18.29
910	-19.72
910.211	-18.74
910.421	-19.67
910.632	-20.61
910.843	-22.38
911.053	-20.41
911.264	-18.62
911.475	-20
911.685	-19.43
911.896	-21.04
912.106	-21.83
912.317	-22.73
912.527	-20.05
912.737	-21.85
912.948	-21.68
913.158	-20.68
913.369	-22.35
913.579	-20.17
913.789	-20.35
914	-17.77
914.21	-18
914.42	-18.6
914.63	-18.25
914.841	-16.57
915.051	-17.13
915.261	-15.96
915.471	-12.61
915.681	-12.7
915.891	-11.82
916.101	-12.1
916.311	-12.85
916.521	-11.16
916.731	-11.39
916.941	-7.99
917.151	-8.5
917.361	-6.36
917.571	-9.2
917.781	-10.97
917.991	-12.47
918.201	-12.43
918.411	-14.86
918.621	-14.84
918.83	-14.61
919.04	-17.61
919.25	-15.06
919.46	-14.72
919.669	-16.23
919.879	-15.9
920.089	-17.54
920.298	-17.77
920.508	-17.29
920.717	-15.04
920.927	-16.67
921.136	-16.02
921.346	-17.87
921.555	-18.19
921.765	-18.64
921.974	-20.84
922.184	-22.37
922.393	-24.33
922.603	-25.71
922.812	-22.67
923.021	-23.06
923.23	-24.21
923.44	-28.44
923.649	-26.83
923.858	-26.98
924.067	-26.57
924.277	-28.38
924.486	-26.52
924.695	-27.03
924.904	-23.88
925.113	-23.14
925.322	-22.15
925.531	-20.04
925.74	-23.2
925.949	-23.09
926.158	-21.07
926.367	-22.6
926.576	-22.28
926.785	-23.22
926.994	-24.21
927.203	-24.92
927.412	-25.44
927.621	-26.03
927.83	-25.02
928.038	-25.89
928.247	-25.97
928.456	-25.83
928.665	-25.36
928.873	-23.75
929.082	-21.84
929.291	-21.6
929.499	-19.37
929.708	-19.61
929.916	-17.36
930.125	-19.11
930.333	-20.25
930.542	-19.14
930.75	-17.48
930.959	-17.44
931.167	-16.81
931.376	-18.6
931.584	-16.77
931.793	-16.19
932.001	-17.31
932.209	-17.21
932.418	-19.77
932.626	-21.61
932.834	-21.65
933.042	-24.31
933.251	-23.66
933.459	-22.54
933.667	-22.67
933.875	-21.95
934.083	-21.29
934.291	-19.91
934.499	-18.82
934.707	-18.21
934.915	-17.11
935.123	-14.84
935.331	-15.69
935.539	-16.82
935.747	-17.9
935.955	-19.45
936.163	-19.61
936.371	-19.96
936.579	-18.47
936.787	-19.23
936.995	-20.57
937.202	-21.48
937.41	-20.05
937.618	-19.97
937.826	-18.91
938.033	-23.75
938.241	-25
938.449	-23.39
938.656	-22.26
938.864	-20.57
939.071	-19.93
939.279	-17.95
939.486	-15.54
939.694	-15.5
939.901	-17.76
940.109	-18.7
940.316	-18.5
940.524	-19.45
940.731	-21.31
940.939	-19.96
941.146	-20.77
941.353	-21.46
941.561	-22.2
941.768	-23.24
941.975	-22.26
942.182	-21.85
942.39	-22.53
942.597	-19.5
942.804	-19.55
943.011	-20.14
943.218	-19.67
943.425	-18.93
943.632	-18.04
943.839	-19.54
944.046	-19.59
944.253	-19.07
944.46	-17.57
944.667	-15.61
944.874	-15.47
945.081	-15.05
945.288	-14.09
945.495	-13.05
945.702	-13.13
945.909	-14.95
946.115	-14.33
946.322	-15
946.529	-14.88
946.736	-16.17
946.942	-14.54
947.149	-13.85
947.356	-14.97
947.562	-15.47
947.769	-16.26
947.976	-17.37
948.182	-15.71
948.389	-16.99
948.595	-17.43
948.802	-16.83
949.008	-18.81
949.215	-17.95
949.421	-18.29
949.628	-18.89
949.834	-18.99
950.04	-19.37
950.247	-16.93
950.453	-16.43
950.659	-18.48
950.865	-16.87
951.072	-19.53
951.278	-18.43
951.484	-19.74
951.69	-22.35
951.896	-22.27
952.103	-23.04
952.309	-22.85
952.515	-24.04
952.721	-22.51
952.927	-22.32
953.133	-22.01
953.339	-23.62
953.545	-23.5
953.751	-23.7
953.957	-21.76
954.163	-22.92
954.369	-22.09
954.574	-23.97
954.78	-23.39
954.986	-22.47
955.192	-20.27
955.398	-20.65
955.603	-23.76
955.809	-22.32
956.015	-19.84
956.22	-19.27
956.426	-19.86
956.632	-22.25
956.837	-22.36
957.043	-21.03
957.248	-20.88
957.454	-20.25
957.66	-22.12
957.865	-20.57
958.07	-18.98
958.276	-20.13
958.481	-21.39
958.687	-20.98
958.892	-20.17
959.097	-20.38
959.303	-20.08
959.508	-21.55
959.713	-21.87
959.919	-23.42
960.124	-23.24
960.329	-23.32
960.534	-21.34
960.739	-21.4
960.945	-19.07
961.15	-19.86
961.355	-22.21
961.56	-25.4
961.765	-25.88
961.97	-24.18
962.175	-22.98
962.38	-27.06
962.585	-25.55
962.79	-26.16
962.995	-26.52
963.2	-28.87
963.404	-29.52
963.609	-31.79
963.814	-33.68
964.019	-36.62
964.224	-38.59
964.428	-37.57
964.633	-35.8
964.838	-34.85
965.042	-35.35
965.247	-35.54
965.452	-34.81
965.656	-34.25
965.861	-32.7
966.066	-32.66
966.27	-28.88
966.475	-25.3
966.679	-28.61
966.884	-28.76
967.088	-30.36
967.292	-31.2
967.497	-29.66
967.701	-30.36
967.906	-29.64
968.11	-27.96
968.314	-24.84
968.518	-26.88
968.723	-22.76
968.927	-23.74
969.131	-21.73
969.335	-20.64
969.539	-19.89
969.744	-18.73
969.948	-16.16
970.152	-15.2
970.356	-12.23
970.56	-11.61
970.764	-12.55
970.968	-12.36
971.172	-11.59
971.376	-10.35
971.58	-10.88
971.784	-10.9
971.988	-11.42
972.192	-9.39
972.395	-10.07
972.599	-13.38
972.803	-16.09
973.007	-13.22
973.21	-13.02
973.414	-12.28
973.618	-13.14
973.822	-14.25
974.025	-12.18
974.229	-11.85
974.432	-14.03
974.636	-16.58
974.84	-15.98
975.043	-18.63
975.247	-19.35
975.45	-21.42
975.654	-21.32
975.857	-18.59
976.06	-19.77
976.264	-21.47
976.467	-18.86
976.671	-20.43
976.874	-19.77
977.077	-20.31
977.28	-21.07
977.484	-22.13
977.687	-21.93
977.89	-19.75
978.093	-19.59
978.297	-20.45
978.5	-21.87
978.703	-21.43
978.906	-21.72
979.109	-22.19
979.312	-22.8
979.515	-22.77
979.718	-23.37
979.921	-22.6
980.124	-22.9
980.327	-23.55
980.53	-23.11
980.733	-21.76
980.936	-19.6
981.138	-20.17
981.341	-18.27
981.544	-18.11
981.747	-18.1
981.949	-18.82
982.152	-19.93
982.355	-19.09
982.558	-17.01
982.76	-20.02
982.963	-19.65
983.165	-19.48
983.368	-18.97
983.571	-18.36
983.773	-16.81
983.976	-18.3
984.178	-17.38
984.381	-18.42
984.583	-18.65
984.785	-18.45
984.988	-16.29
985.19	-13.98
985.392	-14.93
985.595	-15.87
985.797	-15.88
985.999	-12.13
986.202	-10.83
986.404	-11.83
986.606	-10.11
986.808	-11.61
987.01	-9.89
987.212	-11.36
987.415	-11.78
987.617	-12.29
987.819	-12.89
988.021	-11.32
988.223	-11.5
988.425	-11.15
988.627	-12.4
988.829	-15.56
989.031	-13.41
989.232	-14.94
989.434	-14.36
989.636	-15.13
989.838	-15.88
990.04	-15.63
990.242	-14.98
990.443	-17.89
990.645	-15.47
990.847	-14.12
991.048	-13.21
991.25	-15.04
991.452	-15.76
991.653	-16.58
991.855	-16.29
992.057	-17.02
992.258	-18.12
992.46	-18.07
992.661	-15.93
992.863	-17.54
993.064	-16.68
993.265	-18.96
993.467	-19.67
993.668	-18.17
993.87	-17.2
994.071	-16.52
994.272	-16.65
994.473	-16.48
994.675	-16.72
994.876	-15.98
995.077	-15.37
995.278	-14.4
995.48	-12.86
995.681	-15.39
995.882	-14.75
996.083	-14.96
996.284	-16.95
996.485	-17.73
996.686	-19.01
996.887	-19.98
997.088	-22.45
997.289	-24.77
997.49	-24.86
997.691	-26.02
997.892	-25.26
998.092	-22.47
998.293	-21.96
998.494	-22.59
998.695	-23.89
998.896	-23.04
999.096	-22.94
999.297	-22.85
999.498	-23.85
999.698	-26.15
999.899	-27.97
1000.1	-29.62
1000.3	-29.79
1000.501	-30.87
1000.701	-29.76
1000.902	-30.46
1001.102	-29.92
1001.303	-27.66
1001.503	-30.29
1001.704	-30.5
1001.904	-31.08
1002.105	-30.5
1002.305	-30.41
1002.505	-30.61
1002.706	-29.85
1002.906	-28.15
1003.106	-28.3
1003.306	-26.85
1003.507	-24.82
1003.707	-25.33
1003.907	-22.66
1004.107	-22.09
1004.307	-23.98
1004.507	-22.88
1004.707	-23.47
1004.907	-24.13
1005.107	-24.87
1005.308	-23.73
1005.507	-24.13
1005.707	-20.3
1005.907	-19.82
1006.107	-16.33
1006.307	-15.06
1006.507	-16.21
1006.707	-14.44
1006.907	-14.6
1007.106	-15.11
1007.306	-15.29
1007.506	-15.59
1007.706	-16.72
1007.905	-17.26
1008.105	-16.29
1008.305	-17.62
1008.504	-16.56
1008.704	-13.34
1008.903	-13.2
1009.103	-12.09
1009.303	-13.89
1009.502	-14.42
1009.702	-15.45
1009.901	-14.35
1010.1	-17.25
1010.3	-15.53
1010.499	-16.49
1010.699	-18.21
1010.898	-17.87
1011.097	-16.65
1011.296	-15.92
1011.496	-17.91
1011.695	-17.62
1011.894	-20.73
1012.093	-18.36
1012.293	-20.05
1012.492	-21.74
1012.691	-21.16
1012.89	-21.75
1013.089	-23.61
1013.288	-21.65
1013.487	-21.49
1013.686	-22
1013.885	-21.82
1014.084	-22.17
1014.283	-21.74
1014.482	-22.59
1014.681	-23.28
1014.88	-26.38
1015.078	-25.5
1015.277	-27.85
1015.476	-28.22
1015.675	-27.57
1015.873	-27.23
1016.072	-28.52
1016.271	-26.74
1016.47	-30.56
1016.668	-29.55
1016.867	-30.47
1017.065	-32.11
1017.264	-33.36
1017.463	-33.1
1017.661	-32.1
1017.86	-32.13
1018.058	-29.94
1018.256	-31.67
1018.455	-32.7
1018.653	-32.35
1018.852	-31.66
1019.05	-32.63
1019.248	-32.63
1019.447	-34.61
1019.645	-35.58
1019.843	-36.79
1020.041	-35.18
1020.24	-34.98
1020.438	-31.87
1020.636	-31.45
1020.834	-33.17
1021.032	-30.31
1021.23	-30.55
1021.428	-29.07
1021.626	-26.08
1021.824	-26.12
1022.022	-26.83
1022.22	-25.22
1022.418	-24.59
1022.616	-24.69
1022.814	-23.64
1023.012	-22.8
1023.21	-21.72
1023.408	-21.68
1023.606	-23.3
1023.803	-18.59
1024.001	-17.86
1024.199	-20.34
1024.397	-19.1
1024.594	-19.91
1024.792	-19.09
1024.99	-17.95
1025.187	-18.81
1025.385	-15.72
1025.582	-14.97
1025.78	-14.44
1025.977	-13.94
1026.175	-13.94
1026.372	-14.21
1026.57	-17.02
1026.767	-15.18
1026.965	-14.72
1027.162	-16.16
1027.359	-17.04
1027.557	-17.21
1027.754	-20.04
1027.951	-20.32
1028.148	-18.67
1028.346	-19.53
1028.543	-20.73
1028.74	-19.93
1028.937	-23.32
1029.134	-23.2
1029.331	-23.81
1029.528	-23.57
1029.725	-23.94
1029.923	-28.12
1030.12	-27.16
1030.317	-25.97
1030.513	-23.59
1030.71	-22.75
1030.907	-22.63
1031.104	-23.93
1031.301	-23.59
1031.498	-24.6
1031.695	-24.93
1031.892	-25.66
1032.088	-24.77
1032.285	-25.62
1032.482	-25.83
1032.678	-27.4
1032.875	-28.04
1033.072	-27.76
1033.268	-27.89
1033.465	-28.31
1033.662	-29.91
1033.858	-28.67
1034.055	-28.88
1034.251	-27.64
1034.448	-29
1034.644	-28.8
1034.84	-27.54
1035.037	-25.05
1035.233	-23.96
1035.43	-23.38
1035.626	-24.3
1035.822	-23.67
1036.019	-23.2
1036.215	-26.54
1036.411	-26.94
1036.607	-30.07
1036.803	-31.08
1037	-31.34
1037.196	-31.77
1037.392	-31.64
1037.588	-32.72
1037.784	-31.44
1037.98	-30.96
1038.176	-31.81
1038.372	-32.32
1038.568	-30.6
1038.764	-29.3
1038.96	-28.12
1039.156	-29.68
1039.352	-29.79
1039.547	-28.67
1039.743	-27.88
1039.939	-25.97
1040.135	-26.9
1040.331	-28.72
1040.526	-25.66
1040.722	-26.88
1040.918	-26.67
1041.113	-28.56
1041.309	-30.77
1041.505	-31.17
1041.7	-30.74
1041.896	-29.87
1042.091	-29.96
1042.287	-27.6
1042.482	-27.48
1042.678	-26.68
1042.873	-25.97
1043.069	-26.36
1043.264	-26.5
1043.459	-25.99
1043.655	-25.84
1043.85	-27.26
1044.045	-27.11
1044.24	-26.59
1044.436	-24.7
1044.631	-25.54
1044.826	-25.31
1045.021	-27.41
1045.216	-24.54
