Data from FLMT021711__6__16-29-53-188.txt Node

Date: Tue Nov 05 16:29:53 CET 2024
User: Etudiants TP
Spectrometer: FLMT02171
Trigger mode: 0
Integration Time (sec): 1.000000E-1
Scans to average: 5
Electric dark correction enabled: true
Nonlinearity correction enabled: false
Boxcar width: 15
XAxis mode: Wavelengths
Number of Pixels in Spectrum: 3648
>>>>>Begin Spectral Data<<<<<
194.658	-46.61
194.923	-44.68
195.188	-39.12
195.453	-39.05
195.717	-35.3
195.982	-34.55
196.247	-32.71
196.512	-35.5
196.777	-33.45
197.042	-33
197.307	-33.65
197.572	-30.18
197.837	-30.49
198.101	-28.54
198.366	-26.39
198.631	-24.42
198.896	-21.23
199.161	-15.3
199.425	-9.92
199.69	-1.96
199.955	-2.43
200.22	-4.13
200.484	-5.18
200.749	-6.05
201.014	-4.79
201.278	-5.69
201.543	-3.57
201.807	-3.68
202.072	-2.59
202.337	-3.72
202.601	-3.02
202.866	-3.89
203.13	-2.69
203.395	-4.65
203.659	-4.11
203.924	-4.6
204.189	-2.81
204.453	-1.68
204.717	0.85
204.982	1.12
205.246	2.9
205.511	5.38
205.775	4.55
206.04	9.46
206.304	10.5
206.568	10.93
206.833	10.88
207.097	12.53
207.361	13.03
207.626	15.21
207.89	14.87
208.154	17.19
208.419	18.78
208.683	19.34
208.947	21.2
209.211	21.98
209.476	22.88
209.74	23.6
210.004	22.5
210.268	24.12
210.532	25.64
210.796	25.21
211.061	24.66
211.325	24.94
211.589	23.64
211.853	23.29
212.117	22.62
212.381	21.41
212.645	20.59
212.909	21.83
213.173	20.07
213.437	19.7
213.701	19.75
213.965	20.91
214.229	16.13
214.493	14.59
214.757	15.03
215.021	14.07
215.285	16.81
215.549	17.86
215.813	16.64
216.077	16.96
216.34	15.95
216.604	15.35
216.868	15.23
217.132	16.68
217.396	15.25
217.659	15.95
217.923	12.89
218.187	14.72
218.451	12.3
218.714	11.55
218.978	11.78
219.242	13.29
219.505	13.54
219.769	14.88
220.033	14.85
220.296	16.14
220.56	16.8
220.824	14.87
221.087	14.58
221.351	15.48
221.614	15.02
221.878	14.76
222.142	13.21
222.405	14.19
222.669	16.33
222.932	12.44
223.196	12.35
223.459	9.7
223.722	10.88
223.986	9.64
224.249	8.45
224.513	9
224.776	8.76
225.04	7.98
225.303	6.45
225.566	6.45
225.83	6.88
226.093	9.51
226.356	7.66
226.62	6.88
226.883	8.06
227.146	9.1
227.409	9.7
227.673	8.67
227.936	9.14
228.199	9.97
228.462	7.8
228.725	6.97
228.989	7.8
229.252	7.56
229.515	10.03
229.778	9.25
230.041	7.89
230.304	6.68
230.567	7.43
230.83	5.33
231.093	8.34
231.356	7.9
231.619	12.96
231.882	11.32
232.145	13.59
232.408	12.84
232.671	13.38
232.934	12.21
233.197	12.19
233.46	11.41
233.723	12.08
233.986	11.27
234.249	8.98
234.512	10.61
234.775	13.88
235.037	12.78
235.3	12.43
235.563	12.09
235.826	11.42
236.089	12.68
236.351	12.71
236.614	15.32
236.877	16.15
237.14	17.38
237.402	17.36
237.665	13.12
237.928	13.71
238.19	13.75
238.453	14.74
238.716	14.42
238.978	13.98
239.241	12.45
239.503	13.4
239.766	9.41
240.029	8.55
240.291	9.37
240.554	8.97
240.816	6.97
241.079	7.6
241.341	6.32
241.604	6.2
241.866	4.15
242.129	4.86
242.391	6.92
242.653	7.19
242.916	6.62
243.178	6.02
243.441	7.54
243.703	7.89
243.965	7.44
244.228	7.57
244.49	7.85
244.752	8.63
245.015	9.42
245.277	10.89
245.539	10.78
245.801	12.21
246.064	11.82
246.326	10.81
246.588	11.76
246.85	13.43
247.112	15.26
247.374	16.57
247.637	18.82
247.899	18.39
248.161	17.67
248.423	14.72
248.685	15.28
248.947	16.17
249.209	15.22
249.471	17.41
249.733	17.51
249.995	17.33
250.257	16.37
250.519	14.95
250.781	15.83
251.043	13.14
251.305	16
251.567	16.22
251.829	15.23
252.091	15.83
252.353	12.2
252.615	12.12
252.876	9.38
253.138	8
253.4	5.8
253.662	6.31
253.924	8.28
254.185	8.81
254.447	10.61
254.709	10.39
254.971	11.07
255.232	12.13
255.494	10.82
255.756	9.83
256.017	11.07
256.279	12.59
256.541	13.45
256.802	13.16
257.064	13.66
257.326	13.45
257.587	13.16
257.849	14.7
258.11	16.31
258.372	16.87
258.633	16.86
258.895	15.81
259.156	15.34
259.418	13.81
259.679	10.66
259.941	8.58
260.202	9.64
260.464	12.01
260.725	11.12
260.987	11.15
261.248	11.27
261.509	10.32
261.771	9.28
262.032	10.14
262.293	10.12
262.555	8.98
262.816	7.3
263.077	5.32
263.338	3.51
263.6	4.39
263.861	3.84
264.122	3.26
264.383	4.2
264.645	3.78
264.906	3.1
265.167	3.38
265.428	3.39
265.689	3.68
265.95	1.86
266.211	3.46
266.473	2.58
266.734	1.35
266.995	-1.32
267.256	0.25
267.517	1.4
267.778	3.83
268.039	5.8
268.3	5.45
268.561	3.75
268.822	5.98
269.083	4.29
269.344	3.3
269.604	3.37
269.865	3.74
270.126	0.24
270.387	1.15
270.648	2.31
270.909	2.3
271.17	1.53
271.43	-1.27
271.691	-3.59
271.952	-4.84
272.213	-2.65
272.473	-4.49
272.734	-2.82
272.995	-0.56
273.256	0.73
273.516	3.59
273.777	2.13
274.038	4.42
274.298	2.44
274.559	2.95
274.82	6.3
275.08	9.8
275.341	12.37
275.601	11.9
275.862	9.89
276.122	9.58
276.383	10.05
276.643	10.96
276.904	10.1
277.164	13.19
277.425	13.05
277.685	17.35
277.946	17.7
278.206	19.14
278.467	20.46
278.727	21.17
278.987	21.42
279.248	20.16
279.508	21.62
279.768	23.81
280.029	24.94
280.289	21.8
280.549	21.3
280.81	20.52
281.07	20.5
281.33	20.59
281.59	17.68
281.851	19.82
282.111	18.98
282.371	18.74
282.631	20.48
282.891	19.07
283.151	16.87
283.412	14.29
283.672	13.5
283.932	14.24
284.192	14.66
284.452	12.15
284.712	10.64
284.972	9.52
285.232	8.34
285.492	10.31
285.752	6.85
286.012	10.46
286.272	11.55
286.532	10.33
286.792	9.66
287.052	10.7
287.312	13.25
287.571	12.93
287.831	13.02
288.091	11.7
288.351	11.85
288.611	14.65
288.871	13.3
289.13	11.85
289.39	9.06
289.65	10.72
289.91	9.44
290.17	10.98
290.429	11.3
290.689	8.94
290.949	8.29
291.208	9.54
291.468	11.57
291.728	11.9
291.987	12.15
292.247	10.89
292.506	13.55
292.766	16.49
293.026	15.62
293.285	14.43
293.545	15.86
293.804	17.06
294.064	14.97
294.323	13.4
294.583	12.69
294.842	13.02
295.102	13.08
295.361	11.64
295.621	11.58
295.88	12.45
296.139	11.96
296.399	12.84
296.658	8.67
296.917	10.63
297.177	8.65
297.436	10.09
297.695	7.99
297.955	8.69
298.214	7.04
298.473	8.92
298.732	10.46
298.992	11.66
299.251	11.61
299.51	9.25
299.769	10.19
300.028	11.22
300.287	12.61
300.547	12.94
300.806	9.83
301.065	13
301.324	16.31
301.583	12.97
301.842	9.5
302.101	7.98
302.36	8.45
302.619	7.88
302.878	8.4
303.137	6.42
303.396	8.23
303.655	10.05
303.914	7.55
304.173	7.88
304.432	6.97
304.691	10.32
304.95	7.81
305.208	12.26
305.467	12.68
305.726	12.98
305.985	13.93
306.244	14.18
306.503	13.23
306.761	12.67
307.02	9.37
307.279	9.33
307.537	10.3
307.796	7.79
308.055	5.32
308.314	5.88
308.572	3.86
308.831	6.31
309.09	6.06
309.348	6.75
309.607	6.43
309.865	10.2
310.124	9.46
310.382	9.79
310.641	11.12
310.9	10.58
311.158	12.02
311.417	10.74
311.675	10.66
311.933	11.49
312.192	11.73
312.45	11.3
312.709	9.61
312.967	10.04
313.226	9.38
313.484	8.26
313.742	8.08
314.001	6.76
314.259	6.58
314.517	8.28
314.776	8.2
315.034	12.1
315.292	10.76
315.55	10.26
315.809	10.19
316.067	10.22
316.325	8
316.583	9.16
316.841	8.52
317.1	7.37
317.358	4.56
317.616	5.38
317.874	3.98
318.132	4.73
318.39	4.98
318.648	4.43
318.906	3.7
319.164	2.89
319.422	2.01
319.68	-0.09
319.938	1.06
320.196	2.39
320.454	3.52
320.712	4.12
320.97	2.63
321.228	0.21
321.486	1.37
321.744	2.34
322.002	3.14
322.26	1.55
322.517	0.23
322.775	-1.49
323.033	-3.37
323.291	-1.51
323.549	-1.99
323.806	-0.64
324.064	0.33
324.322	3.08
324.58	1.71
324.837	2.1
325.095	1.36
325.353	2.03
325.61	3.35
325.868	1.77
326.126	2.64
326.383	1.96
326.641	0.6
326.898	1.15
327.156	2.75
327.413	2.74
327.671	4.56
327.928	5.07
328.186	5.5
328.443	4.77
328.701	7.44
328.958	9.92
329.216	11.95
329.473	10.67
329.731	11.35
329.988	11.23
330.245	13.27
330.503	14.8
330.76	16.52
331.017	17.56
331.275	15.43
331.532	15.8
331.789	14.78
332.047	13.62
332.304	11.49
332.561	11.05
332.818	10.28
333.076	11.1
333.333	11.98
333.59	11.96
333.847	13.99
334.104	13.13
334.361	12.28
334.618	11.93
334.876	9.88
335.133	9.21
335.39	9.14
335.647	9.24
335.904	6.44
336.161	3.18
336.418	3.53
336.675	0.59
336.932	0.33
337.189	-1.33
337.446	-0.11
337.703	-1.06
337.96	-3.63
338.216	-3.91
338.473	-6.75
338.73	-6.76
338.987	-7.28
339.244	-4.58
339.501	-7.07
339.757	-6.24
340.014	-4.77
340.271	-4.84
340.528	-3.42
340.785	-0.55
341.041	-0.71
341.298	-2.9
341.555	-3.7
341.811	-4.02
342.068	-5.09
342.325	-4.4
342.581	-2.48
342.838	0.12
343.094	-0.22
343.351	-0.98
343.608	-1.43
343.864	0
344.121	1.33
344.377	1.17
344.634	1.23
344.89	1.05
345.147	1.62
345.403	0.37
345.66	0.24
345.916	1.78
346.172	0.76
346.429	-0.07
346.685	-1.09
346.942	-0.49
347.198	-2.98
347.454	-0.98
347.711	-1.64
347.967	-3.48
348.223	-3.28
348.48	-3.46
348.736	-0.28
348.992	-0.78
349.248	2.05
349.504	2.2
349.761	1.86
350.017	1.86
350.273	1.72
350.529	0.81
350.785	-0.65
351.041	-1.15
351.297	1.74
351.554	0.23
351.81	-0.12
352.066	-0.61
352.322	-1.04
352.578	-1.25
352.834	-1.09
353.09	-0.95
353.346	0.29
353.602	-0.63
353.858	-1.61
354.114	-2.54
354.369	-1.34
354.625	-0.05
354.881	-1.48
355.137	-1.09
355.393	-2
355.649	0.02
355.905	0.5
356.16	0.92
356.416	1.52
356.672	-4.45
356.928	-3.62
357.183	-5
357.439	-4.89
357.695	-5.17
357.951	-2.05
358.206	-1.38
358.462	-2.36
358.718	-3.75
358.973	-4.75
359.229	-5.89
359.484	-4.46
359.74	-3.14
359.996	-4.62
360.251	-1.15
360.507	-0.13
360.762	-0.88
361.018	1.16
361.273	0.16
361.529	2.14
361.784	3.06
362.04	5.65
362.295	6
362.55	6.04
362.806	8.72
363.061	10.22
363.316	11.96
363.572	11.59
363.827	13.5
364.082	11.55
364.338	11.73
364.593	12.61
364.848	12.22
365.104	11.78
365.359	13.42
365.614	13.85
365.869	12.21
366.124	12.95
366.38	13.3
366.635	14.71
366.89	17.59
367.145	16.51
367.4	18.22
367.655	18.44
367.91	20.43
368.165	17.82
368.42	15.34
368.675	16.72
368.93	17.16
369.185	14.83
369.44	15.01
369.695	14.84
369.95	13.08
370.205	12.87
370.46	12.86
370.715	10.83
370.97	11.25
371.225	11.59
371.48	12.36
371.734	11.21
371.989	12.26
372.244	11.53
372.499	12.54
372.754	10.84
373.008	9.17
373.263	5.85
373.518	6.95
373.773	5.24
374.027	3.74
374.282	5.32
374.537	5.85
374.791	5.33
375.046	6.4
375.301	4.52
375.555	3.22
375.81	4.45
376.064	5.74
376.319	8
376.573	7.23
376.828	4.3
377.082	8.64
377.337	6.14
377.591	5.31
377.846	5.56
378.1	7.38
378.355	6.99
378.609	7.01
378.863	5.02
379.118	5.78
379.372	4.18
379.627	3.23
379.881	2.56
380.135	2.09
380.389	1.35
380.644	3.57
380.898	4.03
381.152	4.47
381.407	4.06
381.661	5.62
381.915	4.38
382.169	4.51
382.423	4.54
382.677	2.2
382.932	2.35
383.186	3.75
383.44	2.7
383.694	4.69
383.948	3.31
384.202	3.42
384.456	4.25
384.71	4.2
384.964	2.74
385.218	4.26
385.472	5.46
385.726	5.13
385.98	3.13
386.234	3.16
386.488	1.7
386.742	2.09
386.996	0.2
387.249	0.39
387.503	2.61
387.757	3.83
388.011	4.97
388.265	5.24
388.518	5.67
388.772	7.92
389.026	9.71
389.28	8.41
389.533	7.66
389.787	10.73
390.041	9.88
390.295	9.29
390.548	10.1
390.802	11.15
391.055	9.9
391.309	11.01
391.563	8.83
391.816	9.34
392.07	7.96
392.323	8.81
392.577	9.21
392.83	8.51
393.084	12.74
393.337	13.84
393.591	14.45
393.844	16.15
394.098	18.1
394.351	21.63
394.604	23.75
394.858	25.8
395.111	26.97
395.364	25.37
395.618	24.92
395.871	23.15
396.124	22.36
396.378	21.28
396.631	19.87
396.884	18.64
397.137	18.91
397.391	19.99
397.644	17.75
397.897	18.06
398.15	18.84
398.403	20.77
398.657	20.8
398.91	20.59
399.163	20.92
399.416	20.04
399.669	18.97
399.922	17.79
400.175	16.46
400.428	17.8
400.681	20.26
400.934	18.28
401.187	20.37
401.44	22.31
401.693	22.38
401.946	21.39
402.199	17.9
402.452	17.44
402.704	14.32
402.957	12.36
403.21	13.64
403.463	13.96
403.716	15.2
403.969	16.69
404.221	17.11
404.474	18.85
404.727	20.69
404.98	22.98
405.232	22.6
405.485	24.23
405.738	25
405.99	25.29
406.243	24.69
406.496	24.82
406.748	24.09
407.001	23.91
407.253	24.57
407.506	24.58
407.759	26.22
408.011	23.82
408.264	23.21
408.516	21.32
408.769	17.7
409.021	16.39
409.274	14.32
409.526	14.22
409.778	13.37
410.031	15.06
410.283	15.34
410.536	19.66
410.788	18.64
411.04	17.82
411.293	19.04
411.545	20.12
411.797	17.76
412.049	16.95
412.302	17.41
412.554	17.94
412.806	16.07
413.058	15.72
413.311	16.34
413.563	15.6
413.815	15.63
414.067	15.65
414.319	14.39
414.571	15.68
414.823	14.88
415.075	14.03
415.328	13.91
415.58	15.96
415.832	18.57
416.084	19.53
416.336	18.67
416.588	21.84
416.84	21.08
417.091	24.36
417.343	21.64
417.595	22.75
417.847	23.95
418.099	22.68
418.351	21.98
418.603	25.16
418.855	26.9
419.106	27.57
419.358	26.5
419.61	28.39
419.862	29.25
420.114	27.29
420.365	26.96
420.617	26.65
420.869	24.4
421.12	24.03
421.372	25.29
421.624	25.02
421.875	24.9
422.127	24.46
422.379	24.52
422.63	25.29
422.882	25.21
423.133	27.53
423.385	27.28
423.636	26.82
423.888	27.91
424.139	30.88
424.391	29.12
424.642	26.62
424.894	23.8
425.145	24.6
425.396	22.83
425.648	23.61
425.899	23.26
426.151	22.57
426.402	22.45
426.653	22.1
426.905	20.35
427.156	19.7
427.407	18.25
427.658	17.16
427.91	16.91
428.161	15.83
428.412	18.66
428.663	20.76
428.914	21.89
429.166	22.52
429.417	21.72
429.668	20.39
429.919	18.1
430.17	18.38
430.421	19.56
430.672	20.86
430.923	19.95
431.174	20.16
431.425	24.39
431.676	28.17
431.927	31.32
432.178	40.74
432.429	48.93
432.68	55.64
432.931	62.82
433.182	67.28
433.433	67.61
433.683	70.11
433.934	69.92
434.185	68.14
434.436	67.13
434.687	68.06
434.937	68.78
435.188	68.07
435.439	68.74
435.69	69.69
435.94	69.52
436.191	68.93
436.442	68.42
436.692	65.66
436.943	63.21
437.194	63.25
437.444	65.66
437.695	69.19
437.945	69.44
438.196	67.29
438.447	67.64
438.697	66.87
438.948	65.15
439.198	60.02
439.449	52.4
439.699	46.2
439.949	37.76
440.2	30.4
440.45	24.77
440.701	17.85
440.951	14.26
441.201	12.79
441.452	10.57
441.702	10.02
441.952	11.16
442.203	11.15
442.453	9.8
442.703	10.22
442.953	11.7
443.204	12.85
443.454	11.01
443.704	11.43
443.954	8.93
444.204	9.54
444.455	11.62
444.705	13.42
444.955	13.37
445.205	12.39
445.455	9.7
445.705	8.91
445.955	9.53
446.205	7.83
446.455	8.08
446.705	8.52
446.955	8.5
447.205	10.09
447.455	13.27
447.705	11.47
447.955	10.45
448.205	10.72
448.454	11.38
448.704	12.33
448.954	10.53
449.204	11
449.454	12.68
449.704	11.34
449.953	12.42
450.203	13.68
450.453	12.86
450.703	14.55
450.952	12.55
451.202	14.15
451.452	12.33
451.701	14.45
451.951	16.51
452.201	15.95
452.45	14.43
452.7	15.4
452.949	13.25
453.199	14.03
453.448	15.48
453.698	16.35
453.947	15.35
454.197	15.41
454.446	14.61
454.696	17.58
454.945	16.01
455.195	13.11
455.444	13.3
455.693	16.94
455.943	15.28
456.192	15.7
456.442	14.76
456.691	16.43
456.94	15.43
457.189	12.36
457.439	13.25
457.688	13.33
457.937	12.36
458.186	11.93
458.436	10.8
458.685	11.49
458.934	9.77
459.183	10.87
459.432	12.34
459.681	12.41
459.93	11.77
460.179	12.17
460.429	10.49
460.678	14.39
460.927	16.55
461.176	15.89
461.425	15.21
461.674	18.24
461.923	17.3
462.172	17.2
462.42	14.89
462.669	17.45
462.918	18.37
463.167	19.14
463.416	17.23
463.665	18.89
463.914	18.06
464.162	17.73
464.411	16.69
464.66	18.02
464.909	17.39
465.158	18.01
465.406	16.73
465.655	18.93
465.904	20.97
466.152	21.69
466.401	21.65
466.65	22.58
466.898	21.15
467.147	18.02
467.395	17.15
467.644	17.34
467.893	16.18
468.141	16.13
468.39	13.23
468.638	11.31
468.887	10.3
469.135	8.69
469.384	7.03
469.632	8.03
469.88	7.11
470.129	7.79
470.377	4.71
470.626	5.48
470.874	7.29
471.122	8.45
471.371	5.71
471.619	5.29
471.867	8.17
472.115	7.65
472.364	6.5
472.612	9.75
472.86	8.54
473.108	9.68
473.356	9.24
473.605	7.34
473.853	5.06
474.101	4.97
474.349	4.18
474.597	6.9
474.845	6.52
475.093	5.15
475.341	3.38
475.589	4.77
475.837	6.26
476.085	7.92
476.333	7.45
476.581	8.63
476.829	9.8
477.077	13.19
477.325	12.7
477.573	14.46
477.821	14.75
478.069	16.58
478.317	17.43
478.564	19.05
478.812	17.21
479.06	18.2
479.308	17.36
479.555	17.3
479.803	17.71
480.051	19.83
480.299	19.23
480.546	20.46
480.794	19.41
481.042	21.74
481.289	22.86
481.537	25.53
481.784	27.06
482.032	31.99
482.28	33.04
482.527	34.34
482.775	36.48
483.022	41.14
483.27	41.73
483.517	45.36
483.765	46.24
484.012	47.12
484.259	46.87
484.507	49.97
484.754	52.13
485.002	53.93
485.249	54.75
485.496	58.18
485.744	59.16
485.991	58.83
486.238	57.61
486.486	61.37
486.733	62.94
486.98	66.68
487.227	65.04
487.474	66.75
487.722	67.6
487.969	66.87
488.216	67.54
488.463	67.87
488.71	65.28
488.957	64.94
489.204	63.48
489.451	63.95
489.699	61.43
489.946	58.3
490.193	57.13
490.44	55.97
490.687	53.87
490.934	52.56
491.18	49.04
491.427	48.81
491.674	50.52
491.921	49.86
492.168	47.6
492.415	43.43
492.662	43.2
492.909	43.28
493.155	39.91
493.402	36.82
493.649	35.12
493.896	35.19
494.142	30.99
494.389	30.12
494.636	27.72
494.883	26.04
495.129	24.56
495.376	22.43
495.623	23.01
495.869	22.6
496.116	21.74
496.362	22.02
496.609	24.08
496.855	27.22
497.102	25.87
497.348	25.17
497.595	27.01
497.841	28.37
498.088	27.45
498.334	27.36
498.581	25.95
498.827	25.67
499.074	25.47
499.32	25.38
499.566	26.22
499.813	26.01
500.059	24.35
500.305	22.38
500.552	20.6
500.798	20.1
501.044	23.45
501.29	21.51
501.537	17.78
501.783	20.02
502.029	20.38
502.275	19.06
502.521	18.45
502.767	19.31
503.013	21.09
503.26	18.73
503.506	16.7
503.752	18.23
503.998	17.54
504.244	17.13
504.49	14.86
504.736	15.14
504.982	14.25
505.228	14.75
505.474	15.81
505.72	16.08
505.966	15.12
506.211	17.61
506.457	17.13
506.703	14.36
506.949	13.23
507.195	12.44
507.441	10.37
507.686	13.05
507.932	13.82
508.178	14.97
508.424	13.17
508.669	12.39
508.915	13.08
509.161	15.56
509.406	15.22
509.652	15.78
509.898	17.5
510.143	18.06
510.389	16.65
510.634	12.99
510.88	15
511.125	16.68
511.371	17.35
511.616	16.74
511.862	14.18
512.107	12.01
512.353	11.6
512.598	12.01
512.844	10.49
513.089	8.56
513.335	9.35
513.58	8.46
513.825	8.41
514.071	8.22
514.316	7.51
514.561	7.85
514.806	7.02
515.052	8.81
515.297	6.47
515.542	7.91
515.787	7.3
516.033	9.28
516.278	8.48
516.523	8.91
516.768	8.59
517.013	5.16
517.258	3.8
517.503	3.81
517.748	3.26
517.993	2.43
518.238	2.79
518.483	1.46
518.728	0.79
518.973	-1.06
519.218	-1.18
519.463	-0.13
519.708	0.21
519.953	0.1
520.198	-0.38
520.443	-0.32
520.688	2.09
520.933	1.24
521.177	1.46
521.422	-0.78
521.667	0.21
521.912	1.97
522.157	-1.39
522.401	1.03
522.646	0.86
522.891	0.2
523.135	-1.04
523.38	-0.07
523.625	-0.04
523.869	1.76
524.114	1.65
524.358	0.03
524.603	1.43
524.848	-0.48
525.092	-1.76
525.337	0.47
525.581	1.43
525.826	3.89
526.07	5.19
526.315	5.74
526.559	6.02
526.803	5.31
527.048	7.96
527.292	8.21
527.537	7.72
527.781	7.1
528.025	5.78
528.269	5.23
528.514	5.45
528.758	4.72
529.002	5.74
529.247	7.73
529.491	7.34
529.735	12.25
529.979	12.57
530.223	14.03
530.467	13.22
530.712	13.16
530.956	12.08
531.2	11.51
531.444	9.04
531.688	10.38
531.932	10.86
532.176	12.37
532.42	15.35
532.664	16.96
532.908	15.68
533.152	15.48
533.396	16.44
533.64	16.46
533.884	15.1
534.128	14.97
534.371	17.71
534.615	19.06
534.859	19.48
535.103	20.4
535.347	22.52
535.59	25.67
535.834	25.53
536.078	29.65
536.322	33.01
536.565	37.65
536.809	39.7
537.053	44.85
537.296	48.95
537.54	53.91
537.784	58.69
538.027	68.73
538.271	76.35
538.514	83.98
538.758	93.55
539.001	99.56
539.245	107.29
539.488	116.77
539.732	124.11
539.975	130.21
540.219	138.22
540.462	145.19
540.706	153.61
540.949	157.51
541.192	162.9
541.436	172.78
541.679	182.72
541.922	190.37
542.166	195.49
542.409	204.65
542.652	214.49
542.895	225.16
543.139	233.43
543.382	243.78
543.625	248.58
543.868	253.64
544.111	256.7
544.354	258.39
544.598	258.92
544.841	257.93
545.084	256.55
545.327	254.51
545.57	251.18
545.813	246.87
546.056	241.57
546.299	235.51
546.542	233.64
546.785	230.16
547.028	223.49
547.271	218.6
547.514	214.57
547.756	207.28
547.999	201.97
548.242	197.21
548.485	191.35
548.728	186.41
548.971	177.59
549.213	173.11
549.456	163.88
549.699	154.84
549.942	146.06
550.184	135.84
550.427	124.59
550.67	115.66
550.912	103.4
551.155	96.8
551.398	89.59
551.64	82.75
551.883	78.35
552.125	72.48
552.368	67.65
552.61	61.57
552.853	58.73
553.095	52.87
553.338	49.72
553.58	47.3
553.823	43.5
554.065	41.4
554.308	37.03
554.55	34.11
554.792	30.34
555.035	26.81
555.277	24.07
555.519	23.02
555.762	20.01
556.004	18.62
556.246	15.53
556.488	15.03
556.731	9.08
556.973	9.9
557.215	9.47
557.457	9.21
557.699	11.09
557.941	8.37
558.183	6.88
558.426	8.86
558.668	5.61
558.91	6.14
559.152	5.14
559.394	3.64
559.636	4.19
559.878	6.39
560.12	5.19
560.362	6.71
560.604	7.37
560.845	6.13
561.087	5.31
561.329	6.57
561.571	6.09
561.813	5.37
562.055	3.8
562.297	5.24
562.538	5.42
562.78	7.9
563.022	5.54
563.264	6.11
563.505	6.86
563.747	7.19
563.989	7.02
564.23	7.83
564.472	6.83
564.714	7.54
564.955	6.82
565.197	3.94
565.438	6.1
565.68	7.85
565.921	5.54
566.163	6.78
566.404	4.78
566.646	7.3
566.887	9.09
567.129	10
567.37	7.21
567.612	9.02
567.853	6.69
568.094	7.46
568.336	8.2
568.577	8.61
568.818	8.72
569.06	6.59
569.301	5.32
569.542	6.02
569.783	6.25
570.025	5.5
570.266	4.69
570.507	6.53
570.748	5.63
570.989	5.76
571.23	7.37
571.472	6.11
571.713	4.93
571.954	6.34
572.195	5.46
572.436	7.14
572.677	9.15
572.918	11.43
573.159	11.39
573.4	11.61
573.641	11.56
573.882	13.65
574.123	11.76
574.364	8.17
574.604	8.89
574.845	9.35
575.086	9.78
575.327	10.14
575.568	10.73
575.809	10.7
576.049	11.4
576.29	11.72
576.531	16.77
576.771	20.65
577.012	24.44
577.253	25.25
577.494	25.82
577.734	27.52
577.975	28.18
578.215	28.65
578.456	28.05
578.697	28.18
578.937	31.88
579.178	32.48
579.418	31.72
579.659	32.22
579.899	30.25
580.14	29.59
580.38	30.19
580.62	31.02
580.861	34.29
581.101	35.84
581.342	35.68
581.582	33.08
581.822	35.63
582.063	36.14
582.303	36.29
582.543	35.32
582.783	36.72
583.024	38.2
583.264	41.88
583.504	40.85
583.744	42.06
583.984	40.78
584.224	40.54
584.465	39.64
584.705	40.05
584.945	43.18
585.185	42.65
585.425	43.54
585.665	44.07
585.905	44.27
586.145	45.14
586.385	42.56
586.625	44.38
586.865	44.62
587.105	44.7
587.345	46.2
587.585	46.71
587.824	45.04
588.064	43.92
588.304	41.79
588.544	40.92
588.784	39.44
589.024	41.49
589.263	41.83
589.503	41.4
589.743	43.23
589.982	44.39
590.222	45.43
590.462	43.77
590.701	40.73
590.941	43.19
591.181	41.45
591.42	39.64
591.66	41.23
591.899	41.85
592.139	39.54
592.378	38.26
592.618	37.13
592.857	35.77
593.097	34.2
593.336	34.45
593.576	32.71
593.815	33.27
594.055	32.05
594.294	31.14
594.533	29.84
594.773	29.58
595.012	29.61
595.251	28.63
595.491	29.42
595.73	30.6
595.969	31.71
596.208	32.61
596.447	35.57
596.687	34.81
596.926	33.85
597.165	30.59
597.404	30.72
597.643	28.28
597.882	26.51
598.121	26.83
598.36	27.17
598.599	27.37
598.838	26.32
599.077	21.59
599.316	21.71
599.555	21.11
599.794	20.36
600.033	20.98
600.272	21.81
600.511	21.74
600.75	21.62
600.989	22.87
601.228	23.63
601.466	24.33
601.705	24.23
601.944	25.28
602.183	26.45
602.422	24.96
602.66	24.12
602.899	23.74
603.138	22.88
603.376	20.3
603.615	21.39
603.854	21.19
604.092	22.42
604.331	23.71
604.569	25.2
604.808	24.5
605.047	25.38
605.285	25.55
605.524	25.91
605.762	23.95
606	27.02
606.239	30.44
606.477	33.19
606.716	32.27
606.954	35.55
607.193	38.7
607.431	44.37
607.669	52.72
607.908	63.22
608.146	77.52
608.384	88.69
608.622	98.04
608.861	107.17
609.099	116.52
609.337	123.86
609.575	129.23
609.813	136.94
610.052	143.65
610.29	146.05
610.528	149.09
610.766	152.83
611.004	155.5
611.242	157
611.48	158.59
611.718	158.19
611.956	161.53
612.194	162.82
612.432	163.78
612.67	165.36
612.908	167.69
613.146	167.47
613.384	164.54
613.621	164.23
613.859	164.06
614.097	162.06
614.335	160.01
614.573	156.23
614.811	151.11
615.048	142.12
615.286	132.8
615.524	119.36
615.761	106.61
615.999	97.64
616.237	87.43
616.474	78.95
616.712	72.72
616.95	66.53
617.187	60.65
617.425	56.26
617.662	52.28
617.9	48.67
618.137	44.78
618.375	41.32
618.612	36.77
618.85	36.17
619.087	36.7
619.325	33.26
619.562	30.36
619.799	27.84
620.037	26.39
620.274	23.44
620.511	23.19
620.749	22.79
620.986	20.52
621.223	18.56
621.461	20.05
621.698	20.68
621.935	20.01
622.172	18.41
622.409	19.66
622.647	20.4
622.884	20.53
623.121	23.01
623.358	19.82
623.595	19.53
623.832	20.85
624.069	19.16
624.306	20.2
624.543	21.46
624.78	22.44
625.017	24.05
625.254	25.41
625.491	26.46
625.728	28.6
625.965	29.06
626.202	28.18
626.438	26.99
626.675	26.89
626.912	30.06
627.149	31.48
627.386	31.61
627.622	31.96
627.859	32.81
628.096	32.81
628.333	33.52
628.569	34.54
628.806	35.46
629.043	36.04
629.279	38.75
629.516	40.61
629.752	37.43
629.989	37.48
630.225	34.85
630.462	34.48
630.699	35.07
630.935	36.05
631.171	33.96
631.408	34.45
631.644	31.12
631.881	27.43
632.117	23.83
632.354	22.94
632.59	21.47
632.826	20.05
633.063	18.5
633.299	19.13
633.535	16.68
633.771	15.58
634.008	17.01
634.244	15.43
634.48	13.54
634.716	13.91
634.953	11.13
635.189	10.89
635.425	11.44
635.661	12.12
635.897	10.2
636.133	8.42
636.369	6.84
636.605	1.78
636.841	0.07
637.077	1.22
637.313	-0.2
637.549	0.79
637.785	-0.37
638.021	1.43
638.257	0.41
638.493	1.19
638.729	-0.24
638.965	3.13
639.2	5.04
639.436	5.18
639.672	5.2
639.908	3.38
640.144	8.9
640.379	10.03
640.615	7.56
640.851	8.99
641.086	9.7
641.322	7.89
641.558	7.39
641.793	8.69
642.029	7.25
642.264	7.73
642.5	7.17
642.736	5.2
642.971	4.87
643.207	4.28
643.442	3.25
643.678	3.49
643.913	6.14
644.148	6.32
644.384	9.15
644.619	9.14
644.855	11.24
645.09	10.52
645.325	9.93
645.561	10.27
645.796	8.17
646.031	11.27
646.266	10.15
646.502	9.54
646.737	11.4
646.972	10.47
647.207	12.03
647.442	8.58
647.678	6.06
647.913	8.66
648.148	10.02
648.383	10.29
648.618	11.41
648.853	12.95
649.088	14.76
649.323	17.06
649.558	18.65
649.793	19.36
650.028	21.17
650.263	18.73
650.498	21.16
650.733	21.39
650.968	19.97
651.202	21.35
651.437	18.49
651.672	15.83
651.907	15.11
652.142	15.03
652.376	15.96
652.611	17.24
652.846	18.18
653.081	19.67
653.315	18.01
653.55	17.81
653.785	16.83
654.019	17.42
654.254	16.58
654.488	17.03
654.723	14.78
654.958	13.96
655.192	12.7
655.427	9.66
655.661	10.31
655.896	11.15
656.13	11.5
656.364	9.18
656.599	7.74
656.833	13.45
657.068	13.9
657.302	12.86
657.536	11.72
657.771	11.43
658.005	11.93
658.239	13.17
658.474	12.09
658.708	14.58
658.942	13.57
659.176	12.02
659.41	9.38
659.645	10.71
659.879	10.43
660.113	7.79
660.347	7.21
660.581	5.85
660.815	4.87
661.049	5.56
661.283	3.21
661.517	1.91
661.751	0.22
661.985	0.28
662.219	1.69
662.453	0.77
662.687	1.03
662.921	-2.69
663.155	-3.93
663.389	-7.97
663.622	-10.36
663.856	-8.87
664.09	-15.15
664.324	-14.64
664.558	-15.53
664.791	-15.12
665.025	-15.05
665.259	-14.56
665.492	-15.46
665.726	-13.1
665.96	-13.14
666.193	-14.18
666.427	-12.31
666.661	-12.67
666.894	-15.07
667.128	-15.82
667.361	-14.24
667.595	-15.24
667.828	-15.35
668.062	-16.07
668.295	-15.88
668.529	-14.95
668.762	-13.19
668.995	-13.55
669.229	-11.65
669.462	-12.53
669.695	-9.87
669.929	-10.43
670.162	-7.97
670.395	-7.89
670.629	-6.76
670.862	-4.87
671.095	-8.36
671.328	-7.61
671.561	-10.07
671.795	-7.26
672.028	-6.81
672.261	-6
672.494	-4.31
672.727	-4.46
672.96	-5.58
673.193	-6.31
673.426	-2.47
673.659	-1.52
673.892	-1.36
674.125	-1.96
674.358	-2.69
674.591	-3.23
674.824	-2.54
675.057	-3.37
675.29	-2.59
675.523	-2.38
675.755	-3.5
675.988	-2.51
676.221	0.54
676.454	0.02
676.687	1.89
676.919	-0.84
677.152	0.63
677.385	-0.23
677.617	-0.23
677.85	0.76
678.083	0.72
678.315	2.98
678.548	1.36
678.78	0.72
679.013	-0.05
679.246	1.01
679.478	1.33
679.711	-1.55
679.943	-0.64
680.175	-2.1
680.408	1.01
680.64	-1.44
680.873	-0.18
681.105	1.62
681.338	4.46
681.57	4.52
681.802	6.35
682.034	5.98
682.267	9.28
682.499	10.01
682.731	9.85
682.964	10.39
683.196	8.58
683.428	6.39
683.66	6.28
683.892	8.2
684.124	10.84
684.356	12.01
684.589	12.43
684.821	11.79
685.053	12.16
685.285	12.28
685.517	14.6
685.749	15.65
685.981	17.43
686.213	16.66
686.445	17.02
686.676	15.86
686.908	18.13
687.14	18.06
687.372	18.35
687.604	15.04
687.836	15.17
688.068	13.74
688.299	11.23
688.531	9.31
688.763	13.34
688.995	11.18
689.226	14.03
689.458	11.23
689.69	10.46
689.921	8.04
690.153	6.67
690.384	7.14
690.616	6.59
690.848	6.13
691.079	3.77
691.311	0.93
691.542	-0.21
691.774	-1.16
692.005	0.89
692.237	2.02
692.468	1.32
692.699	-0.84
692.931	-1.04
693.162	-3.02
693.393	-4.15
693.625	-5.34
693.856	-5.48
694.087	-6.58
694.319	-5.65
694.55	-5.96
694.781	-6.26
695.012	-5.61
695.243	-7.09
695.475	-5.55
695.706	-5.06
695.937	-7.64
696.168	-7.85
696.399	-9.77
696.63	-7.8
696.861	-8.1
697.092	-3.84
697.323	-0.66
697.554	0.26
697.785	1.19
698.016	2.58
698.247	1.22
698.478	2.88
698.709	3.87
698.94	6.7
699.171	6.13
699.401	4.37
699.632	5.59
699.863	3.4
700.094	4.94
700.325	7.36
700.555	8.64
700.786	10.53
701.017	11.26
701.247	10.81
701.478	9.28
701.709	9.78
701.939	10.01
702.17	11
702.401	13.25
702.631	14.77
702.862	14.34
703.092	12.85
703.323	15.89
703.553	16.65
703.784	15.37
704.014	16.49
704.244	13.25
704.475	12.79
704.705	13.54
704.936	13.96
705.166	13.13
705.396	14.6
705.627	15.4
705.857	15.55
706.087	15.34
706.317	14.87
706.548	14.03
706.778	15.04
707.008	17.76
707.238	16.91
707.468	15.58
707.698	14.25
707.928	12.98
708.158	11.77
708.389	11.15
708.619	12.27
708.849	11.51
709.079	13.21
709.309	12
709.539	9.87
709.768	8.43
709.998	8.81
710.228	8.45
710.458	7.22
710.688	4.73
710.918	5.62
711.148	3.77
711.378	3.77
711.607	2.63
711.837	2.22
712.067	2.84
712.297	1.5
712.526	0.8
712.756	2.47
712.986	-0.32
713.215	-2.7
713.445	-2.91
713.674	-3.24
713.904	-5.19
714.134	-4.84
714.363	-5.74
714.593	-6.46
714.822	-5.54
715.052	-5.68
715.281	-4.97
715.511	-4.1
715.74	-5.56
715.969	-6.49
716.199	-8.74
716.428	-8.7
716.657	-7.49
716.887	-5.64
717.116	-6.6
717.345	-4.91
717.575	-4.79
717.804	-3.31
718.033	-5.01
718.262	-5.32
718.492	-4.36
718.721	-3.53
718.95	-4.52
719.179	-5.92
719.408	-4.62
719.637	-7.03
719.866	-9.7
720.095	-7.71
720.324	-8.36
720.553	-11.77
720.782	-12.12
721.011	-12.4
721.24	-13.53
721.469	-14.62
721.698	-15.11
721.927	-15.47
722.156	-16.25
722.385	-16.81
722.613	-16.19
722.842	-15.71
723.071	-13.2
723.3	-10.42
723.529	-11.34
723.757	-10.96
723.986	-12.59
724.215	-12.31
724.443	-12.45
724.672	-12.37
724.901	-12.35
725.129	-11.62
725.358	-9.04
725.586	-10.8
725.815	-12.28
726.043	-12.29
726.272	-13.31
726.5	-13.04
726.729	-12.64
726.957	-14.32
727.186	-15.54
727.414	-13.57
727.642	-12.43
727.871	-10.9
728.099	-10.8
728.327	-11.45
728.556	-8.59
728.784	-7.01
729.012	-8.41
729.241	-6.48
729.469	-7.37
729.697	-8.2
729.925	-7.98
730.153	-9.05
730.381	-10.73
730.61	-10.55
730.838	-13.54
731.066	-13.28
731.294	-13.28
731.522	-13.97
731.75	-16.05
731.978	-16.39
732.206	-15.26
732.434	-16.94
732.662	-14.99
732.89	-15.31
733.118	-15.55
733.346	-15.96
733.573	-16.74
733.801	-14.49
734.029	-9.77
734.257	-9.44
734.485	-7.8
734.712	-6.14
734.94	-8.24
735.168	-6.11
735.396	-5.15
735.623	-7.02
735.851	-6.43
736.078	-4.65
736.306	-4.17
736.534	-3.55
736.761	-3.22
736.989	-4.35
737.216	-6.11
737.444	-6.18
737.671	-6.33
737.899	-2.04
738.126	-3.56
738.354	-3.03
738.581	-3.46
738.809	-2.53
739.036	-3.11
739.263	-3.11
739.491	-4.22
739.718	-5.35
739.945	-1.58
740.173	-1.35
740.4	-0.64
740.627	-0.81
740.854	-1.32
741.081	-4.53
741.309	-5.56
741.536	-8.7
741.763	-9.97
741.99	-7.58
742.217	-6.22
742.444	-6.35
742.671	-5.91
742.898	-5.53
743.125	-6.99
743.352	-9.09
743.579	-9.37
743.806	-10.62
744.033	-8.33
744.26	-6.73
744.487	-7.18
744.714	-5.83
744.941	-6.68
745.167	-3.47
745.394	-4.43
745.621	-4.05
745.848	-5.19
746.075	-3.12
746.301	-2.24
746.528	1.82
746.755	1.17
746.981	-0.43
747.208	1.67
747.435	3.4
747.661	2.21
747.888	2.6
748.114	1.66
748.341	3.12
748.567	4.89
748.794	3.66
749.02	3.03
749.247	-0.54
749.473	-1.35
749.7	-1.05
749.926	-1.22
750.152	1.09
750.379	0.98
750.605	1.74
750.831	2.29
751.058	0.82
751.284	-0.22
751.51	1.53
751.737	3
751.963	1.34
752.189	0.76
752.415	1.15
752.641	-0.12
752.867	0.55
753.094	-0.33
753.32	-0.4
753.546	-3.04
753.772	-0.96
753.998	-1.67
754.224	-2.55
754.45	-2.47
754.676	-0.72
754.902	-0.47
755.128	0.41
755.354	0.38
755.579	0.99
755.805	3.01
756.031	1.2
756.257	0.36
756.483	0.17
756.709	-1.45
756.934	-1.06
757.16	-3
757.386	-1.96
757.612	-4.17
757.837	-5.14
758.063	-3.04
758.289	-0.89
758.514	-2.07
758.74	-4.28
758.965	-5.58
759.191	-4.67
759.416	-3.41
759.642	-0.24
759.868	0.46
760.093	1.03
760.318	-0.12
760.544	0.9
760.769	-1.1
760.995	-2.02
761.22	-2.42
761.445	-2.41
761.671	-1.07
761.896	0.6
762.121	0.08
762.347	0.47
762.572	-1.66
762.797	-1.98
763.022	-0.82
763.248	3.38
763.473	3.9
763.698	3.83
763.923	3.18
764.148	4.51
764.373	3.18
764.598	5.78
764.823	7.01
765.048	4.38
765.273	1.76
765.498	-0.66
765.723	-1.18
765.948	0.34
766.173	-0.96
766.398	-2.27
766.623	-6.29
766.848	-7.09
767.073	-7.44
767.298	-7.19
767.522	-7.6
767.747	-5.29
767.972	-5.38
768.197	-4.46
768.421	-5.12
768.646	-8.61
768.871	-10.94
769.095	-9.93
769.32	-9.85
769.545	-9.35
769.769	-8.06
769.994	-6.67
770.218	-8.58
770.443	-7.21
770.667	-5.31
770.892	-5.19
771.116	-7.42
771.341	-6.15
771.565	-6.6
771.79	-6.47
772.014	-6.61
772.238	-6.99
772.463	-3.85
772.687	-3.68
772.911	-4.88
773.136	-6.14
773.36	-4.31
773.584	-0.75
773.808	-2.39
774.033	-2.61
774.257	-2.69
774.481	-3.48
774.705	-5.23
774.929	-4.31
775.153	-5.22
775.377	-4.13
775.602	-2.37
775.826	-1.96
776.05	-0.65
776.274	-0.4
776.498	0.36
776.722	-0.74
776.945	-1.48
777.169	-2.67
777.393	-3.81
777.617	-4.67
777.841	-4.79
778.065	-2.89
778.289	-4.1
778.512	-5.78
778.736	-5.91
778.96	-5.79
779.184	-4.28
779.407	-4.82
779.631	-3.5
779.855	-3.65
780.078	-3.16
780.302	-4.09
780.526	-6.34
780.749	-4.45
780.973	-3.94
781.196	-3.62
781.42	-4.74
781.643	-3.73
781.867	-3.13
782.09	-4.33
782.314	-4.55
782.537	-5.43
782.76	-5.49
782.984	-4.83
783.207	-5.34
783.431	-5.51
783.654	-6.09
783.877	-8.42
784.1	-8.93
784.324	-9.49
784.547	-10.52
784.77	-12.96
784.993	-14.95
785.216	-14.86
785.44	-14.05
785.663	-13.93
785.886	-11.86
786.109	-12.7
786.332	-13.83
786.555	-14.58
786.778	-13.81
787.001	-13.26
787.224	-13
787.447	-13.11
787.67	-11.52
787.893	-11.2
788.116	-11.4
788.339	-9.67
788.561	-10.54
788.784	-13.33
789.007	-14.56
789.23	-15.77
789.453	-17.29
789.675	-18.48
789.898	-21.14
790.121	-23.66
790.344	-24.71
790.566	-23.28
790.789	-20.49
791.012	-19.31
791.234	-17.79
791.457	-14.75
791.679	-13.14
791.902	-12.07
792.124	-12.89
792.347	-13.35
792.569	-14.94
792.792	-17.36
793.014	-14.65
793.237	-12.67
793.459	-13.14
793.681	-10.91
793.904	-12.89
794.126	-14
794.348	-13.8
794.571	-13.54
794.793	-14.96
795.015	-14.4
795.237	-15.45
795.46	-14.83
795.682	-13
795.904	-10.69
796.126	-11.98
796.348	-10.8
796.57	-8.9
796.792	-8.16
797.014	-4.97
797.237	-3.19
797.459	-2.91
797.681	-3.54
797.903	-3.83
798.124	-3.33
798.346	5.76
798.568	6.68
798.79	9.62
799.012	11.12
799.234	11.76
799.456	12.98
799.678	14.34
799.899	12.53
800.121	10.63
800.343	11.64
800.565	10.69
800.786	12.46
801.008	14.19
801.23	14.78
801.451	13.85
801.673	12.1
801.895	11.69
802.116	12.6
802.338	12.16
802.559	11.83
802.781	9.66
803.002	10.65
803.224	11
803.445	9.66
803.667	11.08
803.888	9.36
804.109	8.98
804.331	9
804.552	9
804.773	8.35
804.995	5.62
805.216	-6.48
805.437	-8.85
805.658	-11.24
805.88	-11.47
806.101	-11.45
806.322	-10.33
806.543	-10.37
806.764	-10.8
806.985	-9.01
807.207	-9.67
807.428	-10.16
807.649	-12.28
807.87	-14.83
808.091	-15.15
808.312	-14.86
808.533	-10.22
808.754	-8.18
808.975	-8.64
809.195	-7.08
809.416	-7.28
809.637	-6.84
809.858	-7.34
810.079	-7.71
810.3	-4.51
810.52	-6.17
810.741	-5.98
810.962	-7.99
811.183	-9.22
811.403	-7.9
811.624	-7.5
811.845	-4.68
812.065	-3.14
812.286	-2.31
812.506	-1.79
812.727	-1.29
812.948	-0.07
813.168	0.82
813.389	-0.05
813.609	1.18
813.83	-1.24
814.05	-1.08
814.27	-2
814.491	2.26
814.711	2.17
814.931	0.1
815.152	-0.58
815.372	-2.52
815.592	-5.03
815.813	-6.29
816.033	-7
816.253	-5.83
816.473	-5.79
816.694	-4.51
816.914	-4.1
817.134	-5.99
817.354	-7.34
817.574	-6.92
817.794	-6.01
818.014	-5.6
818.234	-7.47
818.454	-8.42
818.674	-11.24
818.894	-13.4
819.114	-10.35
819.334	-10.73
819.554	-9.65
819.774	-7.41
819.994	-9.4
820.214	-9.36
820.433	-9.99
820.653	-9.5
820.873	-9.34
821.093	-7.79
821.312	-10.54
821.532	-9.11
821.752	-6.84
821.972	-7.51
822.191	-6.15
822.411	-6.55
822.63	-5.56
822.85	-6.53
823.07	-8.33
823.289	-7.86
823.509	-9.87
823.728	-7.37
823.948	-9.5
824.167	-9.53
824.387	-9.66
824.606	-9.09
824.825	-10.43
825.045	-9.51
825.264	-9.21
825.483	-6.89
825.703	-4.86
825.922	-7.62
826.141	-7.92
826.361	-8.71
826.58	-13.1
826.799	-14.7
827.018	-13.6
827.237	-13.93
827.456	-12.46
827.676	-11.49
827.895	-11.45
828.114	-9.99
828.333	-9.99
828.552	-10.19
828.771	-9.92
828.99	-12.69
829.209	-12.31
829.428	-11.42
829.647	-9.4
829.866	-9.6
830.084	-9.88
830.303	-9.19
830.522	-10.3
830.741	-9.39
830.96	-7.18
831.179	-7.62
831.397	-8.84
831.616	-7.01
831.835	-7.87
832.053	-8.1
832.272	-8.87
832.491	-8.39
832.709	-9.07
832.928	-7.16
833.147	-7.52
833.365	-5.53
833.584	-4
833.802	-3.17
834.021	-3.38
834.239	-3.08
834.458	-4.58
834.676	-6.89
834.894	-7.71
835.113	-8.37
835.331	-8.68
835.55	-9.39
835.768	-8.87
835.986	-7.63
836.204	-9.34
836.423	-10.57
836.641	-10.56
836.859	-11.63
837.077	-10.25
837.296	-11.15
837.514	-11.88
837.732	-13.76
837.95	-14.58
838.168	-12
838.386	-13.7
838.604	-11.6
838.822	-9.91
839.04	-10.26
839.258	-9.45
839.476	-9.68
839.694	-10.89
839.912	-12.27
840.13	-12.09
840.348	-9.02
840.566	-11.4
840.783	-9.42
841.001	-9.57
841.219	-6.93
841.437	-5.8
841.655	-5.81
841.872	-6.07
842.09	-6.47
842.308	-4.18
842.525	-2.86
842.743	-2.81
842.961	-1.52
843.178	-1.49
843.396	1.69
843.613	3.84
843.831	4.96
844.048	5.91
844.266	6.59
844.483	7.09
844.701	6.8
844.918	7.19
845.136	7.69
845.353	4.65
845.57	4.96
845.788	7.34
846.005	5.36
846.222	6.34
846.439	7.49
846.657	8.24
846.874	7.89
847.091	6.5
847.308	7.61
847.526	6.65
847.743	6.71
847.96	3.14
848.177	3.15
848.394	3.15
848.611	3.9
848.828	4.63
849.045	3.3
849.262	2.86
849.479	2.66
849.696	0.69
849.913	0.13
850.13	-3.07
850.347	-1.68
850.564	-3.67
850.78	-4.5
850.997	-4.88
851.214	-5.72
851.431	-4.24
851.647	-7.16
851.864	-7.37
852.081	-5.49
852.298	-8.07
852.514	-9.94
852.731	-8.74
852.948	-8.31
853.164	-8.83
853.381	-8.9
853.597	-11
853.814	-13
854.03	-14.77
854.247	-13.69
854.463	-14.03
854.68	-13.74
854.896	-14.1
855.113	-14.07
855.329	-14.12
855.545	-13.01
855.762	-12.79
855.978	-14.72
856.194	-16.34
856.411	-13.88
856.627	-13.41
856.843	-13.06
857.059	-12.86
857.275	-12.5
857.492	-12.95
857.708	-11.52
857.924	-10.16
858.14	-9.82
858.356	-9.02
858.572	-9.54
858.788	-9.4
859.004	-8.15
859.22	-10.12
859.436	-10.23
859.652	-10.1
859.868	-11.31
860.084	-10.3
860.3	-9.74
860.516	-9.94
860.731	-9.35
860.947	-11.12
861.163	-9.88
861.379	-8.56
861.595	-6.74
861.81	-6.44
862.026	-5.57
862.242	-5.86
862.457	-6.24
862.673	-4.94
862.889	-3.92
863.104	-3.85
863.32	-3.84
863.535	-3.72
863.751	-6.09
863.966	-5.64
864.182	-4.57
864.397	-6.47
864.613	-8.63
864.828	-9.36
865.044	-9.86
865.259	-8.79
865.474	-9.61
865.69	-8.19
865.905	-6.8
866.12	-6.99
866.336	-7.34
866.551	-6.2
866.766	-7.55
866.981	-7.6
867.196	-7.28
867.412	-6.92
867.627	-7.52
867.842	-9.37
868.057	-8.79
868.272	-10.25
868.487	-11.67
868.702	-14.96
868.917	-15.69
869.132	-14.78
869.347	-14.14
869.562	-16.24
869.777	-17.15
869.992	-17.62
870.207	-16.92
870.422	-17.13
870.636	-17.6
870.851	-18.28
871.066	-18.92
871.281	-16.32
871.495	-17.35
871.71	-13.67
871.925	-14.98
872.14	-15.18
872.354	-17.05
872.569	-17.11
872.783	-16.55
872.998	-16.05
873.213	-16.37
873.427	-13.14
873.642	-12.66
873.856	-12.95
874.071	-12.81
874.285	-12.68
874.5	-12.93
874.714	-15
874.928	-14.34
875.143	-14.03
875.357	-13.28
875.571	-14.27
875.786	-13.83
876	-12
876.214	-9.7
876.429	-10.72
876.643	-10.37
876.857	-9.84
877.071	-8.53
877.285	-9.13
877.499	-11.21
877.714	-8.5
877.928	-7.69
878.142	-8.24
878.356	-11.88
878.57	-11.49
878.784	-10.76
878.998	-10.36
879.212	-9.57
879.426	-11.75
879.639	-11.32
879.853	-13.04
880.067	-14.12
880.281	-15.36
880.495	-13.81
880.709	-11.82
880.922	-11.72
881.136	-10.69
881.35	-9.21
881.564	-10
881.777	-10.54
881.991	-8.82
882.205	-5.69
882.418	-6.22
882.632	-8.65
882.845	-9.27
883.059	-9.32
883.273	-9.66
883.486	-10.11
883.7	-8.91
883.913	-8.78
884.126	-7.53
884.34	-10.82
884.553	-12.88
884.767	-9.76
884.98	-9.31
885.193	-9.77
885.407	-10.12
885.62	-9.45
885.833	-8.75
886.046	-6.52
886.26	-7.15
886.473	-6.05
886.686	-6.17
886.899	-3.79
887.112	-4.09
887.326	-6.95
887.539	-5.46
887.752	-4.84
887.965	-6.23
888.178	-5.25
888.391	-5.34
888.604	-4.79
888.817	-7.64
889.03	-6.43
889.243	-7.34
889.455	-8.24
889.668	-6.6
889.881	-2.61
890.094	-3.84
890.307	-6.05
890.52	-5.31
890.732	-4.16
890.945	-4.05
891.158	-3.49
891.37	-5.03
891.583	-3.83
891.796	-2.2
892.008	-3.13
892.221	-4.41
892.434	-6.33
892.646	-8.57
892.859	-9.37
893.071	-8.78
893.284	-7.7
893.496	-9.41
893.709	-9.9
893.921	-7.68
894.133	-9.13
894.346	-10.08
894.558	-9.64
894.771	-10.21
894.983	-8.09
895.195	-8.29
895.407	-7.42
895.62	-10.03
895.832	-9.4
896.044	-7.97
896.256	-9.6
896.468	-12.46
896.681	-10.68
896.893	-8.99
897.105	-9.24
897.317	-10.46
897.529	-8.88
897.741	-7.87
897.953	-7.38
898.165	-8.58
898.377	-10.33
898.589	-9.21
898.801	-10.21
899.013	-8.89
899.224	-6.05
899.436	-4.14
899.648	-5.72
899.86	-8.29
900.072	-6.39
900.283	-5.31
900.495	-5
900.707	-5.6
900.919	-7.89
901.13	-7.23
901.342	-8.27
901.554	-8.28
901.765	-7.29
901.977	-8.88
902.188	-8.41
902.4	-9.15
902.611	-9.84
902.823	-10.09
903.034	-11.93
903.246	-13.06
903.457	-13.93
903.669	-15.53
903.88	-15.03
904.091	-14.94
904.303	-15.41
904.514	-15.29
904.725	-14.85
904.936	-13.64
905.148	-12.9
905.359	-9
905.57	-10.5
905.781	-11
905.992	-12.15
906.204	-10.77
906.415	-9.66
906.626	-9.7
906.837	-8.91
907.048	-9.41
907.259	-9.26
907.47	-9.32
907.681	-9.48
907.892	-7.5
908.103	-9.11
908.314	-11.38
908.525	-9.75
908.735	-9.62
908.946	-9.19
909.157	-10.82
909.368	-8.66
909.579	-7.44
909.789	-9.47
910	-10.55
910.211	-8.44
910.421	-9.52
910.632	-8.03
910.843	-10.47
911.053	-8.04
911.264	-5.79
911.475	-6.4
911.685	-7.44
911.896	-8.52
912.106	-7.96
912.317	-9.73
912.527	-7.3
912.737	-8.59
912.948	-9.68
913.158	-10.91
913.369	-12.32
913.579	-11.14
913.789	-10.71
914	-7.47
914.21	-8.04
914.42	-7.92
914.63	-8.24
914.841	-8.32
915.051	-7.25
915.261	-7.79
915.471	-5.63
915.681	-4.71
915.891	-5.45
916.101	-5.81
916.311	-4.8
916.521	-3.51
916.731	-3.62
916.941	-0.27
917.151	-1.18
917.361	1.27
917.571	-2.94
917.781	-4.58
917.991	-6.52
918.201	-6.21
918.411	-8.48
918.621	-8.37
918.83	-7.67
919.04	-10.35
919.25	-7.6
919.46	-5.87
919.669	-6.93
919.879	-7.1
920.089	-9.79
920.298	-9.18
920.508	-9.9
920.717	-9.34
920.927	-11.17
921.136	-10.05
921.346	-10.31
921.555	-12.52
921.765	-11.9
921.974	-14.3
922.184	-16.02
922.393	-16.06
922.603	-16.64
922.812	-15.51
923.021	-16.66
923.23	-17.41
923.44	-21.8
923.649	-23.27
923.858	-24.55
924.067	-23.31
924.277	-25.16
924.486	-23.26
924.695	-23.83
924.904	-21.78
925.113	-20.73
925.322	-20.7
925.531	-20.36
925.74	-22.65
925.949	-23.01
926.158	-21.93
926.367	-22.97
926.576	-22.24
926.785	-23.68
926.994	-24.05
927.203	-23.86
927.412	-23.68
927.621	-24.45
927.83	-22.69
928.038	-22.58
928.247	-22.06
928.456	-21.93
928.665	-19.98
928.873	-18.47
929.082	-17.44
929.291	-16.94
929.499	-16.68
929.708	-17.91
929.916	-17.27
930.125	-16.66
930.333	-15.82
930.542	-14.32
930.75	-12.32
930.959	-10.64
931.167	-9.86
931.376	-11.15
931.584	-10.94
931.793	-9.51
932.001	-9.05
932.209	-10.14
932.418	-11.84
932.626	-12.61
932.834	-13.38
933.042	-14.38
933.251	-13.5
933.459	-13.76
933.667	-13.49
933.875	-13.1
934.083	-12.28
934.291	-12.11
934.499	-10.44
934.707	-10.52
934.915	-9.91
935.123	-8.79
935.331	-10.54
935.539	-13.66
935.747	-14.07
935.955	-13.65
936.163	-12.06
936.371	-10.28
936.579	-8.93
936.787	-9.68
936.995	-10.88
937.202	-12.61
937.41	-13.37
937.618	-15.11
937.826	-14.58
938.033	-18.14
938.241	-19.21
938.449	-17.76
938.656	-15.12
938.864	-15.36
939.071	-15.17
939.279	-12.12
939.486	-10.96
939.694	-12.26
939.901	-12.53
940.109	-11.92
940.316	-11.95
940.524	-12.34
940.731	-13.41
940.939	-13.02
941.146	-14.26
941.353	-14.5
941.561	-13.95
941.768	-15.03
941.975	-12.01
942.182	-14.16
942.39	-12.85
942.597	-11.24
942.804	-11.17
943.011	-12.97
943.218	-11.91
943.425	-12.71
943.632	-12.45
943.839	-12.57
944.046	-12.61
944.253	-13.09
944.46	-11.2
944.667	-9.31
944.874	-11.89
945.081	-11.93
945.288	-10.16
945.495	-8.93
945.702	-8.91
945.909	-10.45
946.115	-7.67
946.322	-7.42
946.529	-9.93
946.736	-9.51
946.942	-7.95
947.149	-8.46
947.356	-9.61
947.562	-10.51
947.769	-11.73
947.976	-13.46
948.182	-11.11
948.389	-11.56
948.595	-9.15
948.802	-10.56
949.008	-11.41
949.215	-11.24
949.421	-10.31
949.628	-10.94
949.834	-10.17
950.04	-10.91
950.247	-8.88
950.453	-7.67
950.659	-8.01
950.865	-7.85
951.072	-11.17
951.278	-7.11
951.484	-7.81
951.69	-10.52
951.896	-11.34
952.103	-12.53
952.309	-11.39
952.515	-13.26
952.721	-12.48
952.927	-10.03
953.133	-10.8
953.339	-12.53
953.545	-13.24
953.751	-12.81
953.957	-10.18
954.163	-10.65
954.369	-10.17
954.574	-12.84
954.78	-13.03
954.986	-12.43
955.192	-11.05
955.398	-12.86
955.603	-14.14
955.809	-13.11
956.015	-14.01
956.22	-13.6
956.426	-10.79
956.632	-13.15
956.837	-13.74
957.043	-13.81
957.248	-13.11
957.454	-11.54
957.66	-13.76
957.865	-14.96
958.07	-13.23
958.276	-13.78
958.481	-15.77
958.687	-15.28
958.892	-13.19
959.097	-14.65
959.303	-15.22
959.508	-15.86
959.713	-15.5
959.919	-15.96
960.124	-15.98
960.329	-15.63
960.534	-13.41
960.739	-11.99
960.945	-9.37
961.15	-9.34
961.355	-10.87
961.56	-13
961.765	-12.53
961.97	-12.09
962.175	-11.69
962.38	-13.41
962.585	-12.8
962.79	-14.1
962.995	-14.53
963.2	-14.74
963.404	-14.18
963.609	-16.48
963.814	-18
964.019	-20.7
964.224	-21.55
964.428	-19.9
964.633	-18.65
964.838	-16.83
965.042	-16.16
965.247	-19.58
965.452	-18.36
965.656	-18.26
965.861	-17.27
966.066	-18.26
966.27	-15.7
966.475	-13.5
966.679	-16.64
966.884	-15.56
967.088	-17.91
967.292	-18.34
967.497	-17.39
967.701	-17.36
967.906	-16.55
968.11	-16.02
968.314	-13.57
968.518	-13.5
968.723	-11.54
968.927	-10.74
969.131	-11.09
969.335	-9.4
969.539	-9.86
969.744	-8.62
969.948	-5.89
970.152	-5.53
970.356	-2.96
970.56	-2.63
970.764	-4.23
970.968	-2.86
971.172	-1.64
971.376	-3.41
971.58	-2.13
971.784	-1.99
971.988	-3.51
972.192	-2.19
972.395	-2.57
972.599	-3.99
972.803	-5.71
973.007	-3.13
973.21	-3.34
973.414	-4
973.618	-4.24
973.822	-5.21
974.025	-4.88
974.229	-4.87
974.432	-6.33
974.636	-7.07
974.84	-6.83
975.043	-6.15
975.247	-7.93
975.45	-8.31
975.654	-8.55
975.857	-5.63
976.06	-7.08
976.264	-8.88
976.467	-8.36
976.671	-10.19
976.874	-7.55
977.077	-8.14
977.28	-8.56
977.484	-11.43
977.687	-10.76
977.89	-8.99
978.093	-8.93
978.297	-7.29
978.5	-8.16
978.703	-6.99
978.906	-5.98
979.109	-5.48
979.312	-4.69
979.515	-5.74
979.718	-4.5
979.921	-5.89
980.124	-7.01
980.327	-8.04
980.53	-8.52
980.733	-7.45
980.936	-6.25
981.138	-8.79
981.341	-7.86
981.544	-7.75
981.747	-8.03
981.949	-7.81
982.152	-8.33
982.355	-8.71
982.558	-5.17
982.76	-6.35
982.963	-6.34
983.165	-7.06
983.368	-7.17
983.571	-7.93
983.773	-4.19
983.976	-3.76
984.178	-4.31
984.381	-5.52
984.583	-7.85
984.785	-7.99
984.988	-6.53
985.19	-5.08
985.392	-6.69
985.595	-10
985.797	-10.27
985.999	-9.27
986.202	-6.73
986.404	-6.67
986.606	-3.48
986.808	-3.66
987.01	-1.53
987.212	-2.52
987.415	-3.04
987.617	-3.13
987.819	-4.25
988.021	-3.62
988.223	-5.78
988.425	-6.91
988.627	-6.2
988.829	-9.9
989.031	-7.43
989.232	-8.68
989.434	-8.8
989.636	-7.81
989.838	-7.63
990.04	-7.94
990.242	-8.52
990.443	-9.97
990.645	-7.79
990.847	-6.38
991.048	-6.85
991.25	-8.22
991.452	-10.2
991.653	-10.26
991.855	-9.51
992.057	-9.04
992.258	-9.1
992.46	-9.15
992.661	-8.41
992.863	-10.6
993.064	-10
993.265	-11.24
993.467	-12.4
993.668	-10.74
993.87	-11.25
994.071	-10.52
994.272	-9.28
994.473	-7.78
994.675	-5.92
994.876	-6.09
995.077	-6.68
995.278	-7.29
995.48	-6.56
995.681	-7.1
995.882	-7.28
996.083	-7.36
996.284	-9.7
996.485	-9.44
996.686	-9.5
996.887	-10.56
997.088	-11.64
997.289	-12.67
997.49	-12.05
997.691	-11.02
997.892	-10.39
998.092	-8.07
998.293	-7.61
998.494	-7.3
998.695	-7.66
998.896	-5.28
999.096	-5.43
999.297	-5.29
999.498	-7.2
999.698	-9.67
999.899	-11
1000.1	-12.95
1000.3	-11.71
1000.501	-13.36
1000.701	-13.8
1000.902	-15.03
1001.102	-15.33
1001.303	-12.28
1001.503	-12.96
1001.704	-11.54
1001.904	-12.23
1002.105	-12.93
1002.305	-13.09
1002.505	-13.99
1002.706	-16.1
1002.906	-15.96
1003.106	-16.96
1003.306	-15.68
1003.507	-12.76
1003.707	-13.38
1003.907	-11.31
1004.107	-11
1004.307	-11.23
1004.507	-10.92
1004.707	-11.15
1004.907	-12.64
1005.107	-14.44
1005.308	-14.43
1005.507	-15.79
1005.707	-13.32
1005.907	-12.48
1006.107	-10.73
1006.307	-8.76
1006.507	-11.16
1006.707	-10.1
1006.907	-9.97
1007.106	-10.2
1007.306	-9.43
1007.506	-10.52
1007.706	-11.41
1007.905	-13.2
1008.105	-12.03
1008.305	-10.79
1008.504	-10.6
1008.704	-7.33
1008.903	-5.7
1009.103	-4.4
1009.303	-5.23
1009.502	-5.14
1009.702	-7.15
1009.901	-6.35
1010.1	-10.28
1010.3	-9.56
1010.499	-12.41
1010.699	-13.99
1010.898	-14.95
1011.097	-15.59
1011.296	-15.35
1011.496	-15.85
1011.695	-15.03
1011.894	-16.88
1012.093	-14.81
1012.293	-14.9
1012.492	-15.18
1012.691	-14.4
1012.89	-14.75
1013.089	-16.17
1013.288	-15.45
1013.487	-14.77
1013.686	-14.76
1013.885	-15.19
1014.084	-13.52
1014.283	-15.42
1014.482	-15.86
1014.681	-15.03
1014.88	-16.96
1015.078	-15.79
1015.277	-18.06
1015.476	-18.04
1015.675	-16.99
1015.873	-16.93
1016.072	-19.49
1016.271	-17.16
1016.47	-19.25
1016.668	-17.44
1016.867	-17.67
1017.065	-19.27
1017.264	-18.49
1017.463	-17.65
1017.661	-17.43
1017.86	-17.74
1018.058	-16.8
1018.256	-17.59
1018.455	-17.54
1018.653	-17.42
1018.852	-16.41
1019.05	-18.42
1019.248	-18.89
1019.447	-20.34
1019.645	-21.38
1019.843	-22.76
1020.041	-21.65
1020.24	-23.08
1020.438	-19.14
1020.636	-19.26
1020.834	-21.05
1021.032	-19.31
1021.23	-20.44
1021.428	-19.5
1021.626	-15.96
1021.824	-16.27
1022.022	-16.89
1022.22	-14.83
1022.418	-14.19
1022.616	-15.52
1022.814	-16.07
1023.012	-16.5
1023.21	-13.91
1023.408	-14.31
1023.606	-16.36
1023.803	-12.79
1024.001	-11.78
1024.199	-13.69
1024.397	-13.17
1024.594	-13.62
1024.792	-14.12
1024.99	-13.38
1025.187	-12.84
1025.385	-9.99
1025.582	-9.48
1025.78	-8.81
1025.977	-7.89
1026.175	-8.99
1026.372	-8.29
1026.57	-10.11
1026.767	-8.04
1026.965	-7.45
1027.162	-9.11
1027.359	-8.71
1027.557	-6.67
1027.754	-9.16
1027.951	-10.57
1028.148	-8.76
1028.346	-9.17
1028.543	-11.2
1028.74	-11.16
1028.937	-12.71
1029.134	-12.58
1029.331	-12.93
1029.528	-13.43
1029.725	-13.31
1029.923	-16.66
1030.12	-14.95
1030.317	-13.45
1030.513	-12.34
1030.71	-11.63
1030.907	-9.77
1031.104	-9.97
1031.301	-10.56
1031.498	-9.48
1031.695	-9.04
1031.892	-9.99
1032.088	-9.82
1032.285	-8.67
1032.482	-9.78
1032.678	-12.75
1032.875	-15.48
1033.072	-15.84
1033.268	-14.87
1033.465	-15.74
1033.662	-18.01
1033.858	-17.82
1034.055	-17.52
1034.251	-15.72
1034.448	-17.07
1034.644	-15.97
1034.84	-13.55
1035.037	-11.11
1035.233	-11.05
1035.43	-11.28
1035.626	-10.52
1035.822	-9.43
1036.019	-9.37
1036.215	-12.61
1036.411	-12.94
1036.607	-14.48
1036.803	-16.7
1037	-16.96
1037.196	-19.3
1037.392	-18.79
1037.588	-22.17
1037.784	-21.32
1037.98	-21.85
1038.176	-22.19
1038.372	-23.83
1038.568	-22.51
1038.764	-20.34
1038.96	-19.06
1039.156	-19.07
1039.352	-19.74
1039.547	-17.29
1039.743	-16.8
1039.939	-14.3
1040.135	-15.42
1040.331	-17.85
1040.526	-15.62
1040.722	-17.06
1040.918	-18.92
1041.113	-21.78
1041.309	-21.16
1041.505	-22.67
1041.7	-22.93
1041.896	-23.47
1042.091	-23.47
1042.287	-22.64
1042.482	-22.51
1042.678	-22.8
1042.873	-21.7
1043.069	-23.4
1043.264	-22.23
1043.459	-21.4
1043.655	-19.92
1043.85	-21.61
1044.045	-20.39
1044.24	-20.24
1044.436	-18.08
1044.631	-17.99
1044.826	-18.46
1045.021	-19.94
1045.216	-20.31
