Data from FLMT021711__24__16-32-54-230.txt Node

Date: Tue Nov 05 16:32:54 CET 2024
User: Etudiants TP
Spectrometer: FLMT02171
Trigger mode: 0
Integration Time (sec): 1,000000E-1
Scans to average: 5
Electric dark correction enabled: true
Nonlinearity correction enabled: false
Boxcar width: 15
XAxis mode: Wavelengths
Number of Pixels in Spectrum: 3648
>>>>>Begin Spectral Data<<<<<
194,658	-47,28
194,923	-45,74
195,188	-41,89
195,453	-41
195,717	-36,55
195,982	-35
196,247	-33,73
196,512	-36,67
196,777	-35,54
197,042	-33,73
197,307	-32,22
197,572	-29,55
197,837	-29,55
198,101	-28,18
198,366	-26,67
198,631	-26
198,896	-22,62
199,161	-18,77
199,425	-13,76
199,69	-7,67
199,955	-7,83
200,22	-10,07
200,484	-11,41
200,749	-11,76
201,014	-9,9
201,278	-10,13
201,543	-9,82
201,807	-11,16
202,072	-11,16
202,337	-12,58
202,601	-11,19
202,866	-10,72
203,13	-9,56
203,395	-10,52
203,659	-10,68
203,924	-12,12
204,189	-12,65
204,453	-11,38
204,717	-8,93
204,982	-9,13
205,246	-8,25
205,511	-8,24
205,775	-9,31
206,04	-5,25
206,304	-5
206,568	-3,41
206,833	-2,23
207,097	-0,94
207,361	1,48
207,626	5,83
207,89	7,36
208,154	7,67
208,419	9,47
208,683	11,07
208,947	11,89
209,211	10,6
209,476	11,48
209,74	11,24
210,004	11,34
210,268	13,24
210,532	15,48
210,796	15,03
211,061	14,85
211,325	14,47
211,589	13,12
211,853	13,52
212,117	13,37
212,381	14,14
212,645	14,74
212,909	15,22
213,173	14,77
213,437	14,44
213,701	15,48
213,965	16,71
214,229	12,67
214,493	14,12
214,757	14,24
215,021	12,38
215,285	14,89
215,549	16,3
215,813	13,36
216,077	13,27
216,34	16,09
216,604	15,74
216,868	15,65
217,132	16,75
217,396	16,62
217,659	17,42
217,923	15,31
218,187	15,68
218,451	13,73
218,714	12
218,978	12,35
219,242	13,34
219,505	13,93
219,769	15,49
220,033	14,98
220,296	16,11
220,56	17,72
220,824	14,93
221,087	15,16
221,351	14,87
221,614	15,03
221,878	15,67
222,142	14,72
222,405	15,25
222,669	15,75
222,932	11,64
223,196	11,31
223,459	9,38
223,722	10
223,986	9,13
224,249	9,12
224,513	7,85
224,776	6,85
225,04	6,3
225,303	5,9
225,566	5,24
225,83	5,08
226,093	6,59
226,356	4,94
226,62	4,39
226,883	5,84
227,146	4,86
227,409	4,65
227,673	2,61
227,936	1,37
228,199	2,72
228,462	1,77
228,725	-1,65
228,989	-1,22
229,252	-0,62
229,515	4,69
229,778	3,13
230,041	3,43
230,304	1,45
230,567	2,88
230,83	1,59
231,093	3,94
231,356	3,79
231,619	7,87
231,882	5,89
232,145	6,92
232,408	4,31
232,671	4,76
232,934	4,72
233,197	4,13
233,46	2,88
233,723	4,01
233,986	3,01
234,249	1,85
234,512	4,35
234,775	6,59
235,037	6,27
235,3	6,39
235,563	5,6
235,826	7,33
236,089	9,2
236,351	8,3
236,614	9,16
236,877	10,97
237,14	12,35
237,402	11,21
237,665	5,62
237,928	6,57
238,19	3,65
238,453	5,63
238,716	4,4
238,978	2,92
239,241	1,2
239,503	2,35
239,766	-1,35
240,029	-1,48
240,291	-0,45
240,554	1,53
240,816	0,74
241,079	0,63
241,341	-0,34
241,604	-0,93
241,866	-2,54
242,129	-2,57
242,391	-0,09
242,653	-1,6
242,916	-1,31
243,178	-2,46
243,441	-2,34
243,703	-2,28
243,965	-3,53
244,228	-4,02
244,49	-3,71
244,752	-4,29
245,015	-3,8
245,277	-1,98
245,539	-2,43
245,801	-1,28
246,064	-3,42
246,326	-5,39
246,588	-5,17
246,85	-4,01
247,112	-1,96
247,374	0,02
247,637	2,03
247,899	2,02
248,161	2,69
248,423	0,03
248,685	0,15
248,947	-0,62
249,209	-1,25
249,471	0,64
249,733	0,85
249,995	-1,09
250,257	-0,78
250,519	-3,45
250,781	-2,1
251,043	-4,34
251,305	-2,45
251,567	-0,4
251,829	0,69
252,091	-0,42
252,353	-2,38
252,615	-2,11
252,876	-3,05
253,138	-4,09
253,4	-7,88
253,662	-6,22
253,924	-4,82
254,185	-3,52
254,447	-1,99
254,709	-2,64
254,971	-1,26
255,232	-0,61
255,494	-2,47
255,756	-4,73
256,017	-3,49
256,279	-4,51
256,541	-3,52
256,802	-4,03
257,064	-3,38
257,326	-3,44
257,587	-3,17
257,849	-0,6
258,11	2
258,372	2,32
258,633	2,58
258,895	2,84
259,156	2,53
259,418	1,73
259,679	-2,64
259,941	-3,93
260,202	-1,11
260,464	0,6
260,725	-1,74
260,987	-1,56
261,248	-2,73
261,509	-2,3
261,771	-4,41
262,032	-3,55
262,293	-3,02
262,555	-4,39
262,816	-4,77
263,077	-6,67
263,338	-9,12
263,6	-8,01
263,861	-7,55
264,122	-9,83
264,383	-6,44
264,645	-5,09
264,906	-6,1
265,167	-5,58
265,428	-5,64
265,689	-5,42
265,95	-7,87
266,211	-7,2
266,473	-6,6
266,734	-7,97
266,995	-11,45
267,256	-9,74
267,517	-5,89
267,778	-1,6
268,039	-1,13
268,3	-2,47
268,561	-3,86
268,822	0,65
269,083	-1,11
269,344	-0,76
269,604	0,25
269,865	2,2
270,126	-1,57
270,387	-0,42
270,648	1,04
270,909	1,02
271,17	0,04
271,43	-0,93
271,691	-2,58
271,952	-3,53
272,213	-0,25
272,473	-3,43
272,734	-3,92
272,995	-2,51
273,256	-3,06
273,516	-1,44
273,777	-2,48
274,038	-1,56
274,298	-4,05
274,559	-4,39
274,82	-0,34
275,08	2,31
275,341	2,8
275,601	-0,74
275,862	-3,98
276,122	-3,54
276,383	-3,05
276,643	-2,16
276,904	-4,2
277,164	-0,75
277,425	-0,14
277,685	1,79
277,946	1,17
278,206	2,52
278,467	2,67
278,727	3,57
278,987	2,7
279,248	1,32
279,508	3,49
279,768	5,09
280,029	7,18
280,289	4,74
280,549	4,03
280,81	4,39
281,07	3,64
281,33	6,48
281,59	5,52
281,851	6,78
282,111	6,56
282,371	6,82
282,631	7,69
282,891	6,44
283,151	5,6
283,412	3,56
283,672	4,18
283,932	5,42
284,192	6,52
284,452	4,82
284,712	3,05
284,972	2,39
285,232	0,28
285,492	2,59
285,752	0,52
286,012	6,36
286,272	8,94
286,532	6,75
286,792	7,57
287,052	8,83
287,312	10,18
287,571	7,57
287,831	7,05
288,091	4,9
288,351	6,03
288,611	8,83
288,871	7,9
289,13	7,77
289,39	2,68
289,65	3,69
289,91	1,59
290,17	3,78
290,429	6,07
290,689	3,36
290,949	0,96
291,208	1,62
291,468	4,08
291,728	4,22
291,987	5,33
292,247	4,65
292,506	6,89
292,766	9,22
293,026	8,02
293,285	8,42
293,545	8,98
293,804	9,15
294,064	5,32
294,323	2,85
294,583	4,74
294,842	5,45
295,102	5,56
295,361	6,09
295,621	6,76
295,88	7,73
296,139	7,48
296,399	6,09
296,658	1,44
296,917	2,08
297,177	-0,23
297,436	2,83
297,695	1,72
297,955	3,82
298,214	1,88
298,473	2,4
298,732	4,8
298,992	6,71
299,251	5,78
299,51	3,19
299,769	4,23
300,028	4,84
300,287	4,59
300,547	4
300,806	2,31
301,065	3,61
301,324	5,25
301,583	2,79
301,842	0,01
302,101	-1,54
302,36	-0,95
302,619	-1,46
302,878	-3,35
303,137	-4,58
303,396	-3,89
303,655	-1,93
303,914	-4,35
304,173	-3,87
304,432	-3,33
304,691	-0,58
304,95	-2,39
305,208	2,87
305,467	2,59
305,726	1,75
305,985	2,13
306,244	3,1
306,503	2,4
306,761	0,33
307,02	-1,38
307,279	-0,71
307,537	0,31
307,796	-2,83
308,055	-4,65
308,314	-4,23
308,572	-5,64
308,831	-3,86
309,09	-2,19
309,348	-2,54
309,607	-3,48
309,865	1,36
310,124	0,77
310,382	0,91
310,641	0,48
310,9	0,54
311,158	2,89
311,417	2,58
311,675	2,15
311,933	3,79
312,192	3,99
312,45	4,47
312,709	5,02
312,967	4,56
313,226	2,82
313,484	1,99
313,742	0,47
314,001	-1,52
314,259	-2,72
314,517	-2,4
314,776	0,19
315,034	1,85
315,292	0,7
315,55	-0,78
315,809	-1,02
316,067	-1,77
316,325	-3,16
316,583	-1,93
316,841	-3,27
317,1	-4,38
317,358	-6,27
317,616	-6,55
317,874	-8,97
318,132	-9,36
318,39	-9,59
318,648	-9,96
318,906	-10,57
319,164	-12,86
319,422	-13,18
319,68	-14,9
319,938	-15,48
320,196	-15,1
320,454	-15,11
320,712	-15,53
320,97	-15,66
321,228	-18,33
321,486	-16,68
321,744	-13,62
322,002	-11,72
322,26	-12,11
322,517	-11,83
322,775	-14,1
323,033	-15,48
323,291	-13,78
323,549	-12,74
323,806	-9,95
324,064	-8,56
324,322	-7,64
324,58	-8,34
324,837	-7,3
325,095	-9,43
325,353	-8,16
325,61	-6,18
325,868	-5,85
326,126	-4,48
326,383	-5,86
326,641	-7,29
326,898	-5,96
327,156	-4,75
327,413	-3,53
327,671	-2,42
327,928	-0,88
328,186	-1,24
328,443	-1,99
328,701	1,58
328,958	2,79
329,216	4,68
329,473	2,75
329,731	1,17
329,988	1,62
330,245	4,21
330,503	4,97
330,76	5,61
331,017	7,96
331,275	5,92
331,532	6,76
331,789	4,56
332,047	3,39
332,304	2,32
332,561	2,93
332,818	1,92
333,076	4,03
333,333	5,53
333,59	5,86
333,847	6,44
334,104	5,86
334,361	6,22
334,618	7,47
334,876	6,18
335,133	4,97
335,39	3
335,647	3,97
335,904	1,44
336,161	-0,17
336,418	0,87
336,675	-3,24
336,932	-1,5
337,189	-3,35
337,446	-2,91
337,703	-2,32
337,96	-7,71
338,216	-8,19
338,473	-10,48
338,73	-9,74
338,987	-10,32
339,244	-8,31
339,501	-11,42
339,757	-10,94
340,014	-10,64
340,271	-10,13
340,528	-9,53
340,785	-5,87
341,041	-6,89
341,298	-10,26
341,555	-11,02
341,811	-10,64
342,068	-11,77
342,325	-11,4
342,581	-9,4
342,838	-7,82
343,094	-8,5
343,351	-8,91
343,608	-10,97
343,864	-9,16
344,121	-7,05
344,377	-8,31
344,634	-8,8
344,89	-9,69
345,147	-9,39
345,403	-9,74
345,66	-10,03
345,916	-5,36
346,172	-8,16
346,429	-9,36
346,685	-10,32
346,942	-12,05
347,198	-14,25
347,454	-12,23
347,711	-11,85
347,967	-13,48
348,223	-13,82
348,48	-13,98
348,736	-11,29
348,992	-11,23
349,248	-8,6
349,504	-8,37
349,761	-9,46
350,017	-9,9
350,273	-9,54
350,529	-11,49
350,785	-12,65
351,041	-12,21
351,297	-11,5
351,554	-12,02
351,81	-12,33
352,066	-12,84
352,322	-11,14
352,578	-10,5
352,834	-11,45
353,09	-10,76
353,346	-10,39
353,602	-10,84
353,858	-12,52
354,114	-12,45
354,369	-11,12
354,625	-10,24
354,881	-9,88
355,137	-6,99
355,393	-7,74
355,649	-8,32
355,905	-7,59
356,16	-7,25
356,416	-7,07
356,672	-12,63
356,928	-11,98
357,183	-11,63
357,439	-11,94
357,695	-13,14
357,951	-10,25
358,206	-11,18
358,462	-11,8
358,718	-12,82
358,973	-12,33
359,229	-11,57
359,484	-11,37
359,74	-8,96
359,996	-9,27
360,251	-8,23
360,507	-7,41
360,762	-7,23
361,018	-4,77
361,273	-5,3
361,529	-4,34
361,784	-4,72
362,04	-2,04
362,295	-2,37
362,55	-0,61
362,806	1,46
363,061	0,19
363,316	1,17
363,572	1,38
363,827	4,35
364,082	3,46
364,338	3,34
364,593	2,99
364,848	3,99
365,104	2,92
365,359	4,89
365,614	5,67
365,869	4,84
366,124	4,65
366,38	4,09
366,635	6,06
366,89	7,86
367,145	7,42
367,4	11,18
367,655	9,68
367,91	9,66
368,165	8,27
368,42	4,83
368,675	5,66
368,93	4,82
369,185	2,84
369,44	2,56
369,695	4,09
369,95	2,82
370,205	2,88
370,46	1,25
370,715	-0,24
370,97	1,27
371,225	1,88
371,48	4,25
371,734	3,47
371,989	4,63
372,244	3,82
372,499	4,84
372,754	2,94
373,008	0,43
373,263	-2,68
373,518	-1,25
373,773	-3,41
374,027	-3,2
374,282	-1,02
374,537	-0,83
374,791	-0,02
375,046	-1,18
375,301	-4,14
375,555	-5,98
375,81	-5,49
376,064	-4,27
376,319	-0,68
376,573	-1,55
376,828	-3,38
377,082	-0,49
377,337	-2,98
377,591	-5,33
377,846	-6,16
378,1	-4,24
378,355	-4,24
378,609	-4,48
378,863	-6,96
379,118	-6,18
379,372	-7,25
379,627	-8,56
379,881	-11,27
380,135	-11,41
380,389	-10,94
380,644	-9,64
380,898	-9,49
381,152	-8,44
381,407	-9,68
381,661	-6,28
381,915	-5,03
382,169	-4,89
382,423	-5,68
382,677	-9,7
382,932	-8,89
383,186	-7,54
383,44	-5,65
383,694	-3,42
383,948	-5,21
384,202	-6,09
384,456	-4,98
384,71	-4,36
384,964	-5,58
385,218	-2,41
385,472	-1,54
385,726	-2,1
385,98	-2,16
386,234	-3,15
386,488	-5,29
386,742	-4,63
386,996	-7,12
387,249	-6,68
387,503	-5,39
387,757	-3,84
388,011	-2,34
388,265	-2,05
388,518	-1,07
388,772	1,76
389,026	2,6
389,28	1,7
389,533	0,59
389,787	2,39
390,041	0,81
390,295	0,6
390,548	1,41
390,802	4,06
391,055	3,11
391,309	1,9
391,563	-0,21
391,816	-0,43
392,07	-0,97
392,323	-0,48
392,577	0,26
392,83	0,87
393,084	4,08
393,337	6,92
393,591	8,54
393,844	8,59
394,098	11,69
394,351	16,71
394,604	19,29
394,858	22,06
395,111	20,64
395,364	17,66
395,618	19,5
395,871	17,52
396,124	16,4
396,378	14,76
396,631	14,1
396,884	11,71
397,137	11,91
397,391	11,3
397,644	7,96
397,897	8,12
398,15	9,83
398,403	11,98
398,657	10,69
398,91	10,06
399,163	11,06
399,416	10,95
399,669	9,85
399,922	9,68
400,175	8,76
400,428	9,81
400,681	13,16
400,934	13,85
401,187	16,52
401,44	19,06
401,693	20,08
401,946	18,36
402,199	15,01
402,452	14,06
402,704	11,67
402,957	11,55
403,21	15,19
403,463	14,02
403,716	15,5
403,969	17,37
404,221	17,59
404,474	18,94
404,727	21,19
404,98	23,16
405,232	24,35
405,485	26,68
405,738	28,33
405,99	27,94
406,243	28,95
406,496	30,32
406,748	30,94
407,001	30,16
407,253	30,04
407,506	30,51
407,759	29,64
408,011	27,94
408,264	26,67
408,516	24,19
408,769	18,69
409,021	16,32
409,274	14,27
409,526	13,03
409,778	12,29
410,031	13,64
410,283	12,96
410,536	15,36
410,788	15,86
411,04	14,79
411,293	15,67
411,545	15,39
411,797	12,57
412,049	12,56
412,302	12,95
412,554	13,2
412,806	12,43
413,058	10,16
413,311	10,48
413,563	9,72
413,815	9,48
414,067	6,74
414,319	5,23
414,571	5,45
414,823	3,79
415,075	2,8
415,328	4,58
415,58	7,3
415,832	8,57
416,084	8,98
416,336	7,24
416,588	10,69
416,84	8,45
417,091	10,5
417,343	8,26
417,595	9,33
417,847	10,33
418,099	11,74
418,351	12,12
418,603	12,91
418,855	13,88
419,106	14,57
419,358	15,39
419,61	15,75
419,862	16,17
420,114	15,07
420,365	16,12
420,617	16,54
420,869	15,92
421,12	15,39
421,372	16,63
421,624	16,17
421,875	17,05
422,127	15,28
422,379	15,89
422,63	19,44
422,882	19,06
423,133	17,15
423,385	17,37
423,636	17,38
423,888	18,8
424,139	21,13
424,391	19,22
424,642	18,86
424,894	16,1
425,145	16,28
425,396	14,88
425,648	16,09
425,899	13,56
426,151	13,61
426,402	11,91
426,653	10,69
426,905	9,23
427,156	5,99
427,407	6,25
427,658	6,5
427,91	6,06
428,161	5,15
428,412	6,47
428,663	7,05
428,914	9,49
429,166	10,21
429,417	9,12
429,668	9,56
429,919	9,02
430,17	9,33
430,421	8,79
430,672	12,6
430,923	14,39
431,174	15,06
431,425	21,31
431,676	28,01
431,927	37,6
432,178	50,89
432,429	66,54
432,68	79,21
432,931	90,63
433,182	98,87
433,433	100,9
433,683	105,76
433,934	106,36
434,185	106,98
434,436	106,94
434,687	108,72
434,937	111,93
435,188	112,69
435,439	111,94
435,69	112,99
435,94	111,54
436,191	111
436,442	111,39
436,692	108,91
436,943	106,15
437,194	107,08
437,444	107,62
437,695	111,24
437,945	110,01
438,196	108,19
438,447	106,92
438,697	108,12
438,948	106,68
439,198	99,5
439,449	89,34
439,699	78,53
439,949	65,24
440,2	48,94
440,45	37,74
440,701	26,9
440,951	19,45
441,201	16,18
441,452	12,22
441,702	10,87
441,952	11,52
442,203	12,04
442,453	9,36
442,703	9,67
442,953	10,07
443,204	10,95
443,454	8,2
443,704	9,19
443,954	7,35
444,204	8,13
444,455	8,25
444,705	10,43
444,955	10
445,205	9,39
445,455	6,85
445,705	6,95
445,955	7,73
446,205	7,33
446,455	5,64
446,705	5,86
446,955	6,81
447,205	8,39
447,455	9,16
447,705	8,05
447,955	7,92
448,205	7,52
448,454	8,96
448,704	10,06
448,954	9,82
449,204	10,02
449,454	9,48
449,704	7,56
449,953	7,16
450,203	9,75
450,453	7,64
450,703	9,11
450,952	8,66
451,202	9,3
451,452	9,02
451,701	10,81
451,951	13,63
452,201	14,45
452,45	13,26
452,7	14,22
452,949	14,21
453,199	14,5
453,448	17,42
453,698	17,52
453,947	15,77
454,197	15,06
454,446	14,29
454,696	15,02
454,945	15,01
455,195	13,96
455,444	15,51
455,693	17,15
455,943	15,53
456,192	16,68
456,442	16,92
456,691	14,9
456,94	14,75
457,189	14,41
457,439	16,55
457,688	16,88
457,937	15,86
458,186	16,88
458,436	17,25
458,685	17,17
458,934	18,29
459,183	18
459,432	19,39
459,681	18,7
459,93	17,65
460,179	17,87
460,429	16,22
460,678	18,81
460,927	20,24
461,176	18,54
461,425	18,68
461,674	21,55
461,923	22,56
462,172	23,15
462,42	22,97
462,669	23,92
462,918	24,75
463,167	23,6
463,416	23,74
463,665	25,9
463,914	25,94
464,162	24,82
464,411	27,21
464,66	28,35
464,909	27,4
465,158	28,44
465,406	29,59
465,655	31,93
465,904	33
466,152	31,49
466,401	32,12
466,65	32,59
466,898	31,5
467,147	29,05
467,395	28,25
467,644	29,61
467,893	28,43
468,141	28,69
468,39	26,02
468,638	25,95
468,887	24,75
469,135	24,04
469,384	23,52
469,632	23,71
469,88	23,46
470,129	24,83
470,377	22,45
470,626	23,16
470,874	25,49
471,122	26,5
471,371	24,92
471,619	22,83
471,867	25,87
472,115	24,8
472,364	23,05
472,612	25,44
472,86	23,92
473,108	23,97
473,356	24,04
473,605	23,91
473,853	22,19
474,101	22,57
474,349	22,17
474,597	25,49
474,845	23,88
475,093	23,19
475,341	22,53
475,589	23,92
475,837	25,95
476,085	27,75
476,333	25,46
476,581	26,36
476,829	25,68
477,077	27,87
477,325	27,23
477,573	28,59
477,821	27,14
478,069	28,87
478,317	30,09
478,564	32,88
478,812	31,14
479,06	32,1
479,308	32,76
479,555	32,09
479,803	32,89
480,051	35,82
480,299	38,1
480,546	40,66
480,794	40,12
481,042	41,74
481,289	44,28
481,537	49,49
481,784	52,23
482,032	57,57
482,28	61,15
482,527	66,13
482,775	70,48
483,022	75,41
483,27	82,1
483,517	88,96
483,765	93,87
484,012	99,42
484,259	103,05
484,507	111,16
484,754	116,97
485,002	121,65
485,249	124,46
485,496	130,09
485,744	132,69
485,991	135,33
486,238	136,22
486,486	142,07
486,733	145,46
486,98	150,84
487,227	152,69
487,474	156,48
487,722	160,11
487,969	159,04
488,216	159,99
488,463	162,2
488,71	163,03
488,957	162,29
489,204	161,02
489,451	160,51
489,699	159,7
489,946	155,37
490,193	153,05
490,44	151,57
490,687	149,72
490,934	144,53
491,18	138,17
491,427	136,19
491,674	135,39
491,921	133,25
492,168	129,58
492,415	123,1
492,662	120,56
492,909	119,61
493,155	116,37
493,402	113,16
493,649	109,65
493,896	106,73
494,142	101,42
494,389	98,81
494,636	94,22
494,883	89,86
495,129	85,82
495,376	82,57
495,623	81,98
495,869	81,07
496,116	80,27
496,362	77,24
496,609	76,82
496,855	79,4
497,102	77,07
497,348	73,73
497,595	71,01
497,841	72,46
498,088	68,91
498,334	66,15
498,581	63,62
498,827	62,39
499,074	60,41
499,32	58,31
499,566	59,62
499,813	58,4
500,059	56,29
500,305	53,99
500,552	51,43
500,798	49,92
501,044	52,59
501,29	49,89
501,537	47,33
501,783	48,66
502,029	49,32
502,275	46,1
502,521	45,11
502,767	45
503,013	44,8
503,26	41,45
503,506	37,22
503,752	36,71
503,998	34,45
504,244	33,27
504,49	29,32
504,736	29,36
504,982	27,36
505,228	29,86
505,474	28,79
505,72	28,99
505,966	27,99
506,211	28,91
506,457	28,92
506,703	24,73
506,949	22,93
507,195	19,54
507,441	15,78
507,686	17,24
507,932	17,65
508,178	18,4
508,424	15,99
508,669	13,34
508,915	13,07
509,161	14,79
509,406	14,4
509,652	12,73
509,898	14,97
510,143	14,59
510,389	12,95
510,634	10,24
510,88	13,89
511,125	16,16
511,371	16,55
511,616	17,97
511,862	16,43
512,107	14,03
512,353	14,39
512,598	14,76
512,844	13,34
513,089	10,89
513,335	11,91
513,58	11,19
513,825	11,5
514,071	11,26
514,316	11,91
514,561	13,19
514,806	12,72
515,052	15,02
515,297	13,96
515,542	15,13
515,787	15,54
516,033	16,36
516,278	15,95
516,523	14,79
516,768	13,39
517,013	11,22
517,258	10,36
517,503	11,03
517,748	12,31
517,993	11,98
518,238	12,21
518,483	9,58
518,728	8,64
518,973	6,42
519,218	5,72
519,463	6,72
519,708	5,99
519,953	4,29
520,198	5,73
520,443	7,34
520,688	10,05
520,933	8,97
521,177	8,37
521,422	7,38
521,667	7,64
521,912	7,34
522,157	4,82
522,401	6,7
522,646	5,96
522,891	6,25
523,135	5,95
523,38	5,28
523,625	3,8
523,869	6,25
524,114	8,74
524,358	7,95
524,603	7,39
524,848	5,88
525,092	3,01
525,337	2,97
525,581	5,21
525,826	6,41
526,07	7,39
526,315	8,82
526,559	8,27
526,803	6,49
527,048	6,95
527,292	7,61
527,537	8,39
527,781	7,18
528,025	4,55
528,269	5,3
528,514	5,79
528,758	4
529,002	3,22
529,247	5,62
529,491	6,02
529,735	9,36
529,979	10,57
530,223	11,75
530,467	9,69
530,712	8,85
530,956	8,36
531,2	11,01
531,444	8,89
531,688	10,74
531,932	11,65
532,176	13,59
532,42	15,95
532,664	19,07
532,908	17,29
533,152	16,1
533,396	16,17
533,64	15,83
533,884	15,85
534,128	15,7
534,371	19,8
534,615	24,56
534,859	27,08
535,103	29,42
535,347	32,23
535,59	37,3
535,834	39,24
536,078	44,67
536,322	51,86
536,565	61,05
536,809	66,46
537,053	76,89
537,296	86,63
537,54	100,07
537,784	115,19
538,027	135,57
538,271	154,18
538,514	173,5
538,758	193,76
539,001	214,42
539,245	232,94
539,488	252,52
539,732	272,32
539,975	289,94
540,219	306,98
540,462	324,15
540,706	340,83
540,949	357,32
541,192	372,65
541,436	390,74
541,679	411,97
541,922	430,69
542,166	448,39
542,409	471,72
542,652	497,66
542,895	524,14
543,139	546,49
543,382	569,1
543,625	585,34
543,868	601,02
544,111	611,78
544,354	620,89
544,598	626,21
544,841	628,08
545,084	624,26
545,327	619,12
545,57	610,67
545,813	601,89
546,056	590,63
546,299	579,19
546,542	565,78
546,785	555,88
547,028	543,09
547,271	529,8
547,514	516,87
547,756	504,58
547,999	493,32
548,242	482,2
548,485	467,65
548,728	456,08
548,971	439,98
549,213	425,68
549,456	407,61
549,699	387,06
549,942	363,95
550,184	338,06
550,427	310,92
550,67	287,78
550,912	261,05
551,155	243,16
551,398	224,14
551,64	206,64
551,883	191,02
552,125	176,17
552,368	163,23
552,61	150,43
552,853	141,68
553,095	132,55
553,338	122,73
553,58	114,48
553,823	105,27
554,065	100,57
554,308	89,63
554,55	82,14
554,792	74,31
555,035	68,98
555,277	61,3
555,519	57,31
555,762	51,16
556,004	47,86
556,246	41,84
556,488	40,18
556,731	34,29
556,973	31,12
557,215	27,85
557,457	27,55
557,699	26,87
557,941	23,54
558,183	20,94
558,426	21,86
558,668	16,46
558,91	16,2
559,152	14,97
559,394	13,62
559,636	13,82
559,878	15,16
560,12	13,72
560,362	14,02
560,604	12,76
560,845	12,3
561,087	11,48
561,329	12,78
561,571	10,01
561,813	9,13
562,055	6,98
562,297	6,71
562,538	6,05
562,78	9,12
563,022	8,05
563,264	8,52
563,505	8,91
563,747	8,43
563,989	5,34
564,23	5,03
564,472	4,17
564,714	6,64
564,955	5,07
565,197	1,28
565,438	2,14
565,68	4,76
565,921	3,21
566,163	4,68
566,404	3,39
566,646	4,39
566,887	5,68
567,129	7,08
567,37	5,1
567,612	6,97
567,853	5,27
568,094	5,58
568,336	5,8
568,577	7,1
568,818	6,38
569,06	4,83
569,301	4,31
569,542	4,83
569,783	6,22
570,025	6,44
570,266	6,16
570,507	6,31
570,748	6,95
570,989	7,86
571,23	10,58
571,472	11,41
571,713	9,83
571,954	11,38
572,195	9,75
572,436	12,49
572,677	15,8
572,918	18,46
573,159	18,01
573,4	19,12
573,641	21,46
573,882	23,49
574,123	23,88
574,364	21,99
574,604	21,89
574,845	24,36
575,086	27,62
575,327	29,39
575,568	31,07
575,809	32,86
576,049	34,68
576,29	36,32
576,531	44,36
576,771	50,65
577,012	56
577,253	59,3
577,494	62,42
577,734	64,82
577,975	68,64
578,215	71,07
578,456	71,46
578,697	74,55
578,937	78,67
579,178	83,48
579,418	85,7
579,659	89,35
579,899	90,12
580,14	93,02
580,38	95,14
580,62	97,68
580,861	103,11
581,101	105,32
581,342	108,4
581,582	108,84
581,822	114,83
582,063	117,8
582,303	120,02
582,543	120,32
582,783	123,32
583,024	126,39
583,264	131,7
583,504	133,47
583,744	137,95
583,984	138,58
584,224	141,87
584,465	143,85
584,705	147,06
584,945	149,44
585,185	152,16
585,425	153,84
585,665	155,19
585,905	155,39
586,145	155,92
586,385	155,14
586,625	155,77
586,865	154,59
587,105	153,69
587,345	153,25
587,585	152,29
587,824	150,42
588,064	149,21
588,304	145,83
588,544	145,05
588,784	142,39
589,024	143,89
589,263	142,79
589,503	142,42
589,743	145,94
589,982	147,33
590,222	147,1
590,462	147,19
590,701	145,24
590,941	145,16
591,181	142,25
591,42	138,62
591,66	136,25
591,899	136,16
592,139	131,43
592,378	128,76
592,618	125,17
592,857	122,05
593,097	120,28
593,336	120,01
593,576	118,31
593,815	117,95
594,055	116,37
594,294	116,84
594,533	114,82
594,773	113,99
595,012	113,85
595,251	113,55
595,491	115,94
595,73	117,46
595,969	117,18
596,208	118,04
596,447	120,77
596,687	120,42
596,926	118,89
597,165	114,06
597,404	114,21
597,643	112,19
597,882	108,08
598,121	105,75
598,36	103,97
598,599	102,82
598,838	101,15
599,077	97,23
599,316	95,04
599,555	94
599,794	93,42
600,033	93,45
600,272	94,84
600,511	93,52
600,75	92,55
600,989	92,43
601,228	90,98
601,466	90,45
601,705	88,91
601,944	89,68
602,183	90,59
602,422	89,44
602,66	88,51
602,899	85,51
603,138	84,65
603,376	83,15
603,615	81,83
603,854	78,33
604,092	77,9
604,331	78,51
604,569	79,7
604,808	79,42
605,047	81,59
605,285	83,23
605,524	85,99
605,762	88,74
606	93,98
606,239	101,75
606,477	111,18
606,716	121,45
606,954	139,18
607,193	164,72
607,431	198,55
607,669	241,91
607,908	293,21
608,146	351,52
608,384	408,59
608,622	464,05
608,861	514,97
609,099	560,84
609,337	601,4
609,575	637,92
609,813	672,78
610,052	700,71
610,29	721,81
610,528	742,36
610,766	762,81
611,004	782,77
611,242	799,86
611,48	814,39
611,718	827,15
611,956	839,37
612,194	848,62
612,432	857,02
612,67	863,18
612,908	869,55
613,146	871,79
613,384	873,38
613,621	871,93
613,859	868,27
614,097	860,05
614,335	846,43
614,573	824,41
614,811	792,44
615,048	749,14
615,286	700,28
615,524	646,23
615,761	589,76
615,999	536,67
616,237	487,81
616,474	447,3
616,712	408,93
616,95	372,76
617,187	340,56
617,425	316,25
617,662	295,12
617,9	275,45
618,137	255,52
618,375	237,74
618,612	221,97
618,85	210,26
619,087	199,96
619,325	188,43
619,562	178,63
619,799	168,77
620,037	163,43
620,274	156,61
620,511	153,77
620,749	148,43
620,986	144,79
621,223	142,67
621,461	141,04
621,698	142,05
621,935	141,13
622,172	141,29
622,409	145,16
622,647	146,77
622,884	146,27
623,121	149,68
623,358	149,16
623,595	150,12
623,832	151,38
624,069	151,61
624,306	152,3
624,543	153,41
624,78	154,82
625,017	155,77
625,254	157,21
625,491	159,96
625,728	162,16
625,965	162,74
626,202	161,04
626,438	160,36
626,675	159,95
626,912	161,68
627,149	164,31
627,386	165,41
627,622	168,19
627,859	170,46
628,096	174,33
628,333	176,33
628,569	176,4
628,806	179,6
629,043	178,17
629,279	178,8
629,516	178,93
629,752	172,73
629,989	170,05
630,225	166,06
630,462	162,25
630,699	160,73
630,935	157,04
631,171	149,7
631,408	146,33
631,644	141,6
631,881	134,88
632,117	129,02
632,354	126,12
632,59	121,48
632,826	116,93
633,063	112,21
633,299	108,57
633,535	103,59
633,771	98,53
634,008	95,7
634,244	89,79
634,48	83,93
634,716	78,8
634,953	71,6
635,189	64,73
635,425	58,47
635,661	53,62
635,897	48,58
636,133	41,78
636,369	37,73
636,605	30,9
636,841	25,63
637,077	25,48
637,313	23,51
637,549	22,6
637,785	20
638,021	18,21
638,257	17,03
638,493	18,86
638,729	16,78
638,965	19,09
639,2	21,68
639,436	21
639,672	19,65
639,908	18,09
640,144	20,93
640,379	23,48
640,615	21,26
640,851	23,18
641,086	23,68
641,322	21,98
641,558	22,04
641,793	21,89
642,029	20,07
642,264	18,52
642,5	17,82
642,736	14,67
642,971	15,16
643,207	12,6
643,442	12,32
643,678	11,84
643,913	14,08
644,148	14,5
644,384	15,65
644,619	14,65
644,855	15,54
645,09	16,12
645,325	16,27
645,561	16,56
645,796	15,23
646,031	18,27
646,266	15,97
646,502	16,2
646,737	19,58
646,972	20,54
647,207	21,98
647,442	21,37
647,678	19,82
647,913	23,32
648,148	25,24
648,383	24,83
648,618	25,66
648,853	27,03
649,088	30,11
649,323	34,81
649,558	36,7
649,793	39,21
650,028	41,39
650,263	39,8
650,498	43,75
650,733	44,83
650,968	45,86
651,202	47,78
651,437	46,77
651,672	44,71
651,907	45,03
652,142	44,85
652,376	45,4
652,611	47,65
652,846	47,36
653,081	47,27
653,315	46,23
653,55	47,37
653,785	46,29
654,019	46,14
654,254	44,64
654,488	45,04
654,723	40,74
654,958	36,96
655,192	34,81
655,427	30,64
655,661	32,07
655,896	33,58
656,13	33,73
656,364	29,82
656,599	25,7
656,833	31,33
657,068	31,78
657,302	29,85
657,536	28,41
657,771	27,76
658,005	26,65
658,239	25,99
658,474	23,06
658,708	24,72
658,942	24,56
659,176	24,17
659,41	23
659,645	23,96
659,879	23,72
660,113	23,5
660,347	22,24
660,581	20,17
660,815	19,8
661,049	18,41
661,283	14,97
661,517	13,52
661,751	11,65
661,985	10,36
662,219	11,48
662,453	9,75
662,687	10,84
662,921	8,2
663,155	6,7
663,389	2,62
663,622	1,67
663,856	3,99
664,09	-2,83
664,324	-3,94
664,558	-1,77
664,791	-2,68
665,025	-2,37
665,259	-1,79
665,492	-2,45
665,726	-0,54
665,96	-1,21
666,193	-2,89
666,427	-2,15
666,661	-2,73
666,894	-5,38
667,128	-6,39
667,361	-5,61
667,595	-6,36
667,828	-6,65
668,062	-6,52
668,295	-6,29
668,529	-6,16
668,762	-4,7
668,995	-5,42
669,229	-1,5
669,462	-1,27
669,695	-0,67
669,929	-1,08
670,162	-1,1
670,395	-2,79
670,629	-0,85
670,862	1,14
671,095	-1,35
671,328	-0,4
671,561	-4,1
671,795	-4,46
672,028	-3,26
672,261	-3,18
672,494	-1,01
672,727	-2,39
672,96	-2,46
673,193	-4,03
673,426	-1,16
673,659	-1,4
673,892	-1,26
674,125	-2,43
674,358	-4,1
674,591	-5,29
674,824	-5,3
675,057	-6,39
675,29	-8,7
675,523	-6,67
675,755	-7,31
675,988	-7,04
676,221	-5,51
676,454	-7,22
676,687	-6,44
676,919	-6,53
677,152	-7,71
677,385	-6,98
677,617	-5,78
677,85	-5,1
678,083	-6,36
678,315	-4,04
678,548	-5,99
678,78	-4,74
679,013	-4,77
679,246	-3,66
679,478	-3,71
679,711	-7,29
679,943	-5,1
680,175	-6,82
680,408	-3,03
680,64	-4,24
680,873	-2,46
681,105	-1,05
681,338	2,17
681,57	2,8
681,802	4,38
682,034	3,91
682,267	6,93
682,499	10,02
682,731	7,08
682,964	6,99
683,196	5,55
683,428	5,95
683,66	5,72
683,892	8,56
684,124	11,11
684,356	15,25
684,589	16,1
684,821	16,28
685,053	17,08
685,285	18,97
685,517	20,27
685,749	22,17
685,981	23,44
686,213	23,63
686,445	23,68
686,676	22,12
686,908	23,08
687,14	22,85
687,372	24,31
687,604	21,24
687,836	20,75
688,068	18,54
688,299	17,21
688,531	14,8
688,763	18,42
688,995	16,18
689,226	18,85
689,458	17,38
689,69	15,54
689,921	15,76
690,153	16,86
690,384	19,19
690,616	18
690,848	19,39
691,079	15,28
691,311	13,63
691,542	10,49
691,774	7,75
692,005	8,77
692,237	10,01
692,468	7,4
692,699	5,08
692,931	4,25
693,162	1,38
693,393	0,2
693,625	-0,66
693,856	-0,76
694,087	-1,35
694,319	-2,54
694,55	-4,26
694,781	-5,55
695,012	-5,47
695,243	-6,27
695,475	-7,08
695,706	-6,18
695,937	-7,74
696,168	-8,23
696,399	-10,12
696,63	-9,88
696,861	-10,5
697,092	-6,18
697,323	-4,57
697,554	-4,34
697,785	-4,21
698,016	-4,81
698,247	-5,91
698,478	-6,85
698,709	-5,95
698,94	-3,54
699,171	-5,17
699,401	-7,88
699,632	-6,51
699,863	-8,73
700,094	-8,34
700,325	-5,27
700,555	-3,58
700,786	-3,36
701,017	-2,76
701,247	-2,93
701,478	-2,47
701,709	-2,07
701,939	-1,48
702,17	1,08
702,401	4,38
702,631	6,16
702,862	5,93
703,092	4,63
703,323	9,38
703,553	13,5
703,784	16,12
704,014	19,2
704,244	17,24
704,475	18,42
704,705	20,66
704,936	22,74
705,166	24,13
705,396	29,31
705,627	33,77
705,857	36,63
706,087	40,35
706,317	43,66
706,548	43,91
706,778	45,56
707,008	50,21
707,238	51,95
707,468	51,12
707,698	50,23
707,928	52,11
708,158	53,49
708,389	55,21
708,619	57,24
708,849	58,02
709,079	61,34
709,309	60,86
709,539	59,21
709,768	60,97
709,998	64,15
710,228	64,82
710,458	63,01
710,688	59,39
710,918	58,62
711,148	56,6
711,378	54,44
711,607	51,51
711,837	48,93
712,067	46,51
712,297	44,2
712,526	40,85
712,756	38,67
712,986	32,72
713,215	27,74
713,445	24,51
713,674	23,97
713,904	21,59
714,134	21,2
714,363	18,85
714,593	17,84
714,822	15,58
715,052	13,11
715,281	11,29
715,511	8,37
715,74	5,67
715,969	4,05
716,199	1,04
716,428	-0,71
716,657	-2,11
716,887	-3,06
717,116	-7,55
717,345	-8,19
717,575	-10,21
717,804	-10,47
718,033	-13,48
718,262	-14,97
718,492	-14,28
718,721	-14,5
718,95	-14,01
719,179	-14,76
719,408	-15,11
719,637	-18,93
719,866	-20,51
720,095	-19,02
720,324	-19,45
720,553	-22,08
720,782	-22,18
721,011	-22,25
721,24	-24,37
721,469	-25,05
721,698	-26,16
721,927	-26,16
722,156	-27,25
722,385	-27,09
722,613	-23,72
722,842	-23,26
723,071	-20,61
723,3	-18,95
723,529	-20,33
723,757	-18,74
723,986	-20,7
724,215	-20,55
724,443	-19,33
724,672	-17,6
724,901	-16,58
725,129	-14,6
725,358	-10,8
725,586	-12,18
725,815	-11,69
726,043	-13,05
726,272	-14,72
726,5	-14,73
726,729	-12,09
726,957	-16,09
727,186	-16,45
727,414	-15,71
727,642	-14,17
727,871	-12,81
728,099	-12,98
728,327	-12,75
728,556	-11,46
728,784	-9,97
729,012	-10,82
729,241	-9,06
729,469	-8,96
729,697	-12,22
729,925	-12,12
730,153	-14,1
730,381	-14,79
730,61	-13,48
730,838	-17,35
731,066	-16,24
731,294	-16,83
731,522	-19,95
731,75	-21,74
731,978	-22,53
732,206	-23,17
732,434	-25,8
732,662	-24,87
732,89	-26,45
733,118	-28,21
733,346	-27,48
733,573	-26,76
733,801	-26,25
734,029	-19,54
734,257	-18,9
734,485	-16,37
734,712	-14,01
734,94	-17,95
735,168	-15,77
735,396	-16,1
735,623	-16,39
735,851	-14,52
736,078	-12,63
736,306	-12,88
736,534	-12,92
736,761	-12,61
736,989	-13,1
737,216	-14,59
737,444	-16,55
737,671	-15,85
737,899	-10,48
738,126	-11,73
738,354	-9,81
738,581	-9,09
738,809	-8,91
739,036	-10,43
739,263	-9,52
739,491	-11,37
739,718	-11,6
739,945	-6,97
740,173	-3,88
740,4	-4,43
740,627	-4,6
740,854	-4,47
741,081	-6,42
741,309	-7,85
741,536	-11,01
741,763	-12,45
741,99	-10,34
742,217	-11,28
742,444	-12,1
742,671	-11,6
742,898	-12,69
743,125	-14,1
743,352	-15,05
743,579	-16,01
743,806	-15,21
744,033	-13,68
744,26	-10,39
744,487	-10,61
744,714	-12,01
744,941	-13,52
745,167	-11,41
745,394	-13,69
745,621	-12,9
745,848	-12,43
746,075	-10,84
746,301	-9,55
746,528	-6,25
746,755	-6,78
746,981	-8,85
747,208	-9,3
747,435	-6,8
747,661	-6,3
747,888	-4,39
748,114	-5,87
748,341	-3,5
748,567	-1,07
748,794	-2,29
749,02	-2,21
749,247	-3,41
749,473	-3,35
749,7	-3,85
749,926	-5,56
750,152	-2,6
750,379	-1,91
750,605	-1,98
750,831	-2,02
751,058	-3,67
751,284	-6,16
751,51	-3,62
751,737	-1,55
751,963	-3,08
752,189	-3,19
752,415	-2,88
752,641	-3,75
752,867	-5,23
753,094	-6,11
753,32	-7,76
753,546	-7,72
753,772	-6,62
753,998	-7,33
754,224	-7,8
754,45	-7,58
754,676	-7,98
754,902	-10,23
755,128	-10,41
755,354	-11,06
755,579	-11,25
755,805	-10,14
756,031	-11,44
756,257	-11,64
756,483	-12,9
756,709	-14,72
756,934	-12,97
757,16	-14,91
757,386	-14,72
757,612	-15,33
757,837	-17,36
758,063	-14,85
758,289	-12,16
758,514	-13,4
758,74	-15,38
758,965	-16,61
759,191	-16,71
759,416	-15,58
759,642	-12,96
759,868	-11,62
760,093	-8,67
760,318	-8,56
760,544	-9,66
760,769	-10,91
760,995	-11,93
761,22	-11,96
761,445	-10,89
761,671	-9,6
761,896	-6,51
762,121	-5,89
762,347	-6,61
762,572	-9,16
762,797	-8,69
763,022	-8,18
763,248	-6,04
763,473	-4,37
763,698	-3,66
763,923	-4,83
764,148	-5,87
764,373	-6,68
764,598	-4,95
764,823	-1,77
765,048	-4,81
765,273	-7,44
765,498	-7,3
765,723	-8,4
765,948	-7,92
766,173	-7,84
766,398	-7,22
766,623	-11,04
766,848	-11,45
767,073	-13,24
767,298	-13,83
767,522	-14,33
767,747	-12,81
767,972	-12,62
768,197	-12,48
768,421	-14,42
768,646	-17
768,871	-20,11
769,095	-20,2
769,32	-18,12
769,545	-17,67
769,769	-17,23
769,994	-15,54
770,218	-17,31
770,443	-14,63
770,667	-14,41
770,892	-13,09
771,116	-12,61
771,341	-10,52
771,565	-11,52
771,79	-12,57
772,014	-11,77
772,238	-13,01
772,463	-12,18
772,687	-10,66
772,911	-10,22
773,136	-11,49
773,36	-11,07
773,584	-8,25
773,808	-10,07
774,033	-10,87
774,257	-10,2
774,481	-10,85
774,705	-12,13
774,929	-12,06
775,153	-12,06
775,377	-11,23
775,602	-10,41
775,826	-9,43
776,05	-8,45
776,274	-10,69
776,498	-11,15
776,722	-11,89
776,945	-12,86
777,169	-12,36
777,393	-15,56
777,617	-14,94
777,841	-14,61
778,065	-14
778,289	-15,21
778,512	-15,91
778,736	-15,47
778,96	-15,79
779,184	-14,98
779,407	-15,36
779,631	-15,08
779,855	-16,03
780,078	-16,42
780,302	-18,58
780,526	-21,57
780,749	-21,08
780,973	-19,5
781,196	-19,95
781,42	-20,96
781,643	-20,12
781,867	-19,7
782,09	-21,08
782,314	-21,41
782,537	-21,88
782,76	-21,83
782,984	-21,25
783,207	-21,18
783,431	-21,19
783,654	-22
783,877	-21,65
784,1	-22,72
784,324	-22,79
784,547	-24,21
784,77	-26,72
784,993	-27,47
785,216	-29,32
785,44	-29,02
785,663	-29,96
785,886	-28,66
786,109	-28,05
786,332	-27,87
786,555	-28,41
786,778	-27,2
787,001	-25,63
787,224	-23,67
787,447	-21,06
787,67	-19,1
787,893	-19,71
788,116	-19,69
788,339	-18,67
788,561	-19,58
788,784	-22,26
789,007	-23,64
789,23	-24,83
789,453	-25,24
789,675	-27,37
789,898	-29,71
790,121	-31,15
790,344	-29,44
790,566	-29,71
790,789	-30,05
791,012	-28,47
791,234	-26,53
791,457	-23,24
791,679	-22,46
791,902	-21,63
792,124	-21,33
792,347	-22,01
792,569	-22,26
792,792	-25,14
793,014	-24,2
793,237	-23,63
793,459	-23,02
793,681	-22,48
793,904	-23,71
794,126	-24,98
794,348	-26,12
794,571	-25,17
794,793	-26
795,015	-24,76
795,237	-24,9
795,46	-24,78
795,682	-23,66
795,904	-20,28
796,126	-21,33
796,348	-21,66
796,57	-19,13
796,792	-18,57
797,014	-15,2
797,237	-14,78
797,459	-12,48
797,681	-11,71
797,903	-14,28
798,124	-13,43
798,346	-3,98
798,568	-2,13
798,79	1,37
799,012	2,6
799,234	3,47
799,456	4,63
799,678	7,19
799,899	6,09
800,121	5,08
800,343	4,39
800,565	3,45
800,786	5,35
801,008	6,5
801,23	6,39
801,451	6,37
801,673	5,04
801,895	4,13
802,116	6,46
802,338	7,9
802,559	8,46
802,781	5,86
803,002	8,1
803,224	10,46
803,445	8,42
803,667	10,27
803,888	8,89
804,109	8,27
804,331	6,7
804,552	7,22
804,773	9,56
804,995	6,9
805,216	-5,79
805,437	-8,09
805,658	-12,61
805,88	-14,31
806,101	-14,03
806,322	-13,6
806,543	-14,13
806,764	-15,1
806,985	-15,34
807,207	-13,6
807,428	-12,16
807,649	-16,28
807,87	-16,5
808,091	-14,38
808,312	-13,65
808,533	-8,42
808,754	-7,32
808,975	-9,49
809,195	-7,74
809,416	-7,56
809,637	-6,77
809,858	-7,65
810,079	-9,28
810,3	-6,97
810,52	-7,08
810,741	-9,4
810,962	-10,38
811,183	-9,37
811,403	-10,12
811,624	-9,82
811,845	-8,83
812,065	-7,34
812,286	-6,78
812,506	-5,96
812,727	-5,18
812,948	-4,39
813,168	-2,82
813,389	-4,35
813,609	-2,79
813,83	-3,09
814,05	-4,51
814,27	-4,79
814,491	-1,87
814,711	-3,69
814,931	-8,42
815,152	-9,71
815,372	-11,95
815,592	-13,07
815,813	-14,2
816,033	-15,73
816,253	-14,36
816,473	-15,29
816,694	-12,79
816,914	-11,87
817,134	-13,34
817,354	-15,69
817,574	-13,27
817,794	-14,2
818,014	-15,57
818,234	-15,53
818,454	-17,36
818,674	-19,19
818,894	-21,61
819,114	-19,22
819,334	-18,1
819,554	-16,5
819,774	-14,74
819,994	-17,64
820,214	-17,58
820,433	-18,82
820,653	-17,94
820,873	-17,09
821,093	-16,95
821,312	-18,22
821,532	-15,93
821,752	-12,81
821,972	-13,53
822,191	-12,78
822,411	-13,19
822,63	-13,04
822,85	-13,82
823,07	-16,92
823,289	-14,59
823,509	-16,91
823,728	-16,02
823,948	-17,46
824,167	-17,29
824,387	-19,08
824,606	-17,04
824,825	-17,05
825,045	-16,77
825,264	-17,4
825,483	-15,12
825,703	-13,62
825,922	-17,19
826,141	-19,02
826,361	-19,6
826,58	-22,79
826,799	-23,9
827,018	-22,96
827,237	-21,63
827,456	-20,25
827,676	-20,57
827,895	-20,13
828,114	-19,27
828,333	-19
828,552	-19,56
828,771	-19,24
828,99	-21,97
829,209	-21,61
829,428	-19,25
829,647	-19,63
829,866	-18,2
830,084	-19,89
830,303	-19,77
830,522	-21,27
830,741	-20,27
830,96	-19,22
831,179	-17,95
831,397	-18,86
831,616	-20,18
831,835	-21,35
832,053	-20,1
832,272	-20,3
832,491	-18,95
832,709	-18,61
832,928	-18,48
833,147	-18,3
833,365	-17,09
833,584	-14,93
833,802	-13,43
834,021	-14,22
834,239	-14,93
834,458	-15,31
834,676	-18,13
834,894	-18,7
835,113	-20,59
835,331	-20,66
835,55	-21,15
835,768	-21,05
835,986	-20,37
836,204	-21,3
836,423	-18,69
836,641	-18,39
836,859	-19,09
837,077	-19,47
837,296	-18,92
837,514	-19,13
837,732	-21,8
837,95	-22,43
838,168	-21,22
838,386	-20,62
838,604	-19,26
838,822	-18,3
839,04	-19,37
839,258	-18,74
839,476	-16,71
839,694	-15,82
839,912	-16,89
840,13	-17,29
840,348	-14,67
840,566	-17,15
840,783	-14,39
841,001	-15,2
841,219	-14,05
841,437	-12,64
841,655	-10,6
841,872	-9,61
842,09	-10,15
842,308	-8,67
842,525	-7,15
842,743	-6,86
842,961	-7,45
843,178	-10,42
843,396	-9,01
843,613	-8,58
843,831	-7,4
844,048	-7,11
844,266	-7,7
844,483	-6,75
844,701	-7,66
844,918	-7,66
845,136	-7,51
845,353	-8,77
845,57	-8,33
845,788	-5,83
846,005	-7,38
846,222	-8,16
846,439	-7,74
846,657	-6,49
846,874	-7,38
847,091	-10,33
847,308	-8,2
847,526	-10,33
847,743	-10,84
847,96	-12,55
848,177	-12,49
848,394	-13,94
848,611	-15,45
848,828	-14,8
849,045	-16,11
849,262	-16,79
849,479	-17,44
849,696	-18,48
849,913	-20,78
850,13	-24,03
850,347	-21,76
850,564	-23,3
850,78	-24,7
850,997	-24,63
851,214	-23,68
851,431	-23,43
851,647	-25,22
851,864	-25,31
852,081	-23,76
852,298	-26,65
852,514	-27,37
852,731	-26,25
852,948	-24,34
853,164	-23,04
853,381	-24,06
853,597	-24,03
853,814	-24,37
854,03	-26,4
854,247	-25,74
854,463	-26,38
854,68	-25,59
854,896	-25,11
855,113	-24,42
855,329	-23,28
855,545	-22,26
855,762	-23,35
855,978	-25,28
856,194	-26,45
856,411	-23,17
856,627	-20,62
856,843	-19,81
857,059	-18,53
857,275	-18,92
857,492	-18,63
857,708	-14,94
857,924	-13,52
858,14	-11,02
858,356	-11,42
858,572	-10,3
858,788	-11,35
859,004	-10,78
859,22	-12,16
859,436	-12,96
859,652	-15,3
859,868	-17,96
860,084	-18,34
860,3	-17,7
860,516	-18,49
860,731	-18,55
860,947	-19,2
861,163	-16,72
861,379	-16,14
861,595	-15,97
861,81	-15,05
862,026	-13,87
862,242	-14,25
862,457	-13,13
862,673	-11,37
862,889	-11,57
863,104	-13,05
863,32	-12,26
863,535	-11,03
863,751	-14,24
863,966	-11,12
864,182	-10
864,397	-13,36
864,613	-16,14
864,828	-16,27
865,044	-14,17
865,259	-14,77
865,474	-14,53
865,69	-12,57
865,905	-12,7
866,12	-13,41
866,336	-12,72
866,551	-10,73
866,766	-10,3
866,981	-10,55
867,196	-10,84
867,412	-10,38
867,627	-10,74
867,842	-11,06
868,057	-12,65
868,272	-12,69
868,487	-14,07
868,702	-16,52
868,917	-17,48
869,132	-17,01
869,347	-15,76
869,562	-17,02
869,777	-17,23
869,992	-19,16
870,207	-20,82
870,422	-20,81
870,636	-22,96
870,851	-24,02
871,066	-25,13
871,281	-24,15
871,495	-26,17
871,71	-24,89
871,925	-26,64
872,14	-26,72
872,354	-27,3
872,569	-29,11
872,783	-28,19
872,998	-29,87
873,213	-30,78
873,427	-28,49
873,642	-27,59
873,856	-25,82
874,071	-25,56
874,285	-26,76
874,5	-28,72
874,714	-29,74
874,928	-31,07
875,143	-31,73
875,357	-30,87
875,571	-30,74
875,786	-29,6
876	-28,05
876,214	-26,27
876,429	-27,17
876,643	-25,37
876,857	-23,54
877,071	-23,46
877,285	-24,02
877,499	-25,62
877,714	-23,16
877,928	-22,46
878,142	-23,39
878,356	-25,53
878,57	-23,11
878,784	-22,89
878,998	-24,57
879,212	-20,71
879,426	-21,4
879,639	-18,23
879,853	-17,83
880,067	-19,55
880,281	-20,65
880,495	-20,07
880,709	-18,14
880,922	-15,94
881,136	-12,89
881,35	-11,26
881,564	-11,14
881,777	-12,47
881,991	-12,57
882,205	-10,59
882,418	-12,31
882,632	-14,46
882,845	-14,22
883,059	-14,27
883,273	-15,08
883,486	-16,34
883,7	-13,48
883,913	-13,74
884,126	-11,9
884,34	-14,19
884,553	-14,1
884,767	-10,69
884,98	-9,91
885,193	-12,47
885,407	-13,77
885,62	-12,76
885,833	-14,09
886,046	-13,44
886,26	-16,01
886,473	-17,87
886,686	-17,83
886,899	-16,72
887,112	-17,7
887,326	-20,97
887,539	-20,92
887,752	-23,03
887,965	-25,36
888,178	-24
888,391	-23,35
888,604	-22,28
888,817	-24,37
889,03	-22,48
889,243	-22,74
889,455	-24,84
889,668	-23,42
889,881	-21,57
890,094	-21,48
890,307	-24,19
890,52	-23,09
890,732	-23
890,945	-22,96
891,158	-23,24
891,37	-24,55
891,583	-25,65
891,796	-22,64
892,008	-23,21
892,221	-23,14
892,434	-24,84
892,646	-26,45
892,859	-26,48
893,071	-25,63
893,284	-24,03
893,496	-24,88
893,709	-25
893,921	-23,25
894,133	-24,72
894,346	-23,34
894,558	-22,68
894,771	-22,96
894,983	-20,21
895,195	-20,54
895,407	-19,2
895,62	-21,76
895,832	-22,39
896,044	-19,65
896,256	-20,55
896,468	-21,87
896,681	-21,37
896,893	-20,87
897,105	-20,21
897,317	-21,15
897,529	-19,25
897,741	-18,04
897,953	-17,54
898,165	-17,84
898,377	-18,85
898,589	-17,84
898,801	-18,15
899,013	-17,02
899,224	-14,11
899,436	-12,33
899,648	-12,14
899,86	-13,98
900,072	-11,68
900,283	-11,33
900,495	-10,93
900,707	-10,18
900,919	-14,41
901,13	-12,81
901,342	-13,96
901,554	-16,09
901,765	-15,2
901,977	-17,43
902,188	-17,87
902,4	-18,15
902,611	-19,13
902,823	-20,87
903,034	-22,88
903,246	-25,09
903,457	-26,06
903,669	-27,27
903,88	-27,54
904,091	-28,27
904,303	-28,89
904,514	-28,54
904,725	-28,58
904,936	-29,31
905,148	-27,87
905,359	-27,27
905,57	-28,17
905,781	-31,3
905,992	-32,29
906,204	-31,69
906,415	-31,31
906,626	-33,18
906,837	-30,58
907,048	-30,45
907,259	-31,31
907,47	-31,33
907,681	-33,45
907,892	-31,12
908,103	-31,22
908,314	-33,79
908,525	-32,49
908,735	-32,01
908,946	-32,69
909,157	-34,56
909,368	-32,86
909,579	-31,11
909,789	-30,31
910	-30,84
910,211	-29,06
910,421	-28,64
910,632	-27,27
910,843	-29
911,053	-26,92
911,264	-25,07
911,475	-25,84
911,685	-26,93
911,896	-26,62
912,106	-24,64
912,317	-25,29
912,527	-23,19
912,737	-23,47
912,948	-22,79
913,158	-22,37
913,369	-25,75
913,579	-23,66
913,789	-22,46
914	-19,75
914,21	-17,24
914,42	-17,78
914,63	-17,77
914,841	-17,48
915,051	-15,96
915,261	-14,28
915,471	-12,71
915,681	-10,61
915,891	-10,98
916,101	-11,24
916,311	-11,03
916,521	-10,54
916,731	-11,77
916,941	-9,63
917,151	-11,77
917,361	-9,26
917,571	-13,39
917,781	-13,42
917,991	-14,26
918,201	-14,59
918,411	-15,93
918,621	-17,37
918,83	-16,03
919,04	-17,99
919,25	-17,05
919,46	-17,03
919,669	-18,64
919,879	-18,1
920,089	-19,73
920,298	-20,1
920,508	-19,98
920,717	-20,73
920,927	-22,91
921,136	-22,33
921,346	-23,03
921,555	-25,07
921,765	-26,4
921,974	-27,97
922,184	-30,71
922,393	-30,55
922,603	-31,82
922,812	-30,91
923,021	-31,52
923,23	-31,63
923,44	-35,39
923,649	-33,83
923,858	-34,85
924,067	-34,1
924,277	-36,29
924,486	-34,54
924,695	-34,45
924,904	-33,28
925,113	-33,72
925,322	-31,82
925,531	-30,74
925,74	-33,14
925,949	-33,53
926,158	-31,51
926,367	-31,75
926,576	-31,63
926,785	-32,29
926,994	-33,05
927,203	-32,93
927,412	-32,66
927,621	-34,44
927,83	-32,03
928,038	-31,98
928,247	-29,62
928,456	-29,48
928,665	-28,29
928,873	-26,24
929,082	-24,38
929,291	-23,91
929,499	-21,77
929,708	-22,85
929,916	-21,28
930,125	-23,4
930,333	-23,43
930,542	-21,01
930,75	-18,26
930,959	-17,32
931,167	-17,9
931,376	-18,23
931,584	-16,55
931,793	-16,35
932,001	-17,56
932,209	-17,17
932,418	-18,16
932,626	-19,53
932,834	-20,59
933,042	-22,99
933,251	-23,58
933,459	-22,89
933,667	-22,61
933,875	-22,14
934,083	-19,61
934,291	-19,08
934,499	-18,49
934,707	-20,41
934,915	-19,64
935,123	-17,79
935,331	-19,19
935,539	-20,82
935,747	-21,44
935,955	-23
936,163	-22,83
936,371	-21,53
936,579	-18,32
936,787	-19,46
936,995	-21,77
937,202	-23,15
937,41	-23,95
937,618	-24,72
937,826	-24,69
938,033	-27,35
938,241	-29,65
938,449	-27,08
938,656	-25,46
938,864	-26,55
939,071	-27,19
939,279	-26,24
939,486	-24,03
939,694	-24,76
939,901	-26,57
940,109	-27,52
940,316	-27,87
940,524	-28,19
940,731	-28,4
940,939	-27,65
941,146	-27,74
941,353	-28,24
941,561	-27,53
941,768	-28,48
941,975	-27,28
942,182	-27,19
942,39	-26,16
942,597	-23,31
942,804	-23,55
943,011	-26,06
943,218	-24,72
943,425	-24,49
943,632	-24,12
943,839	-25,22
944,046	-24,46
944,253	-25,7
944,46	-25,81
944,667	-22,77
944,874	-24,72
945,081	-23,19
945,288	-21,09
945,495	-19,75
945,702	-18,12
945,909	-18,4
946,115	-15,65
946,322	-15,76
946,529	-16,01
946,736	-14,94
946,942	-15,54
947,149	-17,48
947,356	-19,39
947,562	-19,68
947,769	-19,86
947,976	-22,3
948,182	-20,76
948,389	-21,14
948,595	-21,34
948,802	-21,24
949,008	-22,68
949,215	-22
949,421	-21,66
949,628	-22,27
949,834	-23,17
950,04	-24,87
950,247	-21
950,453	-19,51
950,659	-19,24
950,865	-17,34
951,072	-20,31
951,278	-18,05
951,484	-21,11
951,69	-23,26
951,896	-23,04
952,103	-23,58
952,309	-23,65
952,515	-24,63
952,721	-23,24
952,927	-21,92
953,133	-23,57
953,339	-23,45
953,545	-22,4
953,751	-21,23
953,957	-21,04
954,163	-21,95
954,369	-20,91
954,574	-22,02
954,78	-21,86
954,986	-20,64
955,192	-18,47
955,398	-20,05
955,603	-22,42
955,809	-21,28
956,015	-21,66
956,22	-20,38
956,426	-19,04
956,632	-22,65
956,837	-23,24
957,043	-23,03
957,248	-23,15
957,454	-22,69
957,66	-24,96
957,865	-24,33
958,07	-23,43
958,276	-24,61
958,481	-26,15
958,687	-27,27
958,892	-27,86
959,097	-27,85
959,303	-27,61
959,508	-27,27
959,713	-26,88
959,919	-28,45
960,124	-27,78
960,329	-26,76
960,534	-24,42
960,739	-22,83
960,945	-21,57
961,15	-22,61
961,355	-23,5
961,56	-27,18
961,765	-27,56
961,97	-26,65
962,175	-26,1
962,38	-28,08
962,585	-28,02
962,79	-29,11
962,995	-29,14
963,2	-29,59
963,404	-29,48
963,609	-30,57
963,814	-31,93
964,019	-34,35
964,224	-35,81
964,428	-33,61
964,633	-33,66
964,838	-32,85
965,042	-32,41
965,247	-33,32
965,452	-32,62
965,656	-31,21
965,861	-30,4
966,066	-31,46
966,27	-28,51
966,475	-26,25
966,679	-29,5
966,884	-28,67
967,088	-30,77
967,292	-31,52
967,497	-29,68
967,701	-31,22
967,906	-29,8
968,11	-27,21
968,314	-24,59
968,518	-25,74
968,723	-22,98
968,927	-21,41
969,131	-20,58
969,335	-18,31
969,539	-19,53
969,744	-18,13
969,948	-15,32
970,152	-13,67
970,356	-10,98
970,56	-9,81
970,764	-10,8
970,968	-7,77
971,172	-7,8
971,376	-7,02
971,58	-5,94
971,784	-6,37
971,988	-8,75
972,192	-7,24
972,395	-8,94
972,599	-11,07
972,803	-12,95
973,007	-11,21
973,21	-12,24
973,414	-12,69
973,618	-13,08
973,822	-13,73
974,025	-12,29
974,229	-12,35
974,432	-15,3
974,636	-16,95
974,84	-15,55
975,043	-15,4
975,247	-16,86
975,45	-18,46
975,654	-18,01
975,857	-15,8
976,06	-16,82
976,264	-19,3
976,467	-18,39
976,671	-19
976,874	-18,14
977,077	-19,54
977,28	-21,23
977,484	-22,1
977,687	-23,13
977,89	-21,6
978,093	-20,74
978,297	-19,29
978,5	-21,06
978,703	-18,52
978,906	-19
979,109	-18,94
979,312	-17,28
979,515	-17,6
979,718	-17,52
979,921	-17,8
980,124	-19,11
980,327	-19,42
980,53	-19,47
980,733	-17,31
980,936	-16,51
981,138	-18,34
981,341	-19,36
981,544	-19,98
981,747	-18,84
981,949	-20,84
982,152	-20,08
982,355	-20,65
982,558	-17,38
982,76	-19,29
982,963	-19,55
983,165	-20,5
983,368	-19,87
983,571	-19,32
983,773	-16,66
983,976	-16,54
984,178	-15,91
984,381	-17,72
984,583	-19,37
984,785	-20,12
984,988	-18,33
985,19	-16,08
985,392	-16,65
985,595	-19,42
985,797	-18,93
985,999	-16,76
986,202	-15,21
986,404	-15,9
986,606	-13,91
986,808	-15,16
987,01	-14,78
987,212	-15,25
987,415	-15,04
987,617	-14,64
987,819	-13,84
988,021	-12,89
988,223	-14,12
988,425	-14,35
988,627	-14,11
988,829	-18,85
989,031	-16,93
989,232	-17,09
989,434	-14,6
989,636	-15,08
989,838	-15,85
990,04	-15,41
990,242	-16,36
990,443	-17,45
990,645	-14,01
990,847	-11,9
991,048	-11,47
991,25	-13,94
991,452	-14,02
991,653	-15,36
991,855	-15,26
992,057	-15,25
992,258	-15,36
992,46	-15,77
992,661	-14,62
992,863	-16,12
993,064	-14,05
993,265	-14,96
993,467	-15,62
993,668	-15,38
993,87	-14,08
994,071	-14,79
994,272	-14,65
994,473	-12,2
994,675	-11,49
994,876	-11,17
995,077	-9,87
995,278	-9,01
995,48	-9,66
995,681	-11,88
995,882	-9,81
996,083	-10,15
996,284	-12,84
996,485	-11,62
996,686	-13,51
996,887	-15,79
997,088	-19,37
997,289	-20,64
997,49	-20,3
997,691	-20,89
997,892	-21,08
998,092	-17,44
998,293	-17,72
998,494	-19,13
998,695	-19,73
998,896	-17,97
999,096	-17,15
999,297	-18,01
999,498	-19,17
999,698	-20,72
999,899	-21,31
1000,1	-23,92
1000,3	-23,75
1000,501	-24,79
1000,701	-25,7
1000,902	-27,7
1001,102	-27,76
1001,303	-25,75
1001,503	-28,62
1001,704	-27,16
1001,904	-26,53
1002,105	-27,56
1002,305	-26,99
1002,505	-28,5
1002,706	-30,6
1002,906	-30,82
1003,106	-30,95
1003,306	-28,36
1003,507	-25,7
1003,707	-25,87
1003,907	-24,31
1004,107	-22,14
1004,307	-24
1004,507	-22,06
1004,707	-22,2
1004,907	-22,92
1005,107	-23,28
1005,308	-23,14
1005,507	-23,83
1005,707	-20,49
1005,907	-21,78
1006,107	-20,49
1006,307	-19,88
1006,507	-20,92
1006,707	-18,5
1006,907	-18,17
1007,106	-18,2
1007,306	-18,66
1007,506	-19,42
1007,706	-18,33
1007,905	-20,02
1008,105	-21,42
1008,305	-22
1008,504	-21,09
1008,704	-17,19
1008,903	-15,53
1009,103	-14,74
1009,303	-16,98
1009,502	-17,55
1009,702	-18,98
1009,901	-19,1
1010,1	-22,45
1010,3	-22,09
1010,499	-23,23
1010,699	-26
1010,898	-25,66
1011,097	-24,94
1011,296	-25,54
1011,496	-27,6
1011,695	-28,99
1011,894	-31,14
1012,093	-26,82
1012,293	-26,86
1012,492	-26,65
1012,691	-26,16
1012,89	-27,64
1013,089	-28,4
1013,288	-27,74
1013,487	-27,33
1013,686	-27,36
1013,885	-27,91
1014,084	-26,98
1014,283	-26,17
1014,482	-27,01
1014,681	-27,51
1014,88	-30,58
1015,078	-29,49
1015,277	-30,26
1015,476	-29,82
1015,675	-30,29
1015,873	-28,71
1016,072	-28,85
1016,271	-25,61
1016,47	-28,23
1016,668	-25,46
1016,867	-25,95
1017,065	-27,07
1017,264	-27,82
1017,463	-28,21
1017,661	-28,33
1017,86	-27,36
1018,058	-27,22
1018,256	-29,16
1018,455	-29,36
1018,653	-27,87
1018,852	-27,61
1019,05	-29,88
1019,248	-31,66
1019,447	-32,73
1019,645	-32,62
1019,843	-34,19
1020,041	-33,93
1020,24	-34,54
1020,438	-32,26
1020,636	-32,47
1020,834	-35,17
1021,032	-32,99
1021,23	-34,19
1021,428	-32,33
1021,626	-29,18
1021,824	-28,06
1022,022	-28,88
1022,22	-27,62
1022,418	-27,64
1022,616	-27,91
1022,814	-29,95
1023,012	-29,88
1023,21	-29,27
1023,408	-28,79
1023,606	-29,11
1023,803	-24,27
1024,001	-23,33
1024,199	-26,25
1024,397	-26,05
1024,594	-27,04
1024,792	-29,2
1024,99	-28,41
1025,187	-27,48
1025,385	-23,71
1025,582	-23,04
1025,78	-22,37
1025,977	-22,33
1026,175	-21,11
1026,372	-21,49
1026,57	-22,47
1026,767	-19,43
1026,965	-18,14
1027,162	-18,96
1027,359	-18,92
1027,557	-19,21
1027,754	-21,65
1027,951	-22,72
1028,148	-21,97
1028,346	-25,07
1028,543	-26,58
1028,74	-26,67
1028,937	-28,72
1029,134	-28,57
1029,331	-30
1029,528	-30
1029,725	-30,73
1029,923	-34,5
1030,12	-32,13
1030,317	-29,49
1030,513	-28,67
1030,71	-26,59
1030,907	-25,04
1031,104	-25,92
1031,301	-26,57
1031,498	-27,02
1031,695	-27,91
1031,892	-28,75
1032,088	-28,37
1032,285	-30,35
1032,482	-31,14
1032,678	-32,94
1032,875	-36,13
1033,072	-36,49
1033,268	-36,77
1033,465	-36,5
1033,662	-37,68
1033,858	-36,67
1034,055	-36,69
1034,251	-33,85
1034,448	-32,33
1034,644	-31,41
1034,84	-29,18
1035,037	-26,43
1035,233	-26,33
1035,43	-23,71
1035,626	-24,96
1035,822	-24,16
1036,019	-22,63
1036,215	-26,42
1036,411	-27,67
1036,607	-28,03
1036,803	-31,24
1037	-31,37
1037,196	-32,33
1037,392	-31,96
1037,588	-33,5
1037,784	-32,08
1037,98	-33,03
1038,176	-32,21
1038,372	-32,67
1038,568	-30,32
1038,764	-29,67
1038,96	-26,51
1039,156	-26,94
1039,352	-26,99
1039,547	-25,63
1039,743	-25,82
1039,939	-24,76
1040,135	-24,46
1040,331	-26,94
1040,526	-25,54
1040,722	-28,11
1040,918	-28,89
1041,113	-32,25
1041,309	-32,1
1041,505	-34,22
1041,7	-33,11
1041,896	-33,21
1042,091	-35,14
1042,287	-34,31
1042,482	-33,12
1042,678	-34,01
1042,873	-32,55
1043,069	-33,09
1043,264	-32,35
1043,459	-31,85
1043,655	-31,36
1043,85	-32,3
1044,045	-30,78
1044,24	-31,14
1044,436	-29,54
1044,631	-30,79
1044,826	-31,26
1045,021	-34,8
1045,216	-33,64
