Data from FLMT021711__19__16-32-22-355.txt Node

Date: Tue Nov 05 16:32:22 CET 2024
User: Etudiants TP
Spectrometer: FLMT02171
Trigger mode: 0
Integration Time (sec): 1.000000E-1
Scans to average: 5
Electric dark correction enabled: true
Nonlinearity correction enabled: false
Boxcar width: 15
XAxis mode: Wavelengths
Number of Pixels in Spectrum: 3648
>>>>>Begin Spectral Data<<<<<
194.658	-44.33
194.923	-43.52
195.188	-37.7
195.453	-37.5
195.717	-33.81
195.982	-33.2
196.247	-33.59
196.512	-35.76
196.777	-34.18
197.042	-33.41
197.307	-33.08
197.572	-29.19
197.837	-28.3
198.101	-26.01
198.366	-24.21
198.631	-22.83
198.896	-17.44
199.161	-12.78
199.425	-8.01
199.69	-0.12
199.955	-0.88
200.22	-1.44
200.484	-1.62
200.749	-1.95
201.014	-0.65
201.278	-0.91
201.543	0.6
201.807	0.74
202.072	1.41
202.337	0.68
202.601	1.48
202.866	1.11
203.13	3.68
203.395	2.43
203.659	2.81
203.924	2.14
204.189	3.41
204.453	5.64
204.717	8.12
204.982	8.89
205.246	11.32
205.511	13
205.775	12.31
206.04	15.21
206.304	14.41
206.568	15.06
206.833	15.19
207.097	15.27
207.361	17.34
207.626	20.79
207.89	19.97
208.154	20.38
208.419	20.25
208.683	18.56
208.947	20.74
209.211	20.21
209.476	20.28
209.74	20.46
210.004	20.31
210.268	21.21
210.532	23.18
210.796	23.4
211.061	22.2
211.325	21.57
211.589	19.95
211.853	19.94
212.117	19.24
212.381	19.82
212.645	19.62
212.909	18.92
213.173	17.42
213.437	16.38
213.701	15.75
213.965	15.02
214.229	11.95
214.493	12.33
214.757	12.54
215.021	12.76
215.285	15.32
215.549	16.94
215.813	15.29
216.077	14.98
216.34	16.25
216.604	15.29
216.868	16.32
217.132	14.51
217.396	14.48
217.659	14.94
217.923	11.27
218.187	12.34
218.451	12.22
218.714	11.09
218.978	12.07
219.242	15.06
219.505	15.1
219.769	16
220.033	16.9
220.296	18.62
220.56	18.37
220.824	16.63
221.087	17.01
221.351	16.56
221.614	15.87
221.878	16.86
222.142	16.42
222.405	16.77
222.669	19.58
222.932	17.34
223.196	16.95
223.459	13.74
223.722	14.58
223.986	13.96
224.249	13.74
224.513	14.8
224.776	16.09
225.04	15.45
225.303	15.96
225.566	15.55
225.83	16.64
226.093	18.32
226.356	15.15
226.62	13.33
226.883	13.72
227.146	13.79
227.409	13.62
227.673	11.94
227.936	11.12
228.199	11.39
228.462	8.51
228.725	7.44
228.989	8.74
229.252	10.21
229.515	14.85
229.778	14.43
230.041	14.01
230.304	13.38
230.567	14.07
230.83	11.01
231.093	12.22
231.356	10.64
231.619	15.83
231.882	15.43
232.145	16.6
232.408	15.46
232.671	14.7
232.934	13.75
233.197	13.86
233.46	13.46
233.723	14.8
233.986	12.96
234.249	12.17
234.512	15.38
234.775	17.47
235.037	17.47
235.3	17.28
235.563	15.9
235.826	17.02
236.089	18.99
236.351	17.79
236.614	21.26
236.877	22.5
237.14	23.32
237.402	23.22
237.665	17.6
237.928	18.53
238.19	16.51
238.453	17.79
238.716	16.91
238.978	17.12
239.241	15.64
239.503	17.71
239.766	14.96
240.029	11.91
240.291	14
240.554	14.77
240.816	13.89
241.079	14.06
241.341	12.6
241.604	12.11
241.866	9.57
242.129	12.01
242.391	14.23
242.653	12.7
242.916	13.57
243.178	13.75
243.441	13.32
243.703	12.93
243.965	11.78
244.228	12.19
244.49	12.55
244.752	13.24
245.015	13.85
245.277	15.27
245.539	14.34
245.801	16.52
246.064	15.35
246.326	16.44
246.588	16.06
246.85	17.92
247.112	17.66
247.374	19.66
247.637	21.15
247.899	20.3
248.161	22.46
248.423	18.44
248.685	17
248.947	16.25
249.209	16.67
249.471	18.91
249.733	19.94
249.995	18.31
250.257	15.99
250.519	13.53
250.781	15.52
251.043	13.47
251.305	14.09
251.567	15.73
251.829	16.35
252.091	16.09
252.353	13.23
252.615	14.39
252.876	12.82
253.138	11.36
253.4	8.06
253.662	7.97
253.924	8.83
254.185	10.89
254.447	9.58
254.709	10.29
254.971	11.61
255.232	12.73
255.494	12.04
255.756	10.22
256.017	10.57
256.279	10.11
256.541	10.61
256.802	12.44
257.064	14.67
257.326	13.14
257.587	12.73
257.849	14.18
258.11	16.72
258.372	17.45
258.633	19.02
258.895	17.39
259.156	16.83
259.418	15.38
259.679	12.41
259.941	11.16
260.202	12.2
260.464	13.91
260.725	12.61
260.987	12.03
261.248	11.24
261.509	12.57
261.771	13.3
262.032	14.2
262.293	13.67
262.555	13.59
262.816	11.47
263.077	8.56
263.338	7.34
263.6	7.12
263.861	6.36
264.122	6.24
264.383	7.02
264.645	7.61
264.906	5.85
265.167	6.3
265.428	5.85
265.689	7.19
265.95	2.96
266.211	3.91
266.473	3.67
266.734	1.58
266.995	-0.33
267.256	-0.05
267.517	1.61
267.778	4.39
268.039	5.97
268.3	5.35
268.561	3.63
268.822	5.96
269.083	3.98
269.344	1.91
269.604	0.64
269.865	-0.64
270.126	-1.68
270.387	-1.78
270.648	-0.33
270.909	0.55
271.17	-0.71
271.43	-2.78
271.691	-4.53
271.952	-4.93
272.213	-3.06
272.473	-5
272.734	-3.88
272.995	-2.27
273.256	-2.93
273.516	-0.4
273.777	-2.24
274.038	1.75
274.298	0.23
274.559	0.67
274.82	4
275.08	7.2
275.341	8.78
275.601	7.74
275.862	4.59
276.122	4.6
276.383	3.84
276.643	5.06
276.904	4.32
277.164	7.7
277.425	9.36
277.685	12.51
277.946	13.12
278.206	12.1
278.467	12.6
278.727	12.9
278.987	12.19
279.248	13.16
279.508	14.54
279.768	15.72
280.029	17.72
280.289	14.41
280.549	13.96
280.81	13.79
281.07	12.44
281.33	13.62
281.59	11.49
281.851	14.01
282.111	13.3
282.371	14.6
282.631	15.97
282.891	14.82
283.151	12.7
283.412	10.82
283.672	11.56
283.932	12.7
284.192	13.11
284.452	12.87
284.712	10.96
284.972	9.08
285.232	6.47
285.492	8.24
285.752	5.67
286.012	12.11
286.272	14.13
286.532	12.88
286.792	11.66
287.052	13.74
287.312	13.23
287.571	12.87
287.831	13.76
288.091	11.15
288.351	11.62
288.611	14.96
288.871	14.37
289.13	14.57
289.39	11.48
289.65	13.6
289.91	12.13
290.17	14.33
290.429	14.6
290.689	12.09
290.949	9.87
291.208	10.75
291.468	13.46
291.728	13.34
291.987	14.87
292.247	14.2
292.506	16.41
292.766	18.29
293.026	17.64
293.285	18.57
293.545	20.01
293.804	21.23
294.064	17
294.323	14.42
294.583	14.39
294.842	15.96
295.102	15.32
295.361	16.93
295.621	17.51
295.88	17.38
296.139	17.79
296.399	18.29
296.658	13.79
296.917	13.63
297.177	12.28
297.436	14.09
297.695	12.04
297.955	12.86
298.214	10.63
298.473	11.41
298.732	13.36
298.992	14.84
299.251	14.37
299.51	12.21
299.769	12.8
300.028	13.06
300.287	12.17
300.547	10.98
300.806	9.8
301.065	11.56
301.324	12.57
301.583	10.01
301.842	6.57
302.101	4.86
302.36	6
302.619	6.14
302.878	6.49
303.137	4.47
303.396	5.07
303.655	6.19
303.914	4.03
304.173	3.51
304.432	3.26
304.691	5.78
304.95	4.8
305.208	7.71
305.467	6.77
305.726	6.73
305.985	6.52
306.244	7.46
306.503	6.91
306.761	4.92
307.02	3.59
307.279	4.87
307.537	4.29
307.796	1.95
308.055	-0.79
308.314	1.25
308.572	0.86
308.831	1.87
309.09	3.15
309.348	3.44
309.607	3.3
309.865	7.43
310.124	6.96
310.382	8.67
310.641	10.21
310.9	7.8
311.158	8.51
311.417	6.75
311.675	7.35
311.933	8.68
312.192	9.92
312.45	9.85
312.709	9.4
312.967	8.85
313.226	9.38
313.484	8.8
313.742	7.25
314.001	5.22
314.259	4.6
314.517	5.38
314.776	8.4
315.034	10.82
315.292	8.83
315.55	9.06
315.809	8.57
316.067	9.52
316.325	8.33
316.583	10.03
316.841	9.06
317.1	6.14
317.358	3.35
317.616	2.57
317.874	0.71
318.132	0.76
318.39	-0.3
318.648	-2.85
318.906	-1.68
319.164	-0.96
319.422	-1.04
319.68	-3
319.938	-3.33
320.196	-3.79
320.454	-3.6
320.712	-3.25
320.97	-3.13
321.228	-5.11
321.486	-3.24
321.744	0.17
322.002	2.54
322.26	1.51
322.517	1.51
322.775	-1.58
323.033	-3.71
323.291	-2.29
323.549	-2.8
323.806	-1.34
324.064	-1.15
324.322	0.8
324.58	-0.38
324.837	1.57
325.095	0.73
325.353	3.27
325.61	5.64
325.868	5.7
326.126	6.87
326.383	5.49
326.641	4.44
326.898	4.99
327.156	4.45
327.413	4.78
327.671	5.57
327.928	7.72
328.186	8.02
328.443	6.91
328.701	9.36
328.958	10.41
329.216	10.96
329.473	9.93
329.731	9
329.988	9.06
330.245	9.93
330.503	11.23
330.76	11.98
331.017	14.23
331.275	12.27
331.532	13.53
331.789	13.11
332.047	12.78
332.304	8.93
332.561	9.01
332.818	7.34
333.076	9.94
333.333	10.27
333.59	10.45
333.847	11.77
334.104	10.44
334.361	10.72
334.618	11.09
334.876	9.31
335.133	8.76
335.39	6.96
335.647	8.11
335.904	4.96
336.161	4.36
336.418	6.32
336.675	2.09
336.932	3.22
337.189	2.21
337.446	2.35
337.703	2.35
337.96	-0.43
338.216	-0.02
338.473	-3.06
338.73	-3.17
338.987	-3.9
339.244	-1.34
339.501	-3.19
339.757	-3.11
340.014	-2.76
340.271	-1.04
340.528	-0.9
340.785	1.83
341.041	2.55
341.298	0.73
341.555	0.34
341.811	-0.22
342.068	-1.72
342.325	-1.94
342.581	0.22
342.838	2.37
343.094	2.91
343.351	4.22
343.608	0.47
343.864	2.28
344.121	3.26
344.377	1.65
344.634	1.8
344.89	0.34
345.147	0.45
345.403	0.12
345.66	-0.26
345.916	1.29
346.172	-0.35
346.429	-1.18
346.685	-2.38
346.942	-2.76
347.198	-4.74
347.454	-2.02
347.711	-2.33
347.967	-4.27
348.223	-2.61
348.48	-2.27
348.736	-0.64
348.992	-1.15
349.248	0.89
349.504	0.07
349.761	-0.73
350.017	-0.4
350.273	-1.26
350.529	-1.08
350.785	-1.26
351.041	-1.82
351.297	-0.59
351.554	0.54
351.81	-1.91
352.066	-2.35
352.322	-1.57
352.578	0.26
352.834	0.46
353.09	0.48
353.346	0.19
353.602	-0.91
353.858	-1.96
354.114	-2.36
354.369	-0.57
354.625	1.94
354.881	1.8
355.137	2.91
355.393	1.65
355.649	3.58
355.905	3.83
356.16	3.5
356.416	3.04
356.672	-1.59
356.928	-2.11
357.183	-3.42
357.439	-2.87
357.695	-3.76
357.951	0.73
358.206	1.39
358.462	0.1
358.718	-2.5
358.973	-2.11
359.229	-3.7
359.484	-3.5
359.74	0.04
359.996	-0.67
360.251	2.14
360.507	1.25
360.762	1.11
361.018	2.88
361.273	1.51
361.529	2.23
361.784	3.33
362.04	5.25
362.295	4.97
362.55	5.1
362.806	6.69
363.061	7.23
363.316	7.79
363.572	7.08
363.827	9.03
364.082	6.67
364.338	6.71
364.593	8.09
364.848	8.34
365.104	6.99
365.359	8.94
365.614	9.5
365.869	5.54
366.124	5.38
366.38	5.5
366.635	7.42
366.89	8.43
367.145	9.84
367.4	12.68
367.655	12.26
367.91	11.86
368.165	8.74
368.42	7.21
368.675	7.97
368.93	8.26
369.185	7.2
369.44	7.73
369.695	9.32
369.95	9.08
370.205	8.39
370.46	7.31
370.715	4.87
370.97	4.32
371.225	3.87
371.48	5.12
371.734	4.97
371.989	5.85
372.244	6.61
372.499	6.66
372.754	5.76
373.008	4.79
373.263	0.62
373.518	2.32
373.773	3.17
374.027	2.63
374.282	4.53
374.537	5.37
374.791	6.49
375.046	5.02
375.301	3.66
375.555	2.45
375.81	4.96
376.064	6.06
376.319	7.02
376.573	5.68
376.828	3.31
377.082	6.93
377.337	5.07
377.591	3.14
377.846	3.38
378.1	4.95
378.355	4.87
378.609	6.06
378.863	4.08
379.118	5.23
379.372	4.07
379.627	3.26
379.881	0.67
380.135	0.16
380.389	0.88
380.644	1.49
380.898	2.35
381.152	3.64
381.407	4.29
381.661	4.3
381.915	5.82
382.169	5.23
382.423	3.73
382.677	0.39
382.932	1.66
383.186	4.16
383.44	4.73
383.694	4.75
383.948	3.75
384.202	3.93
384.456	5.22
384.71	5.71
384.964	4.37
385.218	6.14
385.472	5.83
385.726	5.54
385.98	6.08
386.234	5.93
386.488	3.77
386.742	5.01
386.996	3.53
387.249	3.5
387.503	4.68
387.757	6.24
388.011	6.83
388.265	6.39
388.518	6.79
388.772	8.22
389.026	9.19
389.28	6.24
389.533	6.61
389.787	7.94
390.041	5.89
390.295	6.06
390.548	7.08
390.802	8.52
391.055	6.44
391.309	6.13
391.563	5.29
391.816	5.61
392.07	4.6
392.323	5.67
392.577	6.84
392.83	7.56
393.084	10.95
393.337	12.96
393.591	13.74
393.844	13.16
394.098	16.11
394.351	19.34
394.604	21.84
394.858	22.76
395.111	22.61
395.364	21.11
395.618	23.17
395.871	21.99
396.124	21.14
396.378	20.54
396.631	20.3
396.884	17.84
397.137	18.09
397.391	18.09
397.644	15.97
397.897	17.23
398.15	17.64
398.403	19.6
398.657	19.26
398.91	16.9
399.163	18.22
399.416	17.75
399.669	16.48
399.922	16.11
400.175	15.15
400.428	15.48
400.681	17.3
400.934	16.76
401.187	18.94
401.44	20.83
401.693	19.16
401.946	17.52
402.199	15.06
402.452	13.97
402.704	10.9
402.957	11.73
403.21	13.21
403.463	12.7
403.716	13.86
403.969	15.56
404.221	16.14
404.474	17.18
404.727	19.76
404.98	22.16
405.232	22.83
405.485	23.23
405.738	24.52
405.99	25.39
406.243	26.66
406.496	27.45
406.748	29.11
407.001	27.09
407.253	27.29
407.506	27.7
407.759	28.86
408.011	26.47
408.264	26.38
408.516	24.7
408.769	20.65
409.021	18.05
409.274	14.18
409.526	16.25
409.778	14.42
410.031	16.17
410.283	15.04
410.536	20.26
410.788	16.87
411.04	16.56
411.293	18.05
411.545	18.8
411.797	18.55
412.049	18.14
412.302	19.19
412.554	19.6
412.806	17.43
413.058	15.51
413.311	16.05
413.563	14.93
413.815	13.91
414.067	11.69
414.319	11.07
414.571	11.27
414.823	10.53
415.075	9.81
415.328	11.67
415.58	14.46
415.832	15.52
416.084	15.51
416.336	13.92
416.588	17.07
416.84	16.4
417.091	19.58
417.343	16.82
417.595	18.9
417.847	18.89
418.099	20.45
418.351	18.66
418.603	21.28
418.855	22.36
419.106	22.42
419.358	22.1
419.61	21.65
419.862	22.1
420.114	21.17
420.365	21.56
420.617	22.1
420.869	21.35
421.12	21.5
421.372	21.89
421.624	22.64
421.875	23.15
422.127	20.45
422.379	20.9
422.63	23.4
422.882	23.52
423.133	22.33
423.385	21.38
423.636	23.75
423.888	25
424.139	28.35
424.391	26.08
424.642	24.08
424.894	22.55
425.145	22.85
425.396	21.48
425.648	23.97
425.899	22
426.151	22.61
426.402	21.95
426.653	21.31
426.905	19.41
427.156	17.09
427.407	16.77
427.658	17.06
427.91	14.53
428.161	12.99
428.412	14.93
428.663	16.21
428.914	17.49
429.166	18.73
429.417	18.56
429.668	18.22
429.919	17.34
430.17	16.63
430.421	16.55
430.672	18.42
430.923	19.17
431.174	20
431.425	22.85
431.676	27.2
431.927	30.92
432.178	39.05
432.429	49.05
432.68	55.15
432.931	62.95
433.182	69.02
433.433	68.32
433.683	72.17
433.934	71.62
434.185	71.94
434.436	71.55
434.687	73.43
434.937	76.08
435.188	74.69
435.439	73.65
435.69	74.92
435.94	74.27
436.191	73.8
436.442	73.22
436.692	71.61
436.943	69.42
437.194	67.87
437.444	69.71
437.695	72.51
437.945	72.97
438.196	70.9
438.447	68.8
438.697	68.02
438.948	65.7
439.198	59.48
439.449	52.32
439.699	46.08
439.949	38.58
440.2	29.42
440.45	23.45
440.701	17.04
440.951	13.05
441.201	12.24
441.452	9.25
441.702	8.14
441.952	9.49
442.203	9.45
442.453	7.76
442.703	8.14
442.953	9.35
443.204	10.18
443.454	9.36
443.704	11.67
443.954	9.15
444.204	9.76
444.455	10.03
444.705	11.24
444.955	12.28
445.205	10.21
445.455	8.6
445.705	8.69
445.955	9.83
446.205	11.13
446.455	11.01
446.705	10.56
446.955	12.21
447.205	12.09
447.455	13.62
447.705	12.45
447.955	11.95
448.205	12.55
448.454	12.98
448.704	12.68
448.954	10.28
449.204	11.04
449.454	11.76
449.704	9.36
449.953	8.23
450.203	9.25
450.453	6.53
450.703	6.82
450.952	5.76
451.202	7.05
451.452	4.73
451.701	7.39
451.951	10.27
452.201	10.06
452.45	8.72
452.7	10.4
452.949	9.83
453.199	9.54
453.448	10.84
453.698	12.34
453.947	11.06
454.197	10.96
454.446	10.38
454.696	12.25
454.945	12.01
455.195	10.43
455.444	10.35
455.693	13.33
455.943	12.09
456.192	12.46
456.442	12.29
456.691	12.09
456.94	10.64
457.189	10.01
457.439	11.18
457.688	13.53
457.937	13.16
458.186	13.63
458.436	14.63
458.685	15.63
458.934	14.09
459.183	14.69
459.432	16.37
459.681	17.04
459.93	15.77
460.179	15.54
460.429	13.57
460.678	16.12
460.927	18.54
461.176	16.53
461.425	15.72
461.674	18.44
461.923	17.63
462.172	18.61
462.42	16.17
462.669	18.74
462.918	17.16
463.167	18.5
463.416	15.47
463.665	16.89
463.914	16.93
464.162	14.89
464.411	16.83
464.66	18.35
464.909	17.64
465.158	18.05
465.406	16.47
465.655	17.78
465.904	19.34
466.152	19.93
466.401	20.2
466.65	21.19
466.898	20.31
467.147	17.35
467.395	15.81
467.644	17.78
467.893	18.7
468.141	18.7
468.39	16.12
468.638	14.35
468.887	14.23
469.135	14.1
469.384	12.8
469.632	13.5
469.88	13.07
470.129	15.29
470.377	12.19
470.626	15.51
470.874	15.66
471.122	17.2
471.371	15.03
471.619	13.22
471.867	15.98
472.115	16.4
472.364	14.71
472.612	17.45
472.86	17.12
473.108	18.83
473.356	18.53
473.605	17.53
473.853	14.91
474.101	14.03
474.349	13.86
474.597	16.34
474.845	15.9
475.093	15.01
475.341	13.91
475.589	12.31
475.837	11.98
476.085	13.66
476.333	14.29
476.581	15.22
476.829	14.44
477.077	15.73
477.325	17.23
477.573	18.8
477.821	17.2
478.069	19.83
478.317	19.51
478.564	21.55
478.812	19.64
479.06	19.58
479.308	19.68
479.555	19.7
479.803	17.97
480.051	21.31
480.299	20.36
480.546	20.65
480.794	19.59
481.042	21.31
481.289	22.41
481.537	24.74
481.784	25.81
482.032	28.01
482.28	28.78
482.527	29.32
482.775	31.56
483.022	33.05
483.27	37.84
483.517	43.52
483.765	44.3
484.012	44.56
484.259	44.32
484.507	46.76
484.754	48.53
485.002	49.56
485.249	50.38
485.496	53.7
485.744	53.41
485.991	53.9
486.238	53.25
486.486	56.55
486.733	57.61
486.98	59.96
487.227	59.29
487.474	61.82
487.722	63.83
487.969	64.59
488.216	64.72
488.463	65.38
488.71	63.74
488.957	63.01
489.204	62.37
489.451	62.17
489.699	62.63
489.946	59.19
490.193	58.6
490.44	56.84
490.687	57.96
490.934	54.21
491.18	49.7
491.427	50.16
491.674	51.33
491.921	51.24
492.168	51.42
492.415	48.62
492.662	47.86
492.909	48.07
493.155	46.78
493.402	44.7
493.649	41.61
493.896	42.24
494.142	40.3
494.389	39.03
494.636	38.11
494.883	36.04
495.129	34.65
495.376	30.66
495.623	30.66
495.869	31.71
496.116	32.19
496.362	31.68
496.609	33.12
496.855	36.45
497.102	35.5
497.348	33.25
497.595	33.1
497.841	35.32
498.088	33.7
498.334	31.35
498.581	30.63
498.827	30.21
499.074	29.23
499.32	29.86
499.566	32.47
499.813	30.51
500.059	28.71
500.305	28.81
500.552	27.08
500.798	25.29
501.044	26.84
501.29	26.57
501.537	23.11
501.783	22.74
502.029	25.2
502.275	24.08
502.521	23.05
502.767	22.71
503.013	25.03
503.26	22.25
503.506	19.24
503.752	19.86
503.998	17.47
504.244	16
504.49	12.28
504.736	13.24
504.982	13.07
505.228	15.54
505.474	16.07
505.72	16.9
505.966	15.61
506.211	18.18
506.457	18.06
506.703	16.15
506.949	13.82
507.195	11.29
507.441	8.09
507.686	11.05
507.932	9.85
508.178	11.09
508.424	9.31
508.669	9.11
508.915	10.81
509.161	12.71
509.406	13.94
509.652	13.33
509.898	13.97
510.143	14.46
510.389	13.48
510.634	10.48
510.88	13.27
511.125	15.19
511.371	13.97
511.616	15.53
511.862	14.61
512.107	13.79
512.353	14.7
512.598	15.34
512.844	13.33
513.089	11.49
513.335	11.24
513.58	12.46
513.825	11.91
514.071	11.72
514.316	11.83
514.561	12.44
514.806	12.03
515.052	15.06
515.297	12.48
515.542	14.33
515.787	14.77
516.033	16.73
516.278	17.43
516.523	16.15
516.768	15.64
517.013	13.47
517.258	13.82
517.503	13.13
517.748	13.43
517.993	14.01
518.238	14.26
518.483	12.95
518.728	12.7
518.973	11.38
519.218	10.88
519.463	12.77
519.708	11.48
519.953	9.7
520.198	9.03
520.443	10.28
520.688	10.35
520.933	10.99
521.177	11.3
521.422	9
521.667	10.62
521.912	11
522.157	7.81
522.401	10.05
522.646	8.85
522.891	10.32
523.135	9.97
523.38	10
523.625	8.92
523.869	9.36
524.114	10.64
524.358	9.47
524.603	9.02
524.848	6.88
525.092	5.83
525.337	7.7
525.581	8.13
525.826	9.53
526.07	9.25
526.315	9.84
526.559	9.96
526.803	10.88
527.048	11.76
527.292	12.25
527.537	12.89
527.781	13.06
528.025	12.09
528.269	13.67
528.514	13.75
528.758	12.19
529.002	13.17
529.247	16.95
529.491	17.17
529.735	23.48
529.979	22.5
530.223	25.05
530.467	23.99
530.712	22.51
530.956	22.95
531.2	25.2
531.444	24.68
531.688	27.08
531.932	28.47
532.176	31.53
532.42	32.93
532.664	36.19
532.908	36.55
533.152	37.56
533.396	39.38
533.64	41.95
533.884	44.48
534.128	47.4
534.371	51.8
534.615	57.56
534.859	62.87
535.103	67.88
535.347	73.84
535.59	81.77
535.834	87.93
536.078	97.89
536.322	111.04
536.565	126.35
536.809	137.66
537.053	157.49
537.296	175.71
537.54	201.43
537.784	230.85
538.027	266.32
538.271	302.96
538.514	339.9
538.758	376.93
539.001	413.04
539.245	447.8
539.488	483.37
539.732	516.77
539.975	550.29
540.219	583.59
540.462	613.32
540.706	643.24
540.949	672.07
541.192	700.5
541.436	732.67
541.679	767.85
541.922	805.59
542.166	842.51
542.409	889.46
542.652	936.34
542.895	983.71
543.139	1026.1
543.382	1067.01
543.625	1097.08
543.868	1122.77
544.111	1142.87
544.354	1158.49
544.598	1167.45
544.841	1171.55
545.084	1167.19
545.327	1158.17
545.57	1143.52
545.813	1126.06
546.056	1104.86
546.299	1083.11
546.542	1061.96
546.785	1040.7
547.028	1018.12
547.271	995.8
547.514	972.81
547.756	949.57
547.999	929.71
548.242	908.37
548.485	883.94
548.728	860.93
548.971	832.63
549.213	804.18
549.456	768.6
549.699	730.17
549.942	684.22
550.184	637.4
550.427	588.61
550.67	543.78
550.912	498.35
551.155	464.53
551.398	430.48
551.64	398.7
551.883	369.81
552.125	342.71
552.368	320.61
552.61	299.67
552.853	280.22
553.095	262.09
553.338	245.84
553.58	230.03
553.823	214.2
554.065	201.73
554.308	187.12
554.55	174.28
554.792	163.18
555.035	152.16
555.277	140.09
555.519	130.23
555.762	121.44
556.004	113.28
556.246	103.85
556.488	98.97
556.731	91.29
556.973	86.23
557.215	79.49
557.457	76.33
557.699	73.62
557.941	68.8
558.183	65.01
558.426	63.73
558.668	57.13
558.91	54.81
559.152	52.61
559.394	50.77
559.636	49.99
559.878	47.66
560.12	45.57
560.362	45.22
560.604	43.43
560.845	42.03
561.087	40.32
561.329	40.73
561.571	37.86
561.813	37.59
562.055	35.49
562.297	34.77
562.538	34.56
562.78	36.01
563.022	33.12
563.264	32.96
563.505	32.96
563.747	33.07
563.989	30.36
564.23	28.73
564.472	27.03
564.714	29.74
564.955	28.63
565.197	25.43
565.438	25.91
565.68	27.09
565.921	25.19
566.163	25.45
566.404	23.64
566.646	25.38
566.887	26.53
567.129	27.71
567.37	26.17
567.612	27.62
567.853	24.44
568.094	24.99
568.336	22.68
568.577	22.76
568.818	24.25
569.06	22.28
569.301	18.47
569.542	18.94
569.783	19.75
570.025	20.56
570.266	20.77
570.507	22.25
570.748	21.39
570.989	22.88
571.23	24.98
571.472	25.74
571.713	25.31
571.954	25.97
572.195	24.36
572.436	26.64
572.677	29.54
572.918	34.46
573.159	36.79
573.4	40.05
573.641	45.55
573.882	52.92
574.123	56.47
574.364	57.06
574.604	60.91
574.845	64.92
575.086	69.43
575.327	76.41
575.568	82.07
575.809	87.3
576.049	92.05
576.29	94.85
576.531	105.74
576.771	115.29
577.012	123.91
577.253	130.07
577.494	134.83
577.734	140.68
577.975	146.38
578.215	151.32
578.456	155.41
578.697	160.61
578.937	167.39
579.178	174.74
579.418	180.99
579.659	188.3
579.899	192.62
580.14	198.64
580.38	203.02
580.62	207.28
580.861	214
581.101	216.96
581.342	218.62
581.582	218.33
581.822	224.64
582.063	227.92
582.303	232.92
582.543	235.15
582.783	237.89
583.024	241.61
583.264	248.66
583.504	252.04
583.744	257.81
583.984	260.64
584.224	265.62
584.465	267.78
584.705	270.04
584.945	274.36
585.185	276.26
585.425	279.04
585.665	281.13
585.905	281.37
586.145	281.08
586.385	278.72
586.625	278.32
586.865	275.31
587.105	271.9
587.345	269.04
587.585	265.15
587.824	260.77
588.064	257.37
588.304	252.63
588.544	249.6
588.784	247.21
589.024	247.25
589.263	246.56
589.503	245.28
589.743	247.1
589.982	248.52
590.222	250.1
590.462	248.46
590.701	244.41
590.941	243.25
591.181	238.85
591.42	232.4
591.66	228.7
591.899	226
592.139	221.4
592.378	217
592.618	210.61
592.857	206.6
593.097	203.21
593.336	200.6
593.576	198.05
593.815	197.07
594.055	194.41
594.294	193.05
594.533	192.88
594.773	190.8
595.012	191.32
595.251	191.35
595.491	192.91
595.73	193.23
595.969	193.77
596.208	193.42
596.447	197.13
596.687	194.69
596.926	193.16
597.165	188.28
597.404	186.13
597.643	181.35
597.882	175.26
598.121	172.46
598.36	168.92
598.599	166.43
598.838	163.52
599.077	157.6
599.316	154.52
599.555	151.98
599.794	151.1
600.033	152.4
600.272	151.02
600.511	147.78
600.75	148.1
600.989	146.72
601.228	145.39
601.466	144.32
601.705	144.27
601.944	143.05
602.183	143.91
602.422	142.08
602.66	138.96
602.899	136.48
603.138	134.87
603.376	132.2
603.615	129.66
603.854	125.13
604.092	124.01
604.331	123.74
604.569	122.61
604.808	121.41
605.047	122.35
605.285	125.1
605.524	128.03
605.762	132.05
606	139.69
606.239	149.94
606.477	163.69
606.716	177.07
606.954	202.8
607.193	235.97
607.431	281.42
607.669	340.43
607.908	410.26
608.146	485.7
608.384	563.06
608.622	634.75
608.861	701.44
609.099	761.88
609.337	815.88
609.575	864.75
609.813	910.3
610.052	948.62
610.29	978.19
610.528	1006.3
610.766	1032.13
611.004	1055.86
611.242	1076.77
611.48	1096.47
611.718	1111.91
611.956	1127.25
612.194	1139.25
612.432	1151.92
612.67	1161.2
612.908	1168.96
613.146	1172.03
613.384	1173.5
613.621	1170.65
613.859	1164.35
614.097	1153.59
614.335	1133.59
614.573	1102.08
614.811	1060.12
615.048	1004.22
615.286	939.69
615.524	867.59
615.761	792.66
615.999	723.07
616.237	659.76
616.474	603.08
616.712	551.99
616.95	505.24
617.187	462.69
617.425	429.12
617.662	400.51
617.9	373.42
618.137	347.76
618.375	326.25
618.612	305.41
618.85	288.24
619.087	274.54
619.325	261.88
619.562	249.29
619.799	237.13
620.037	227.31
620.274	219.23
620.511	216.3
620.749	209.41
620.986	205.58
621.223	202.57
621.461	202.41
621.698	202.61
621.935	203.15
622.172	201.52
622.409	203.57
622.647	204.04
622.884	203.41
623.121	205.61
623.358	206.01
623.595	207.05
623.832	208.29
624.069	208.34
624.306	209.17
624.543	211.85
624.78	212.99
625.017	212.13
625.254	213.13
625.491	216.01
625.728	216.51
625.965	215.81
626.202	215.53
626.438	214.21
626.675	211.16
626.912	213.57
627.149	216.15
627.386	219.77
627.622	221.69
627.859	222.67
628.096	225.67
628.333	228.71
628.569	230.59
628.806	231.82
629.043	231.06
629.279	230.32
629.516	230.07
629.752	223.95
629.989	221.17
630.225	216.62
630.462	211.89
630.699	208.61
630.935	203.24
631.171	196.7
631.408	191.33
631.644	186
631.881	177.81
632.117	170.75
632.354	168.36
632.59	164.14
632.826	158.82
633.063	153.31
633.299	149.16
633.535	141.97
633.771	136.82
634.008	135.35
634.244	128.68
634.48	118.81
634.716	111.53
634.953	102.81
635.189	94.06
635.425	87.25
635.661	80.68
635.897	72.62
636.133	65.51
636.369	58.84
636.605	51.16
636.841	46.64
637.077	44.88
637.313	41.83
637.549	41
637.785	39.9
638.021	39.29
638.257	38.04
638.493	39.42
638.729	37.79
638.965	39.36
639.2	40.75
639.436	39.51
639.672	38.95
639.908	36.31
640.144	38.33
640.379	40.68
640.615	39.74
640.851	41.53
641.086	41.54
641.322	39.03
641.558	39.38
641.793	41
642.029	39.76
642.264	38.88
642.5	40.06
642.736	35.88
642.971	35.92
643.207	33.44
643.442	31.29
643.678	31.53
643.913	33.52
644.148	33.95
644.384	34.91
644.619	34.2
644.855	34.51
645.09	35.01
645.325	34.71
645.561	34.64
645.796	32.44
646.031	35.23
646.266	34.38
646.502	33.64
646.737	36.75
646.972	38.36
647.207	41
647.442	39.47
647.678	38.78
647.913	41.83
648.148	44.02
648.383	44.64
648.618	47.16
648.853	48.84
649.088	51.34
649.323	53.9
649.558	55.8
649.793	56.12
650.028	58.23
650.263	56.59
650.498	60.34
650.733	61.84
650.968	61.72
651.202	63.48
651.437	61.27
651.672	60.15
651.907	60.84
652.142	62.51
652.376	62.55
652.611	62.57
652.846	62.7
653.081	62.71
653.315	61.94
653.55	60.83
653.785	60.46
654.019	60.54
654.254	56.87
654.488	55.39
654.723	51.97
654.958	49.35
655.192	47.58
655.427	43.95
655.661	43.17
655.896	42.83
656.13	43.5
656.364	39.64
656.599	37.21
656.833	38.73
657.068	39.3
657.302	39.01
657.536	36.39
657.771	36.83
658.005	36.56
658.239	36.91
658.474	34.63
658.708	35.77
658.942	35.57
659.176	36.41
659.41	33.5
659.645	34.38
659.879	34.5
660.113	34.07
660.347	33.56
660.581	32.04
660.815	31.05
661.049	29.9
661.283	27.23
661.517	26.93
661.751	27.08
661.985	27.92
662.219	29.81
662.453	27.4
662.687	28.32
662.921	25.82
663.155	25.01
663.389	19.17
663.622	18.23
663.856	18.24
664.09	15.65
664.324	15.37
664.558	16.26
664.791	15.56
665.025	13.84
665.259	13.39
665.492	12.18
665.726	13.83
665.96	13.84
666.193	11.66
666.427	10.7
666.661	10.69
666.894	7.78
667.128	8
667.361	9.08
667.595	9.31
667.828	9.8
668.062	10.28
668.295	11.15
668.529	11.26
668.762	11.38
668.995	9.94
669.229	11.35
669.462	10.58
669.695	12.01
669.929	10.53
670.162	10.65
670.395	9.37
670.629	10.95
670.862	13.25
671.095	11.93
671.328	12.38
671.561	9.45
671.795	8.77
672.028	10.29
672.261	11.41
672.494	12.29
672.727	11.04
672.96	11.15
673.193	10.71
673.426	15.11
673.659	15.22
673.892	14.82
674.125	14.84
674.358	13.4
674.591	11.98
674.824	11.08
675.057	9.36
675.29	8.26
675.523	8.71
675.755	7.21
675.988	7.22
676.221	9.55
676.454	7.39
676.687	7.34
676.919	7.28
677.152	7.28
677.385	7.82
677.617	9.54
677.85	11.48
678.083	9.77
678.315	10.12
678.548	8.97
678.78	9.8
679.013	9.14
679.246	10.55
679.478	10.86
679.711	9.77
679.943	11.05
680.175	8.46
680.408	10.3
680.64	5.96
680.873	6.5
681.105	6.93
681.338	9.54
681.57	8.76
681.802	10.5
682.034	10.4
682.267	13.08
682.499	14
682.731	11.68
682.964	12.46
683.196	11.21
683.428	9.93
683.66	10.28
683.892	14.25
684.124	16.56
684.356	19.17
684.589	20.74
684.821	19.47
685.053	19.13
685.285	21.68
685.517	24.82
685.749	25.64
685.981	26.99
686.213	27.93
686.445	28.23
686.676	26.3
686.908	27.54
687.14	27.77
687.372	28.74
687.604	26.47
687.836	28.96
688.068	28.42
688.299	29.39
688.531	27.49
688.763	31.04
688.995	28.62
689.226	30.96
689.458	29.81
689.69	30.06
689.921	29.89
690.153	30.17
690.384	32.58
690.616	32.01
690.848	33.9
691.079	30.13
691.311	27.06
691.542	24.48
691.774	22.44
692.005	23.52
692.237	25.84
692.468	22.81
692.699	20.72
692.931	20.45
693.162	17.08
693.393	15.37
693.625	14.22
693.856	14.62
694.087	13.22
694.319	12.55
694.55	12.03
694.781	11.31
695.012	9.63
695.243	7.38
695.475	5.67
695.706	5.57
695.937	4.08
696.168	3.9
696.399	1.09
696.63	0.42
696.861	-1.06
697.092	2.55
697.323	4.08
697.554	3.64
697.785	3.27
698.016	3.58
698.247	1.96
698.478	2.6
698.709	4.5
698.94	5.85
699.171	4.87
699.401	-0.05
699.632	1.78
699.863	-0.21
700.094	0.19
700.325	3.77
700.555	4.39
700.786	5.61
701.017	5.41
701.247	5.45
701.478	7.43
701.709	9.16
701.939	8.94
702.17	12.78
702.401	15.97
702.631	18.64
702.862	18.49
703.092	17.93
703.323	21.98
703.553	26.71
703.784	29.95
704.014	32.5
704.244	31.18
704.475	33.81
704.705	35.74
704.936	38.12
705.166	38.3
705.396	41.69
705.627	45.34
705.857	47.42
706.087	49.1
706.317	50.84
706.548	53.42
706.778	54.1
707.008	56.88
707.238	57.22
707.468	55.54
707.698	56.75
707.928	55.8
708.158	56.43
708.389	57.13
708.619	56.64
708.849	56.2
709.079	58.79
709.309	57.7
709.539	57.24
709.768	57.03
709.998	58.79
710.228	58.99
710.458	57.12
710.688	52.68
710.918	50.63
711.148	49.01
711.378	47.71
711.607	43.02
711.837	41.51
712.067	39.97
712.297	37.86
712.526	36.83
712.756	34.58
712.986	29.17
713.215	26.79
713.445	24.19
713.674	22.15
713.904	20.89
714.134	20.36
714.363	17.58
714.593	16.14
714.822	14.08
715.052	12.87
715.281	12.16
715.511	10.48
715.74	8.78
715.969	6.87
716.199	5.06
716.428	2.99
716.657	1.39
716.887	0.13
717.116	-2.78
717.345	-2.78
717.575	-3.67
717.804	-3.55
718.033	-4.88
718.262	-6.29
718.492	-5.27
718.721	-3.79
718.95	-4.35
719.179	-6.68
719.408	-5.86
719.637	-8.53
719.866	-10.51
720.095	-7.87
720.324	-9.95
720.553	-12.89
720.782	-13.31
721.011	-13.88
721.24	-14.85
721.469	-12.89
721.698	-13.06
721.927	-12.67
722.156	-13.57
722.385	-14.57
722.613	-10.68
722.842	-9.57
723.071	-7.15
723.3	-7.07
723.529	-7.89
723.757	-7.41
723.986	-8.72
724.215	-9.1
724.443	-8.97
724.672	-6.89
724.901	-5.92
725.129	-4.68
725.358	-0.76
725.586	-3.47
725.815	-4.92
726.043	-5.17
726.272	-4.74
726.5	-4.44
726.729	-4.07
726.957	-6.39
727.186	-8.59
727.414	-7.66
727.642	-5.45
727.871	-5.02
728.099	-5.18
728.327	-5.03
728.556	-5.36
728.784	-3.65
729.012	-4.77
729.241	-2.16
729.469	-1.42
729.697	-5.2
729.925	-5.78
730.153	-6.21
730.381	-6
730.61	-4.83
730.838	-7.25
731.066	-6.3
731.294	-5.58
731.522	-7.53
731.75	-10.87
731.978	-11.6
732.206	-12.86
732.434	-15.71
732.662	-14.81
732.89	-16.27
733.118	-17.59
733.346	-17.86
733.573	-18.82
733.801	-18.56
734.029	-13.09
734.257	-10.64
734.485	-7.16
734.712	-5.22
734.94	-6.72
735.168	-4.19
735.396	-4.94
735.623	-4.77
735.851	-3.75
736.078	-1.6
736.306	-2.07
736.534	-3.29
736.761	-1.87
736.989	-2.64
737.216	-4.49
737.444	-5.2
737.671	-5.14
737.899	-1.3
738.126	-1.94
738.354	-2.21
738.581	-1.29
738.809	-0.13
739.036	-0.99
739.263	0.11
739.491	-0.63
739.718	-1.14
739.945	4.18
740.173	5.96
740.4	4.86
740.627	4.33
740.854	4.41
741.081	2.41
741.309	0.54
741.536	-2.65
741.763	-3.64
741.99	-2
742.217	-3.39
742.444	-3.75
742.671	-2.61
742.898	-3.37
743.125	-5.34
743.352	-7.07
743.579	-6.84
743.806	-8.21
744.033	-6.74
744.26	-5.8
744.487	-5.95
744.714	-5.64
744.941	-6.47
745.167	-5.2
745.394	-5.52
745.621	-4.98
745.848	-5.62
746.075	-3.03
746.301	-1.95
746.528	1.34
746.755	0.81
746.981	-1.47
747.208	1.01
747.435	4.15
747.661	5.03
747.888	6.3
748.114	4.73
748.341	6.07
748.567	6.96
748.794	4.64
749.02	4.43
749.247	2.97
749.473	3.4
749.7	1.74
749.926	1.65
750.152	3.76
750.379	4
750.605	4.47
750.831	5.18
751.058	3.85
751.284	3.01
751.51	5.11
751.737	5.49
751.963	4.27
752.189	5.13
752.415	5.06
752.641	4.15
752.867	3.95
753.094	1.25
753.32	0.28
753.546	-0.57
753.772	1.14
753.998	1.24
754.224	-0.87
754.45	-1.65
754.676	-2.12
754.902	-3.97
755.128	-2.94
755.354	-2.91
755.579	-2.78
755.805	-1.3
756.031	-3.15
756.257	-3.72
756.483	-4.23
756.709	-5.1
756.934	-6.23
757.16	-7.62
757.386	-7.33
757.612	-8.9
757.837	-9.79
758.063	-8.54
758.289	-7.39
758.514	-9.79
758.74	-12.33
758.965	-14.67
759.191	-13.46
759.416	-12.24
759.642	-11.57
759.868	-10.52
760.093	-7.42
760.318	-8.59
760.544	-9.13
760.769	-9.87
760.995	-10.21
761.22	-9.56
761.445	-7.38
761.671	-5.2
761.896	-2.15
762.121	-3.23
762.347	-3.81
762.572	-4.93
762.797	-5.27
763.022	-4.6
763.248	-1.41
763.473	0.34
763.698	-0.03
763.923	0.45
764.148	0.84
764.373	0.14
764.598	3.29
764.823	3.56
765.048	1.59
765.273	-0.07
765.498	0.15
765.723	0.67
765.948	2.62
766.173	-0.09
766.398	0.71
766.623	-1.25
766.848	-1.39
767.073	-3.9
767.298	-2.68
767.522	-3.91
767.747	-2.03
767.972	-2.98
768.197	-3.4
768.421	-6.42
768.646	-9.95
768.871	-11.9
769.095	-10.16
769.32	-9.42
769.545	-9.51
769.769	-8.35
769.994	-6.96
770.218	-8.27
770.443	-7.84
770.667	-6.41
770.892	-6.13
771.116	-7.63
771.341	-5.28
771.565	-7.46
771.79	-6.34
772.014	-5.8
772.238	-4.84
772.463	-3.11
772.687	-2.16
772.911	-2.38
773.136	-2.63
773.36	-2.8
773.584	-1.31
773.808	-3.51
774.033	-2.42
774.257	-3.47
774.481	-4.03
774.705	-5.74
774.929	-5.23
775.153	-5.34
775.377	-3.33
775.602	-3.6
775.826	-2.81
776.05	-2.19
776.274	-2.6
776.498	-2.28
776.722	-3.53
776.945	-2.71
777.169	-2.73
777.393	-4.95
777.617	-5.18
777.841	-3.42
778.065	-1.78
778.289	-3.63
778.512	-3.2
778.736	-2.91
778.96	-2.87
779.184	-2.59
779.407	-3
779.631	-3.66
779.855	-5.25
780.078	-4.19
780.302	-5.55
780.526	-7.03
780.749	-6.34
780.973	-6.32
781.196	-5.44
781.42	-4.89
781.643	-4.93
781.867	-4.63
782.09	-6.74
782.314	-7.33
782.537	-6.6
782.76	-7.56
782.984	-6.83
783.207	-7.88
783.431	-8.37
783.654	-7.51
783.877	-9.94
784.1	-9.79
784.324	-9.66
784.547	-11.83
784.77	-16.05
784.993	-17.59
785.216	-17.77
785.44	-18.6
785.663	-19.09
785.886	-17.33
786.109	-18.4
786.332	-18.66
786.555	-17.23
786.778	-15.48
787.001	-15.62
787.224	-15.11
787.447	-14.05
787.67	-12.81
787.893	-12.96
788.116	-13.11
788.339	-13.22
788.561	-13.12
788.784	-15.86
789.007	-16.33
789.23	-16.65
789.453	-16.07
789.675	-17.41
789.898	-18.22
790.121	-19.24
790.344	-19.92
790.566	-19.51
790.789	-18.43
791.012	-19.99
791.234	-17.74
791.457	-13.45
791.679	-11.81
791.902	-10.37
792.124	-10.37
792.347	-10.48
792.569	-12.12
792.792	-14.88
793.014	-11.32
793.237	-10.65
793.459	-10.68
793.681	-10.94
793.904	-12.77
794.126	-13.14
794.348	-13.27
794.571	-12.93
794.793	-13.9
795.015	-13.03
795.237	-13.21
795.46	-12.26
795.682	-11.69
795.904	-9.43
796.126	-11.3
796.348	-12.01
796.57	-8.76
796.792	-11.07
797.014	-7.6
797.237	-5.3
797.459	-4.74
797.681	-3.99
797.903	-3.93
798.124	-4.05
798.346	3.99
798.568	4.89
798.79	6.62
799.012	7.81
799.234	8.88
799.456	11
799.678	13.57
799.899	10.7
800.121	7.66
800.343	7.6
800.565	8.63
800.786	10.37
801.008	11.92
801.23	11.12
801.451	10.76
801.673	9.74
801.895	8.78
802.116	10.1
802.338	10.98
802.559	11.44
802.781	10.65
803.002	11.6
803.224	12.87
803.445	11.32
803.667	13.8
803.888	11.64
804.109	12.22
804.331	11.15
804.552	10.95
804.773	12.03
804.995	10.52
805.216	-0.18
805.437	-1.07
805.658	-2.9
805.88	-4.93
806.101	-4.09
806.322	-4.55
806.543	-6.14
806.764	-7.08
806.985	-5.62
807.207	-5.15
807.428	-4.96
807.649	-8.11
807.87	-8.24
808.091	-6.49
808.312	-4.83
808.533	-0.33
808.754	1.08
808.975	-0.11
809.195	-0.18
809.416	0.72
809.637	-0.28
809.858	-0.33
810.079	-2.16
810.3	-2.39
810.52	-3.25
810.741	-3.62
810.962	-5.35
811.183	-6.13
811.403	-5.46
811.624	-4.95
811.845	-4.02
812.065	-2.36
812.286	-2.56
812.506	-3.43
812.727	-1.68
812.948	-1.75
813.168	-1.13
813.389	-1.77
813.609	-1.27
813.83	-1.64
814.05	-3.14
814.27	-3.41
814.491	-0.46
814.711	-1.49
814.931	-4.95
815.152	-5.23
815.372	-6.74
815.592	-7.75
815.813	-8.29
816.033	-8.46
816.253	-7.84
816.473	-8.29
816.694	-7.96
816.914	-5.4
817.134	-4.85
817.354	-6.44
817.574	-5.79
817.794	-6.06
818.014	-7.24
818.234	-8.01
818.454	-10.34
818.674	-12.81
818.894	-15.64
819.114	-13.99
819.334	-12.31
819.554	-11.35
819.774	-9.7
819.994	-10.25
820.214	-10.27
820.433	-9.85
820.653	-9.82
820.873	-8.16
821.093	-7.44
821.312	-8.01
821.532	-7.12
821.752	-3.81
821.972	-5.95
822.191	-4.82
822.411	-6.04
822.63	-5.1
822.85	-5.47
823.07	-7.49
823.289	-7.67
823.509	-7.93
823.728	-8.22
823.948	-8.52
824.167	-7.86
824.387	-9.4
824.606	-8.2
824.825	-8.12
825.045	-7.89
825.264	-8.27
825.483	-6.11
825.703	-4.07
825.922	-5.96
826.141	-6.99
826.361	-8.73
826.58	-12.2
826.799	-13.3
827.018	-13.8
827.237	-12.16
827.456	-11.21
827.676	-11.97
827.895	-13.71
828.114	-12.61
828.333	-13.06
828.552	-13.18
828.771	-11.19
828.99	-14.46
829.209	-13.84
829.428	-13.07
829.647	-13.65
829.866	-12.95
830.084	-11.81
830.303	-12.1
830.522	-12.15
830.741	-13.64
830.96	-14.05
831.179	-13.05
831.397	-14.93
831.616	-13.82
831.835	-14.32
832.053	-13.66
832.272	-13.72
832.491	-12.06
832.709	-12.07
832.928	-11.56
833.147	-10.33
833.365	-8.54
833.584	-6.42
833.802	-4.28
834.021	-5.19
834.239	-4.24
834.458	-4.69
834.676	-6.57
834.894	-8.44
835.113	-9.26
835.331	-10.17
835.55	-11.81
835.768	-10.4
835.986	-9.77
836.204	-10.72
836.423	-10.52
836.641	-11.24
836.859	-11.97
837.077	-11.16
837.296	-11.92
837.514	-12.77
837.732	-13.24
837.95	-14.1
838.168	-12.46
838.386	-13.35
838.604	-9.82
838.822	-8.93
839.04	-10.05
839.258	-10.86
839.476	-10.07
839.694	-10.17
839.912	-11.6
840.13	-12.17
840.348	-10.83
840.566	-13.11
840.783	-11.77
841.001	-12.62
841.219	-11.54
841.437	-9.95
841.655	-8.8
841.872	-8.83
842.09	-8.75
842.308	-7.99
842.525	-8.75
842.743	-8.06
842.961	-8.85
843.178	-9.35
843.396	-6.3
843.613	-6.17
843.831	-5.57
844.048	-5.65
844.266	-4.27
844.483	-4.48
844.701	-4.14
844.918	-2.69
845.136	-2.2
845.353	-4.8
845.57	-4.44
845.788	-1.49
846.005	-2.79
846.222	-3.65
846.439	-1.99
846.657	-0.41
846.874	-0.27
847.091	-3.02
847.308	-1.84
847.526	-4.26
847.743	-4.95
847.96	-6.52
848.177	-4.75
848.394	-4.74
848.611	-5.18
848.828	-5.35
849.045	-4.59
849.262	-3.7
849.479	-4.75
849.696	-6.53
849.913	-7.36
850.13	-11.32
850.347	-8.81
850.564	-9.94
850.78	-10.61
850.997	-12.01
851.214	-10.81
851.431	-11.24
851.647	-13.54
851.864	-14.01
852.081	-13.28
852.298	-16.46
852.514	-18.9
852.731	-18.75
852.948	-16.12
853.164	-17.16
853.381	-18.11
853.597	-18.15
853.814	-19.01
854.03	-20.21
854.247	-18.97
854.463	-19
854.68	-18.78
854.896	-19.42
855.113	-18.49
855.329	-17.22
855.545	-15.51
855.762	-17.32
855.978	-20.33
856.194	-20.99
856.411	-16.14
856.627	-16.16
856.843	-14.14
857.059	-13.96
857.275	-15.7
857.492	-14.84
857.708	-11.58
857.924	-11.47
858.14	-9.31
858.356	-10.27
858.572	-10.47
858.788	-11.99
859.004	-9.93
859.22	-10.8
859.436	-10.62
859.652	-13.14
859.868	-14.47
860.084	-14.59
860.3	-14.88
860.516	-14.3
860.731	-13
860.947	-16.3
861.163	-15
861.379	-13.84
861.595	-13.26
861.81	-14.13
862.026	-14.15
862.242	-14.84
862.457	-14.59
862.673	-12.94
862.889	-13.29
863.104	-15.2
863.32	-13.8
863.535	-14.04
863.751	-17.15
863.966	-13
864.182	-12.7
864.397	-15.52
864.613	-16.92
864.828	-18.81
865.044	-17.42
865.259	-15.26
865.474	-15.15
865.69	-12.88
865.905	-12.8
866.12	-13.88
866.336	-13.38
866.551	-11.59
866.766	-11.57
866.981	-13.03
867.196	-12.7
867.412	-12.79
867.627	-9.58
867.842	-10.25
868.057	-11.38
868.272	-12.46
868.487	-12.8
868.702	-14.19
868.917	-14.23
869.132	-13.48
869.347	-12.52
869.562	-12.74
869.777	-12.31
869.992	-12.86
870.207	-12.55
870.422	-12.34
870.636	-14.58
870.851	-15.68
871.066	-16.36
871.281	-15.35
871.495	-14.75
871.71	-12.02
871.925	-13.53
872.14	-13.91
872.354	-16.66
872.569	-15.73
872.783	-13.22
872.998	-13.63
873.213	-14.86
873.427	-13.18
873.642	-11.22
873.856	-11.76
874.071	-12.6
874.285	-14.27
874.5	-15.04
874.714	-16.4
874.928	-16.56
875.143	-16.16
875.357	-16.27
875.571	-17.67
875.786	-17.66
876	-15.22
876.214	-13.41
876.429	-16.03
876.643	-17.16
876.857	-16.58
877.071	-14.91
877.285	-15.01
877.499	-15.6
877.714	-13.12
877.928	-12.09
878.142	-15.07
878.356	-17.63
878.57	-16.47
878.784	-15.53
878.998	-15.27
879.212	-13.26
879.426	-15.29
879.639	-12.17
879.853	-12.52
880.067	-12.89
880.281	-13.96
880.495	-12.76
880.709	-11.78
880.922	-11.58
881.136	-11.65
881.35	-9.62
881.564	-9.68
881.777	-11.09
881.991	-10.4
882.205	-7.81
882.418	-7.8
882.632	-10.45
882.845	-11
883.059	-9.37
883.273	-8.13
883.486	-9.13
883.7	-8.7
883.913	-10.22
884.126	-9.96
884.34	-11.33
884.553	-13.54
884.767	-9.36
884.98	-9.02
885.193	-10.96
885.407	-12.37
885.62	-11.97
885.833	-13.44
886.046	-11.73
886.26	-15.41
886.473	-16.34
886.686	-17.32
886.899	-16.57
887.112	-17.66
887.326	-18.51
887.539	-15.93
887.752	-13.36
887.965	-14.83
888.178	-13.57
888.391	-13.53
888.604	-14.67
888.817	-16.76
889.03	-15.33
889.243	-16.21
889.455	-17.93
889.668	-17.44
889.881	-15.93
890.094	-17.67
890.307	-18.78
890.52	-16.34
890.732	-14.62
890.945	-14.75
891.158	-13.88
891.37	-16.06
891.583	-15.44
891.796	-13.28
892.008	-14.24
892.221	-14.6
892.434	-17.35
892.646	-18.92
892.859	-18.91
893.071	-17.2
893.284	-15.41
893.496	-16.13
893.709	-15.76
893.921	-14.21
894.133	-16.25
894.346	-18.81
894.558	-18.45
894.771	-17.84
894.983	-15.93
895.195	-14.31
895.407	-13.31
895.62	-15.79
895.832	-14.64
896.044	-11.66
896.256	-12.09
896.468	-13.7
896.681	-10.96
896.893	-10.86
897.105	-10.88
897.317	-12.33
897.529	-12.11
897.741	-11.95
897.953	-9.4
898.165	-11.69
898.377	-12.67
898.589	-9.84
898.801	-10.66
899.013	-7.55
899.224	-5.73
899.436	-3.8
899.648	-3.65
899.86	-6.11
900.072	-2.57
900.283	-1.85
900.495	-2.02
900.707	-1.53
900.919	-2.11
901.13	-1.57
901.342	-3.3
901.554	-4.6
901.765	-4.13
901.977	-5.94
902.188	-6.5
902.4	-7.88
902.611	-10.03
902.823	-11.05
903.034	-12.25
903.246	-15.21
903.457	-15.64
903.669	-16.51
903.88	-17.23
904.091	-16.55
904.303	-15.64
904.514	-17.09
904.725	-15.22
904.936	-14.44
905.148	-15.58
905.359	-12.44
905.57	-12.29
905.781	-14.34
905.992	-15.16
906.204	-15.25
906.415	-13.87
906.626	-17.75
906.837	-15.84
907.048	-16.7
907.259	-16.63
907.47	-17.65
907.681	-17.85
907.892	-16.6
908.103	-16.97
908.314	-18.7
908.525	-16.63
908.735	-15.16
908.946	-15.17
909.157	-16.31
909.368	-13.61
909.579	-12.74
909.789	-12.37
910	-14.12
910.211	-12.87
910.421	-12.68
910.632	-12.74
910.843	-13.47
911.053	-11.08
911.264	-10.05
911.475	-11.08
911.685	-10.25
911.896	-10.82
912.106	-10.9
912.317	-11.33
912.527	-10.29
912.737	-9.93
912.948	-10.3
913.158	-8.82
913.369	-10.95
913.579	-8.35
913.789	-8.16
914	-5.1
914.21	-4.17
914.42	-3.91
914.63	-4.08
914.841	-4.18
915.051	-2.84
915.261	-2.94
915.471	-1.21
915.681	0.94
915.891	-0.75
916.101	-1.82
916.311	-0.97
916.521	1.45
916.731	2.13
916.941	4.76
917.151	4.77
917.361	6.41
917.571	3.64
917.781	2.38
917.991	0.55
918.201	0.79
918.411	-0.88
918.621	-1.68
918.83	-0.55
919.04	-0.72
919.25	-0.81
919.46	-0.03
919.669	-1.61
919.879	-2.36
920.089	-2.81
920.298	-3.71
920.508	-3.27
920.717	-3.16
920.927	-4.67
921.136	-3.85
921.346	-3.74
921.555	-6.33
921.765	-5.82
921.974	-7.62
922.184	-11.39
922.393	-11.12
922.603	-10.9
922.812	-9.61
923.021	-10.31
923.23	-12.7
923.44	-14.55
923.649	-14.88
923.858	-15.51
924.067	-15.97
924.277	-17.23
924.486	-16.03
924.695	-17.62
924.904	-16.41
925.113	-16.67
925.322	-15.37
925.531	-15.62
925.74	-16.79
925.949	-17.05
926.158	-16.32
926.367	-15.79
926.576	-17.14
926.785	-17.45
926.994	-19.21
927.203	-19.3
927.412	-21.01
927.621	-21.84
927.83	-20.35
928.038	-19.84
928.247	-21.15
928.456	-20.25
928.665	-18.05
928.873	-17.59
929.082	-15.61
929.291	-15.63
929.499	-14.91
929.708	-15.42
929.916	-14.04
930.125	-14.41
930.333	-15.86
930.542	-14.14
930.75	-11.45
930.959	-10.45
931.167	-9.61
931.376	-10.65
931.584	-9.11
931.793	-8.72
932.001	-8.62
932.209	-10.05
932.418	-11.68
932.626	-12.48
932.834	-12.88
933.042	-14.35
933.251	-14.09
933.459	-14.01
933.667	-14.68
933.875	-13.26
934.083	-13.09
934.291	-12.07
934.499	-10.87
934.707	-11.08
934.915	-11.62
935.123	-9.65
935.331	-9.95
935.539	-12.1
935.747	-13.07
935.955	-13.41
936.163	-12.78
936.371	-14.1
936.579	-13.53
936.787	-12.93
936.995	-13.55
937.202	-15.33
937.41	-15.11
937.618	-15.61
937.826	-15.85
938.033	-20.54
938.241	-23.36
938.449	-21.47
938.656	-18.8
938.864	-19.01
939.071	-18.09
939.279	-16.19
939.486	-14.77
939.694	-15.13
939.901	-16.06
940.109	-15.17
940.316	-15.3
940.524	-14.64
940.731	-15.77
940.939	-16.3
941.146	-15.9
941.353	-15.96
941.561	-15.98
941.768	-16.89
941.975	-15.82
942.182	-15.5
942.39	-16.31
942.597	-13.98
942.804	-14.26
943.011	-14.65
943.218	-14.59
943.425	-14.27
943.632	-13.18
943.839	-13.63
944.046	-14.58
944.253	-13.47
944.46	-11.5
944.667	-8.67
944.874	-10.33
945.081	-9.93
945.288	-8.94
945.495	-7.73
945.702	-8.44
945.909	-9.53
946.115	-8.07
946.322	-8.79
946.529	-10.5
946.736	-10.26
946.942	-8.47
947.149	-10.69
947.356	-11.25
947.562	-12.75
947.769	-12.51
947.976	-13.22
948.182	-12.94
948.389	-13.83
948.595	-14.24
948.802	-13.01
949.008	-14.84
949.215	-13.46
949.421	-13.19
949.628	-14.49
949.834	-15.45
950.04	-17.45
950.247	-15.38
950.453	-13.5
950.659	-15.02
950.865	-15.24
951.072	-18.06
951.278	-16.46
951.484	-16.76
951.69	-17.52
951.896	-19.46
952.103	-20.59
952.309	-20.46
952.515	-21.29
952.721	-18.81
952.927	-18.63
953.133	-20
953.339	-22.42
953.545	-21.66
953.751	-21.84
953.957	-19.5
954.163	-21.07
954.369	-21.92
954.574	-22.77
954.78	-23.09
954.986	-22.04
955.192	-21.01
955.398	-21.21
955.603	-23.31
955.809	-22.93
956.015	-21.75
956.22	-20.99
956.426	-19.6
956.632	-21.22
956.837	-21.85
957.043	-22.15
957.248	-20.12
957.454	-20.27
957.66	-22.04
957.865	-22.77
958.07	-22.71
958.276	-23.09
958.481	-24.75
958.687	-25.23
958.892	-25.87
959.097	-26.03
959.303	-25.11
959.508	-24.03
959.713	-23.64
959.919	-22.65
960.124	-22.27
960.329	-22.51
960.534	-19.93
960.739	-18.81
960.945	-16.54
961.15	-16.55
961.355	-17.99
961.56	-20.19
961.765	-20.19
961.97	-20.04
962.175	-18.48
962.38	-21.27
962.585	-20.54
962.79	-22.09
962.995	-23.4
963.2	-24.39
963.404	-23.96
963.609	-25.17
963.814	-26.22
964.019	-28.75
964.224	-30.99
964.428	-29.66
964.633	-28.88
964.838	-26.06
965.042	-25.32
965.247	-26.02
965.452	-27.01
965.656	-26.14
965.861	-25.74
966.066	-26.64
966.27	-26.22
966.475	-22.99
966.679	-25.4
966.884	-25.08
967.088	-26.86
967.292	-27.52
967.497	-25.24
967.701	-25.86
967.906	-25.12
968.11	-23.71
968.314	-20.75
968.518	-22.73
968.723	-20.02
968.927	-19.18
969.131	-18.14
969.335	-15.03
969.539	-15.25
969.744	-13.86
969.948	-13.26
970.152	-9.56
970.356	-8.02
970.56	-7
970.764	-8.65
970.968	-6
971.172	-5.63
971.376	-4.96
971.58	-4.18
971.784	-3.66
971.988	-5.38
972.192	-3.34
972.395	-3.32
972.599	-5.89
972.803	-8.46
973.007	-6.65
973.21	-6.87
973.414	-6.92
973.618	-6.91
973.822	-8.4
974.025	-7.58
974.229	-7.9
974.432	-11.14
974.636	-12.7
974.84	-11.45
975.043	-12.07
975.247	-13.41
975.45	-14.5
975.654	-14.94
975.857	-13.3
976.06	-13.31
976.264	-14.16
976.467	-14.53
976.671	-14.73
976.874	-13.17
977.077	-12.79
977.28	-13.71
977.484	-15.68
977.687	-17.52
977.89	-15.52
978.093	-15.94
978.297	-14.42
978.5	-16.85
978.703	-16.31
978.906	-14.21
979.109	-14.08
979.312	-13.58
979.515	-14.34
979.718	-14.9
979.921	-15.86
980.124	-16.15
980.327	-17.33
980.53	-16.91
980.733	-14.78
980.936	-12.95
981.138	-14.26
981.341	-13.32
981.544	-14.41
981.747	-13.91
981.949	-15.9
982.152	-14.98
982.355	-16.47
982.558	-13.81
982.76	-15.74
982.963	-16.08
983.165	-16.8
983.368	-16.71
983.571	-17.16
983.773	-15.08
983.976	-13.82
984.178	-14.16
984.381	-13.11
984.583	-16.24
984.785	-15.73
984.988	-13.99
985.19	-13.22
985.392	-14.67
985.595	-16.88
985.797	-16.3
985.999	-12.77
986.202	-10.91
986.404	-11.22
986.606	-8.53
986.808	-8.87
987.01	-6.43
987.212	-8.07
987.415	-7.6
987.617	-6.81
987.819	-5.69
988.021	-4.33
988.223	-4.48
988.425	-7.36
988.627	-6.61
988.829	-9.23
989.031	-7.49
989.232	-7.23
989.434	-6.94
989.636	-7.75
989.838	-8.5
990.04	-7.11
990.242	-7.98
990.443	-8.64
990.645	-7.9
990.847	-4.42
991.048	-4.24
991.25	-4.55
991.452	-4.74
991.653	-5.13
991.855	-4.91
992.057	-5.05
992.258	-6.52
992.46	-7.02
992.661	-5.68
992.863	-5.22
993.064	-4.54
993.265	-6.74
993.467	-7.52
993.668	-8.25
993.87	-9.14
994.071	-10.76
994.272	-10.69
994.473	-9.31
994.675	-6.34
994.876	-5.36
995.077	-4.27
995.278	-4.51
995.48	-4.87
995.681	-4.86
995.882	-4.11
996.083	-3.58
996.284	-7.66
996.485	-7.53
996.686	-9.15
996.887	-10.64
997.088	-14.35
997.289	-15.91
997.49	-17.2
997.691	-17.44
997.892	-17
998.092	-13.62
998.293	-14.55
998.494	-14.82
998.695	-15.94
998.896	-14.74
999.096	-15.86
999.297	-15.94
999.498	-17.29
999.698	-18.85
999.899	-18.34
1000.1	-19.25
1000.3	-17.61
1000.501	-18.19
1000.701	-19.81
1000.902	-21.02
1001.102	-21.13
1001.303	-21.38
1001.503	-23.09
1001.704	-21.29
1001.904	-21.49
1002.105	-20.8
1002.305	-21.9
1002.505	-22.54
1002.706	-22.92
1002.906	-22.64
1003.106	-22.7
1003.306	-20.26
1003.507	-18.53
1003.707	-18.6
1003.907	-17.06
1004.107	-15.43
1004.307	-16.85
1004.507	-15.24
1004.707	-14.96
1004.907	-15.17
1005.107	-16.66
1005.308	-16.23
1005.507	-18.23
1005.707	-16.21
1005.907	-14.96
1006.107	-14.34
1006.307	-14.18
1006.507	-15.63
1006.707	-15.31
1006.907	-12.86
1007.106	-13.09
1007.306	-13.38
1007.506	-12.12
1007.706	-11.84
1007.905	-14.78
1008.105	-15.24
1008.305	-15.62
1008.504	-14.79
1008.704	-9.39
1008.903	-8.45
1009.103	-6.91
1009.303	-8.76
1009.502	-8.07
1009.702	-9.5
1009.901	-9.13
1010.1	-11.06
1010.3	-10.99
1010.499	-12.4
1010.699	-13.43
1010.898	-13.86
1011.097	-13.75
1011.296	-12.57
1011.496	-13.36
1011.695	-12.34
1011.894	-14.15
1012.093	-12.19
1012.293	-12.12
1012.492	-11.05
1012.691	-10.02
1012.89	-11.16
1013.089	-14.65
1013.288	-13.28
1013.487	-13.7
1013.686	-14.13
1013.885	-13.92
1014.084	-12.05
1014.283	-12.03
1014.482	-13.1
1014.681	-12.44
1014.88	-15.82
1015.078	-14.06
1015.277	-15.64
1015.476	-13.96
1015.675	-14.77
1015.873	-11.92
1016.072	-13.45
1016.271	-12.06
1016.47	-14.31
1016.668	-12.9
1016.867	-13.75
1017.065	-15.02
1017.264	-15.33
1017.463	-15.88
1017.661	-15.56
1017.86	-14.98
1018.058	-13.53
1018.256	-15.39
1018.455	-17.01
1018.653	-16.34
1018.852	-17
1019.05	-17.95
1019.248	-18.38
1019.447	-19.31
1019.645	-19.54
1019.843	-21.71
1020.041	-21.37
1020.24	-21.75
1020.438	-19.15
1020.636	-18.32
1020.834	-20.76
1021.032	-20.7
1021.23	-21.9
1021.428	-20.33
1021.626	-19.21
1021.824	-18.96
1022.022	-21.7
1022.22	-19.72
1022.418	-19.75
1022.616	-19.42
1022.814	-20.09
1023.012	-19.92
1023.21	-18.44
1023.408	-18.47
1023.606	-19.61
1023.803	-16.7
1024.001	-16.97
1024.199	-18.96
1024.397	-19.32
1024.594	-18.73
1024.792	-21.45
1024.99	-20.35
1025.187	-20.77
1025.385	-16.46
1025.582	-16.58
1025.78	-18.21
1025.977	-16.97
1026.175	-16.97
1026.372	-17.02
1026.57	-18.65
1026.767	-17.78
1026.965	-15.89
1027.162	-14.83
1027.359	-16.8
1027.557	-17.02
1027.754	-18.56
1027.951	-20.21
1028.148	-18.51
1028.346	-20.24
1028.543	-22.56
1028.74	-24.16
1028.937	-25.2
1029.134	-24.62
1029.331	-25.31
1029.528	-24.09
1029.725	-24.4
1029.923	-27.91
1030.12	-25.32
1030.317	-24.6
1030.513	-21.18
1030.71	-19.2
1030.907	-16.14
1031.104	-16.2
1031.301	-15.09
1031.498	-16.42
1031.695	-15.67
1031.892	-13.62
1032.088	-13.87
1032.285	-15.31
1032.482	-15.82
1032.678	-17.31
1032.875	-18.7
1033.072	-19.09
1033.268	-19.26
1033.465	-17.83
1033.662	-19.49
1033.858	-19.84
1034.055	-18.88
1034.251	-17.44
1034.448	-17.83
1034.644	-16.6
1034.84	-13.49
1035.037	-11.55
1035.233	-12.87
1035.43	-11.65
1035.626	-11.64
1035.822	-11.98
1036.019	-11.14
1036.215	-14.34
1036.411	-13.69
1036.607	-16.39
1036.803	-19.78
1037	-21.56
1037.196	-22.97
1037.392	-22.91
1037.588	-24.83
1037.784	-24.9
1037.98	-25.74
1038.176	-24.88
1038.372	-24.67
1038.568	-23.25
1038.764	-21.79
1038.96	-20.08
1039.156	-21.16
1039.352	-22.68
1039.547	-22.04
1039.743	-21.32
1039.939	-19.12
1040.135	-19.76
1040.331	-21.05
1040.526	-18.81
1040.722	-19.54
1040.918	-21.13
1041.113	-23.93
1041.309	-23.82
1041.505	-24.07
1041.7	-25.43
1041.896	-24.81
1042.091	-25.86
1042.287	-25.59
1042.482	-25.84
1042.678	-25.94
1042.873	-24.34
1043.069	-24.39
1043.264	-23.69
1043.459	-23.44
1043.655	-22.04
1043.85	-23.42
1044.045	-22.6
1044.24	-23.93
1044.436	-22.37
1044.631	-23.44
1044.826	-24.91
1045.021	-26.95
1045.216	-26.01
