Data from FLMT021711__4__16-29-34-010.txt Node

Date: Tue Nov 05 16:29:34 CET 2024
User: Etudiants TP
Spectrometer: FLMT02171
Trigger mode: 0
Integration Time (sec): 1,000000E-1
Scans to average: 5
Electric dark correction enabled: true
Nonlinearity correction enabled: false
Boxcar width: 15
XAxis mode: Wavelengths
Number of Pixels in Spectrum: 3648
>>>>>Begin Spectral Data<<<<<
194,658	-46,36
194,923	-45,26
195,188	-38,21
195,453	-37,3
195,717	-32,65
195,982	-30,52
196,247	-29,59
196,512	-31,51
196,777	-30,78
197,042	-29,36
197,307	-28,4
197,572	-24,88
197,837	-24,84
198,101	-22,8
198,366	-21,24
198,631	-20,63
198,896	-15,34
199,161	-10,39
199,425	-4,49
199,69	2,81
199,955	3,57
200,22	2,92
200,484	2,52
200,749	1,08
201,014	2,2
201,278	1,68
201,543	3,29
201,807	2,26
202,072	3,14
202,337	2,89
202,601	3,04
202,866	2,66
203,13	4,16
203,395	1,35
203,659	1,92
203,924	0,46
204,189	0,05
204,453	1,87
204,717	4,2
204,982	4,69
205,246	4,98
205,511	5,49
205,775	4,85
206,04	9,11
206,304	10,23
206,568	12
206,833	12,56
207,097	13,2
207,361	14,97
207,626	17,19
207,89	17,71
208,154	17,35
208,419	19,5
208,683	19,74
208,947	22,91
209,211	22,28
209,476	23,63
209,74	24,34
210,004	25,9
210,268	25,6
210,532	27,69
210,796	27,54
211,061	27,4
211,325	27,95
211,589	27,68
211,853	28,51
212,117	28,98
212,381	29,02
212,645	30,18
212,909	30,26
213,173	28,82
213,437	29,21
213,701	29,09
213,965	29,15
214,229	25,24
214,493	24,18
214,757	23,73
215,021	23,92
215,285	27,07
215,549	28,96
215,813	26,71
216,077	25,92
216,34	26,73
216,604	24,43
216,868	24,32
217,132	24,41
217,396	23,81
217,659	22,32
217,923	19,14
218,187	17,18
218,451	18,76
218,714	16,42
218,978	18,23
219,242	20,19
219,505	19,93
219,769	19,21
220,033	18,5
220,296	19,56
220,56	20,27
220,824	17,48
221,087	17,44
221,351	18,24
221,614	18,58
221,878	19,22
222,142	18,17
222,405	18,91
222,669	20,47
222,932	16,42
223,196	14,61
223,459	11,74
223,722	10,44
223,986	10,21
224,249	9,94
224,513	10,28
224,776	11,33
225,04	11,5
225,303	10,94
225,566	10,39
225,83	12,94
226,093	14,57
226,356	12,88
226,62	11,08
226,883	12,71
227,146	11,35
227,409	11,93
227,673	10,81
227,936	9,95
228,199	10,06
228,462	9,43
228,725	8,4
228,989	7,07
229,252	8,02
229,515	11,31
229,778	11,06
230,041	10,83
230,304	9,83
230,567	10,02
230,83	7,74
231,093	11,16
231,356	12,19
231,619	16,38
231,882	14,75
232,145	15,78
232,408	14,19
232,671	13,15
232,934	12,44
233,197	11,51
233,46	10,66
233,723	12,18
233,986	10,45
234,249	9,65
234,512	12,64
234,775	15,77
235,037	15,43
235,3	16,33
235,563	15,11
235,826	15,45
236,089	18,84
236,351	18,45
236,614	19,3
236,877	20,73
237,14	23,86
237,402	23,14
237,665	18,98
237,928	18,1
238,19	17,17
238,453	17,92
238,716	16,94
238,978	17,51
239,241	15,19
239,503	15,9
239,766	12,45
240,029	13,06
240,291	14,09
240,554	14,56
240,816	15,09
241,079	15,08
241,341	14,83
241,604	13,49
241,866	11,98
242,129	12,15
242,391	13,88
242,653	11,9
242,916	10,57
243,178	9,51
243,441	10,11
243,703	10,09
243,965	8,94
244,228	8,17
244,49	8,6
244,752	8,24
245,015	8,1
245,277	8,47
245,539	7,78
245,801	8,85
246,064	8,49
246,326	9,08
246,588	9,68
246,85	12,28
247,112	12
247,374	14,84
247,637	16,32
247,899	16,33
248,161	16,64
248,423	14,41
248,685	15,04
248,947	13,97
249,209	13,97
249,471	14,95
249,733	16
249,995	14,05
250,257	13,93
250,519	11,95
250,781	14,68
251,043	13,81
251,305	14,84
251,567	15,68
251,829	14,65
252,091	14,54
252,353	13,12
252,615	13,73
252,876	12,72
253,138	11,39
253,4	8,43
253,662	9,57
253,924	9,79
254,185	11,01
254,447	10,64
254,709	10,21
254,971	9,68
255,232	11,12
255,494	8,9
255,756	7,98
256,017	7,07
256,279	7,61
256,541	6,79
256,802	6,17
257,064	7,64
257,326	6,68
257,587	7,02
257,849	7,72
258,11	10,82
258,372	11,17
258,633	11,87
258,895	11,2
259,156	10,51
259,418	9,09
259,679	6,4
259,941	4,98
260,202	6,67
260,464	7,64
260,725	6,23
260,987	5,41
261,248	5,5
261,509	6,25
261,771	4,4
262,032	6,25
262,293	6,26
262,555	5,97
262,816	4,97
263,077	3,17
263,338	0,79
263,6	1,17
263,861	0,1
264,122	0,15
264,383	1,15
264,645	3,93
264,906	4,38
265,167	5,69
265,428	6,05
265,689	6,09
265,95	4,98
266,211	5,5
266,473	4,87
266,734	3,34
266,995	0,38
267,256	0,48
267,517	3,47
267,778	5,37
268,039	6,96
268,3	6,08
268,561	5,06
268,822	7,55
269,083	5,28
269,344	4,8
269,604	4,28
269,865	4,4
270,126	1,77
270,387	1,85
270,648	2,83
270,909	3,28
271,17	2,46
271,43	2,1
271,691	0,59
271,952	-0,74
272,213	0,46
272,473	-1,07
272,734	-0,12
272,995	1,66
273,256	0,06
273,516	2,48
273,777	1,28
274,038	1,76
274,298	-0,37
274,559	0,1
274,82	3,48
275,08	6,13
275,341	7,05
275,601	4,96
275,862	2,99
276,122	2,78
276,383	3,31
276,643	3,14
276,904	0,98
277,164	4,43
277,425	3,64
277,685	7,62
277,946	8,39
278,206	10,25
278,467	11,29
278,727	10,66
278,987	10,26
279,248	9,67
279,508	10,31
279,768	11,59
280,029	14,69
280,289	12,58
280,549	11,82
280,81	11,52
281,07	9,14
281,33	10,27
281,59	8,5
281,851	9,92
282,111	10,6
282,371	10,68
282,631	10,99
282,891	10,56
283,151	9,03
283,412	7,26
283,672	6,02
283,932	5,8
284,192	6,93
284,452	5,76
284,712	6,6
284,972	6,33
285,232	4,23
285,492	6,39
285,752	4,35
286,012	10,03
286,272	9,78
286,532	7,22
286,792	6,82
287,052	8,07
287,312	10
287,571	10,02
287,831	10,88
288,091	7,59
288,351	7,91
288,611	11,17
288,871	9,52
289,13	10,44
289,39	8,84
289,65	9,33
289,91	8,82
290,17	10,2
290,429	11,38
290,689	10,13
290,949	7,29
291,208	9,39
291,468	11,9
291,728	13,98
291,987	16,68
292,247	15,46
292,506	17,66
292,766	18,69
293,026	18,98
293,285	20,43
293,545	22,09
293,804	22,22
294,064	18,09
294,323	16,75
294,583	17,1
294,842	17,42
295,102	17,72
295,361	16,81
295,621	17,15
295,88	18,11
296,139	17,64
296,399	19,31
296,658	15,18
296,917	15,3
297,177	12,5
297,436	12,85
297,695	12,44
297,955	13,14
298,214	12,33
298,473	13,75
298,732	14,27
298,992	16,15
299,251	14,64
299,51	12,47
299,769	13,8
300,028	14,06
300,287	14,83
300,547	13,55
300,806	11,8
301,065	13,18
301,324	13,88
301,583	11,43
301,842	8,15
302,101	6,56
302,36	6,4
302,619	7,82
302,878	9,51
303,137	7,36
303,396	9,79
303,655	11,17
303,914	7,74
304,173	9,55
304,432	8,74
304,691	10,01
304,95	8,92
305,208	13,07
305,467	13,79
305,726	13,5
305,985	14,85
306,244	14,94
306,503	14,26
306,761	14,31
307,02	12,42
307,279	13,15
307,537	14,42
307,796	12,12
308,055	9,97
308,314	10,54
308,572	9,75
308,831	11,69
309,09	11,91
309,348	13,5
309,607	13,02
309,865	15,92
310,124	16,15
310,382	18,74
310,641	18,36
310,9	14,79
311,158	16,3
311,417	15,4
311,675	15,16
311,933	16,21
312,192	16,08
312,45	16
312,709	17,06
312,967	16,07
313,226	15,12
313,484	13,97
313,742	12,26
314,001	9,84
314,259	8,74
314,517	10,23
314,776	11,72
315,034	13,29
315,292	12,71
315,55	10,77
315,809	9,17
316,067	8,94
316,325	7,71
316,583	9,17
316,841	7,2
317,1	6,04
317,358	2,52
317,616	2,29
317,874	1,25
318,132	1,35
318,39	0,38
318,648	-0,75
318,906	0,07
319,164	-0,8
319,422	-0,84
319,68	-2,38
319,938	-1,47
320,196	-1,3
320,454	-1,13
320,712	-1,78
320,97	-0,62
321,228	-2,23
321,486	-0,81
321,744	1,87
322,002	1,95
322,26	1,3
322,517	-0,54
322,775	-2,91
323,033	-3,5
323,291	-2,35
323,549	-0,37
323,806	1,6
324,064	1,35
324,322	3,59
324,58	1,65
324,837	3,29
325,095	2,34
325,353	3,46
325,61	5,36
325,868	6,64
326,126	8,34
326,383	7,25
326,641	7,18
326,898	8,81
327,156	8,38
327,413	7,84
327,671	7,88
327,928	8,08
328,186	9,16
328,443	7,74
328,701	11,07
328,958	11,93
329,216	13,3
329,473	10,99
329,731	11,08
329,988	11,89
330,245	14,35
330,503	15,04
330,76	15,4
331,017	16,98
331,275	15,27
331,532	15,82
331,789	14,1
332,047	14,34
332,304	10,62
332,561	11,35
332,818	10,75
333,076	11,93
333,333	14,26
333,59	13,42
333,847	12,78
334,104	11,82
334,361	12,9
334,618	11,94
334,876	11,63
335,133	12,21
335,39	10,74
335,647	12,51
335,904	9,75
336,161	7,36
336,418	8,68
336,675	4,17
336,932	6,09
337,189	5,36
337,446	7,11
337,703	4,85
337,96	2,97
338,216	2,51
338,473	1,15
338,73	1,75
338,987	0,58
339,244	2,97
339,501	0,38
339,757	0,8
340,014	2,63
340,271	4,4
340,528	5,54
340,785	6,94
341,041	7,65
341,298	4,19
341,555	4,85
341,811	3,71
342,068	1,86
342,325	1,31
342,581	4,17
342,838	4,42
343,094	3,99
343,351	4,08
343,608	1,31
343,864	4,43
344,121	5,22
344,377	5,17
344,634	5,03
344,89	2,23
345,147	2,96
345,403	2,26
345,66	2,59
345,916	3,71
346,172	1,94
346,429	1,87
346,685	1,43
346,942	1,58
347,198	-0,21
347,454	1,04
347,711	1,86
347,967	-1,91
348,223	-1,48
348,48	-1,76
348,736	0,97
348,992	-0,06
349,248	1,26
349,504	1,24
349,761	1,99
350,017	2,17
350,273	1,65
350,529	0,12
350,785	-0,44
351,041	-0,82
351,297	1,26
351,554	-0,2
351,81	-1,76
352,066	-2,06
352,322	-1,86
352,578	-0,4
352,834	0,71
353,09	-0,5
353,346	-0,03
353,602	-0,58
353,858	-0,97
354,114	-1,4
354,369	-0,99
354,625	0,79
354,881	-0,23
355,137	-0,61
355,393	-1,14
355,649	0,07
355,905	1,23
356,16	0,33
356,416	1,39
356,672	-2,94
356,928	-2,34
357,183	-2,45
357,439	-3,02
357,695	-4,88
357,951	-1,63
358,206	-1,9
358,462	-2,97
358,718	-3,48
358,973	-1,07
359,229	-1,69
359,484	-0,71
359,74	0,85
359,996	0,96
360,251	3,25
360,507	3,28
360,762	1,79
361,018	4,03
361,273	2,05
361,529	3,63
361,784	4,1
362,04	5,48
362,295	5,69
362,55	4,78
362,806	7,24
363,061	9,14
363,316	9,77
363,572	8,72
363,827	10
364,082	9,25
364,338	7,67
364,593	6,65
364,848	6,29
365,104	4,95
365,359	6,84
365,614	7,38
365,869	6,14
366,124	6,16
366,38	6,34
366,635	6,96
366,89	5,26
367,145	5,44
367,4	9,06
367,655	10,15
367,91	10,89
368,165	9,17
368,42	7,21
368,675	8,32
368,93	8,93
369,185	6,94
369,44	6,25
369,695	6,45
369,95	4,66
370,205	4,15
370,46	3,08
370,715	1,82
370,97	0,83
371,225	0,9
371,48	2,53
371,734	2,72
371,989	3,42
372,244	3,98
372,499	5,53
372,754	4,8
373,008	4,9
373,263	1,35
373,518	3,2
373,773	1,14
374,027	0,64
374,282	2,12
374,537	2,19
374,791	4,76
375,046	3,57
375,301	1,85
375,555	-1,4
375,81	-1,08
376,064	-0,97
376,319	1,56
376,573	1,53
376,828	-2,11
377,082	1,99
377,337	1,26
377,591	1,22
377,846	3,26
378,1	5,19
378,355	5,39
378,609	4,03
378,863	1,35
379,118	3,15
379,372	2,05
379,627	1,71
379,881	0,47
380,135	0,97
380,389	1,34
380,644	2,47
380,898	3,04
381,152	4,08
381,407	5,02
381,661	7,05
381,915	8,77
382,169	9,93
382,423	9,54
382,677	6,95
382,932	8,2
383,186	8,54
383,44	9,36
383,694	10,56
383,948	8,14
384,202	7,29
384,456	7,78
384,71	9,58
384,964	8,1
385,218	9,03
385,472	8,62
385,726	8,08
385,98	7,24
386,234	7,24
386,488	5,72
386,742	7,95
386,996	4,29
387,249	4,29
387,503	5,43
387,757	7,25
388,011	6,93
388,265	6,87
388,518	6,85
388,772	7,67
389,026	8,82
389,28	6,9
389,533	5,29
389,787	5,9
390,041	3,54
390,295	3,75
390,548	5,13
390,802	6,92
391,055	6,42
391,309	6,67
391,563	4,32
391,816	7,04
392,07	6,35
392,323	7,33
392,577	7,81
392,83	9,49
393,084	14,05
393,337	16,67
393,591	18,3
393,844	18,36
394,098	21,42
394,351	25,52
394,604	26,93
394,858	31,14
395,111	31,73
395,364	28,86
395,618	29,28
395,871	28,45
396,124	27,54
396,378	27,38
396,631	27,3
396,884	24,92
397,137	23,88
397,391	25,29
397,644	23,68
397,897	25,4
398,15	25,19
398,403	25,99
398,657	24,49
398,91	22,96
399,163	23,39
399,416	24,39
399,669	22,97
399,922	23,45
400,175	23,77
400,428	26,9
400,681	30,09
400,934	31,26
401,187	34,44
401,44	37,75
401,693	38,66
401,946	37,95
402,199	35,65
402,452	35,6
402,704	32,01
402,957	31,61
403,21	33,36
403,463	33,84
403,716	34,5
403,969	36,47
404,221	36,42
404,474	37,24
404,727	40,56
404,98	43,22
405,232	42,33
405,485	44,26
405,738	44,89
405,99	45,89
406,243	46,61
406,496	47,48
406,748	48,59
407,001	47,88
407,253	47,93
407,506	47,92
407,759	46,53
408,011	43,81
408,264	40,41
408,516	36,86
408,769	31,5
409,021	28,64
409,274	24,56
409,526	24,61
409,778	22,09
410,031	22,29
410,283	22,01
410,536	24,37
410,788	21,73
411,04	22,87
411,293	23,38
411,545	23,7
411,797	21,73
412,049	20,29
412,302	19,88
412,554	19,1
412,806	17,52
413,058	18,35
413,311	17,62
413,563	16,39
413,815	16,25
414,067	13,71
414,319	13,36
414,571	14,62
414,823	14,57
415,075	14,45
415,328	15,18
415,58	17,95
415,832	18,27
416,084	19,73
416,336	19,85
416,588	21,84
416,84	19,73
417,091	20,85
417,343	18,6
417,595	20,5
417,847	22,51
418,099	24,42
418,351	26,09
418,603	29,49
418,855	29,09
419,106	28,79
419,358	28,01
419,61	29,31
419,862	31,87
420,114	31,55
420,365	32,09
420,617	33,69
420,869	31,34
421,12	32,29
421,372	34,14
421,624	33,68
421,875	34,6
422,127	32,64
422,379	32,82
422,63	33,65
422,882	32,96
423,133	33,56
423,385	34,55
423,636	36,49
423,888	38,47
424,139	39,66
424,391	37,38
424,642	36,61
424,894	35,09
425,145	35,84
425,396	34,65
425,648	37,54
425,899	34,08
426,151	33,53
426,402	32,35
426,653	33,46
426,905	32,86
427,156	33,15
427,407	33,44
427,658	32,62
427,91	30,8
428,161	29,69
428,412	30,5
428,663	32,7
428,914	33,35
429,166	33,75
429,417	34,83
429,668	33,95
429,919	32,52
430,17	31,86
430,421	31,64
430,672	34,74
430,923	35,02
431,174	37,03
431,425	45,34
431,676	56,59
431,927	72,98
432,178	95,28
432,429	117,71
432,68	136,48
432,931	150,53
433,182	161,29
433,433	163,55
433,683	169,98
433,934	171,58
434,185	171,42
434,436	170,59
434,687	172,61
434,937	173,84
435,188	173,33
435,439	172,73
435,69	175,25
435,94	176,17
436,191	176,83
436,442	176,53
436,692	174,31
436,943	172,61
437,194	171,24
437,444	173,21
437,695	176,96
437,945	177,71
438,196	177,75
438,447	176,95
438,697	175,81
438,948	171,57
439,198	159,62
439,449	143,21
439,699	126,44
439,949	105,37
440,2	84,15
440,45	66,6
440,701	53,07
440,951	44,23
441,201	38,64
441,452	33,8
441,702	31,55
441,952	33,17
442,203	33,68
442,453	31,49
442,703	30,96
442,953	30,8
443,204	32,67
443,454	30,71
443,704	30,58
443,954	27,69
444,204	28,56
444,455	30,77
444,705	30,94
444,955	31,31
445,205	30,53
445,455	28,76
445,705	29,06
445,955	30,16
446,205	28,79
446,455	29,74
446,705	30,38
446,955	32,26
447,205	34,91
447,455	35,28
447,705	32,92
447,955	31,36
448,205	31,49
448,454	31,41
448,704	31,19
448,954	31,55
449,204	30,64
449,454	30,08
449,704	28,36
449,953	28,01
450,203	28,08
450,453	28,1
450,703	30,11
450,952	27,71
451,202	28,8
451,452	27,81
451,701	28,62
451,951	32,3
452,201	30,87
452,45	31,2
452,7	32,17
452,949	32,13
453,199	31,26
453,448	32,07
453,698	32,01
453,947	32,47
454,197	31,54
454,446	30,05
454,696	32,68
454,945	31,19
455,195	29,72
455,444	31,54
455,693	34,75
455,943	34,55
456,192	35,94
456,442	35,42
456,691	34,63
456,94	34,22
457,189	32,68
457,439	34,14
457,688	35,39
457,937	37,48
458,186	36,09
458,436	35,41
458,685	35,91
458,934	35,11
459,183	35,49
459,432	38,08
459,681	35,75
459,93	35,15
460,179	35,41
460,429	33,48
460,678	35,57
460,927	38,78
461,176	38,08
461,425	37,4
461,674	38,6
461,923	38,19
462,172	39,59
462,42	38,2
462,669	39,97
462,918	40,3
463,167	41,09
463,416	38,36
463,665	38,25
463,914	37,21
464,162	36,04
464,411	36,42
464,66	38,8
464,909	39,63
465,158	39,42
465,406	38,27
465,655	38,18
465,904	41,62
466,152	41,9
466,401	43,61
466,65	44,79
466,898	44,4
467,147	41,26
467,395	40,01
467,644	41,87
467,893	39,39
468,141	40,36
468,39	38,47
468,638	36,77
468,887	35,46
469,135	34,64
469,384	34,25
469,632	35,68
469,88	34,76
470,129	37,13
470,377	34,14
470,626	35,24
470,874	35,5
471,122	36,48
471,371	35,28
471,619	34,64
471,867	36,78
472,115	37,12
472,364	35,3
472,612	37,12
472,86	36,17
473,108	36,98
473,356	37,15
473,605	35,07
473,853	32,77
474,101	32,18
474,349	31,2
474,597	32,96
474,845	33,72
475,093	33,94
475,341	32,2
475,589	33,88
475,837	34,38
476,085	35,56
476,333	34,56
476,581	35,77
476,829	35,89
477,077	37,71
477,325	36,87
477,573	39,13
477,821	36,3
478,069	37,57
478,317	38,09
478,564	40,59
478,812	39,93
479,06	39,84
479,308	40,24
479,555	41,77
479,803	41,96
480,051	44,89
480,299	46,01
480,546	48,3
480,794	48,66
481,042	51,28
481,289	53,06
481,537	57,15
481,784	59,84
482,032	67,59
482,28	70,68
482,527	73,66
482,775	78,4
483,022	84,21
483,27	89,46
483,517	97,33
483,765	100,09
484,012	105,47
484,259	108,43
484,507	116,03
484,754	120,22
485,002	124,64
485,249	126,67
485,496	132,37
485,744	136,99
485,991	140,24
486,238	141,27
486,486	146,59
486,733	149,77
486,98	153,46
487,227	154,18
487,474	157,18
487,722	160,36
487,969	160,71
488,216	162,73
488,463	163,32
488,71	161,46
488,957	161,09
489,204	160,28
489,451	160,09
489,699	157,2
489,946	154,73
490,193	152,82
490,44	149,82
490,687	147,52
490,934	143,77
491,18	137,19
491,427	136,47
491,674	134,74
491,921	131,97
492,168	127,62
492,415	122,49
492,662	121,57
492,909	120,51
493,155	117,52
493,402	113,6
493,649	109,87
493,896	107,39
494,142	101,4
494,389	99,02
494,636	96,47
494,883	92,73
495,129	89,03
495,376	85,62
495,623	83,99
495,869	82,62
496,116	81,07
496,362	80,18
496,609	80,9
496,855	82,63
497,102	80,68
497,348	77,6
497,595	75,97
497,841	76,76
498,088	74,17
498,334	71,35
498,581	68,03
498,827	66,47
499,074	64,71
499,32	63,88
499,566	65,29
499,813	63,17
500,059	60,84
500,305	57,63
500,552	55,73
500,798	54,17
501,044	55,67
501,29	52,07
501,537	48,59
501,783	50
502,029	51,17
502,275	47,68
502,521	45,44
502,767	45,47
503,013	45,86
503,26	43,05
503,506	38,89
503,752	38,66
503,998	35,49
504,244	33,8
504,49	30,54
504,736	29,48
504,982	28,68
505,228	29,6
505,474	29,54
505,72	29,21
505,966	27,79
506,211	30,28
506,457	30,84
506,703	28,28
506,949	26,54
507,195	23,19
507,441	20,6
507,686	22,82
507,932	22,58
508,178	23,02
508,424	20,99
508,669	20,35
508,915	20,5
509,161	21,42
509,406	22,07
509,652	20,98
509,898	23,32
510,143	24,43
510,389	23,42
510,634	19,84
510,88	21,81
511,125	22,78
511,371	23,25
511,616	25,42
511,862	24,26
512,107	21,72
512,353	23,3
512,598	23,27
512,844	21,06
513,089	18,66
513,335	19,49
513,58	20,71
513,825	20,22
514,071	19
514,316	18,98
514,561	19,26
514,806	19,38
515,052	20,79
515,297	19,04
515,542	19,88
515,787	20,84
516,033	22,66
516,278	21,64
516,523	22,41
516,768	23,3
517,013	20,63
517,258	20,2
517,503	20,02
517,748	20,88
517,993	21,37
518,238	21,32
518,483	20,37
518,728	21,28
518,973	19,68
519,218	18,67
519,463	18,32
519,708	18,64
519,953	16,33
520,198	15,7
520,443	16,16
520,688	18,88
520,933	18,62
521,177	17,86
521,422	17,18
521,667	18,73
521,912	18,01
522,157	14,93
522,401	16,49
522,646	15,86
522,891	16,84
523,135	17,45
523,38	16,38
523,625	14,54
523,869	16,67
524,114	17,45
524,358	16,78
524,603	16,71
524,848	15
525,092	14,6
525,337	15,02
525,581	15,37
525,826	15,95
526,07	17,28
526,315	17,32
526,559	16,77
526,803	15,71
527,048	19,19
527,292	19,7
527,537	20,36
527,781	20,44
528,025	18,97
528,269	19,14
528,514	19,25
528,758	18,65
529,002	18,12
529,247	20,84
529,491	20,68
529,735	25,51
529,979	26,38
530,223	28,8
530,467	26,79
530,712	24,84
530,956	25,27
531,2	26,56
531,444	24,24
531,688	26,16
531,932	26,47
532,176	28,26
532,42	31,46
532,664	33,37
532,908	32,72
533,152	33,36
533,396	35,36
533,64	35,08
533,884	35
534,128	36,98
534,371	41,35
534,615	44,31
534,859	47,27
535,103	51,2
535,347	55,49
535,59	61,24
535,834	63,56
536,078	68,71
536,322	76,51
536,565	85,32
536,809	91,87
537,053	105,15
537,296	117,18
537,54	132,4
537,784	150,67
538,027	174,31
538,271	196,58
538,514	219,5
538,758	243,85
539,001	266,67
539,245	289,26
539,488	310,42
539,732	331,79
539,975	350,74
540,219	370,7
540,462	390,16
540,706	409,7
540,949	427
541,192	444,82
541,436	467,42
541,679	490,44
541,922	513,71
542,166	536,18
542,409	564,22
542,652	591,07
542,895	619,99
543,139	646,09
543,382	670,06
543,625	689,42
543,868	703,56
544,111	716,09
544,354	723,86
544,598	728,39
544,841	729,05
545,084	726,08
545,327	719,26
545,57	709,01
545,813	698,43
546,056	684,15
546,299	668,07
546,542	654,42
546,785	641,73
547,028	628,67
547,271	614,7
547,514	600,42
547,756	584,68
547,999	570,1
548,242	556,25
548,485	540,52
548,728	525,38
548,971	505,02
549,213	486,22
549,456	462,67
549,699	437,65
549,942	409,62
550,184	380,2
550,427	350,84
550,67	323,68
550,912	296,27
551,155	274,08
551,398	253,26
551,64	234,42
551,883	218,26
552,125	202
552,368	188,42
552,61	173,21
552,853	162,51
553,095	151,8
553,338	141,21
553,58	131,86
553,823	123,28
554,065	116,98
554,308	104,71
554,55	96,17
554,792	87,01
555,035	80,64
555,277	73,32
555,519	68,65
555,762	61,94
556,004	57,89
556,246	52,55
556,488	50,4
556,731	45,63
556,973	43,22
557,215	39,38
557,457	37,68
557,699	37,22
557,941	32,27
558,183	29,63
558,426	30,09
558,668	27,09
558,91	27,87
559,152	26,67
559,394	25,13
559,636	26,16
559,878	26,16
560,12	26,45
560,362	25,56
560,604	24,05
560,845	23,32
561,087	21,88
561,329	22,36
561,571	18,91
561,813	19,04
562,055	18,61
562,297	19,43
562,538	20,1
562,78	21,84
563,022	19,92
563,264	20,17
563,505	21,03
563,747	21,16
563,989	19,08
564,23	18,53
564,472	17
564,714	18,37
564,955	18,28
565,197	16,24
565,438	17,77
565,68	18,57
565,921	15,52
566,163	15,94
566,404	13,88
566,646	14,09
566,887	15,89
567,129	16,78
567,37	14,83
567,612	16
567,853	13,83
568,094	13,74
568,336	13,3
568,577	14,53
568,818	15,51
569,06	14,19
569,301	13,24
569,542	12,6
569,783	13,79
570,025	12,64
570,266	13,24
570,507	15,13
570,748	15,29
570,989	14,6
571,23	16,66
571,472	16,77
571,713	16,15
571,954	19,24
572,195	17,86
572,436	18,71
572,677	20,7
572,918	23,25
573,159	25,75
573,4	28,18
573,641	30,32
573,882	33,43
574,123	34,49
574,364	32,62
574,604	33,93
574,845	34,07
575,086	36,26
575,327	39,5
575,568	42,54
575,809	45,25
576,049	46,98
576,29	47,98
576,531	55,82
576,771	60,64
577,012	65,03
577,253	68,28
577,494	70,86
577,734	73,39
577,975	76,21
578,215	78,75
578,456	80,7
578,697	83,38
578,937	88,45
579,178	91,12
579,418	92,08
579,659	95,41
579,899	96,97
580,14	99,29
580,38	99,49
580,62	100,04
580,861	103,62
581,101	104,34
581,342	105,81
581,582	104,77
581,822	109,78
582,063	110,83
582,303	114,52
582,543	115,33
582,783	116,87
583,024	119,18
583,264	122,53
583,504	123,35
583,744	127,29
583,984	126,39
584,224	127,85
584,465	127,64
584,705	129,02
584,945	129,93
585,185	130,74
585,425	132,58
585,665	131,78
585,905	132,42
586,145	131,42
586,385	129,69
586,625	130,48
586,865	128,57
587,105	127,98
587,345	126,57
587,585	125,69
587,824	124,36
588,064	122,09
588,304	120,28
588,544	119,03
588,784	116,6
589,024	117,39
589,263	115,38
589,503	113,3
589,743	115,51
589,982	114,9
590,222	116,7
590,462	114,24
590,701	110,91
590,941	111,7
591,181	107,94
591,42	104,73
591,66	105,9
591,899	105,65
592,139	101,27
592,378	99,38
592,618	96,65
592,857	93,84
593,097	93,12
593,336	91,45
593,576	90,41
593,815	89,24
594,055	87,5
594,294	87,18
594,533	85,76
594,773	85,32
595,012	85,02
595,251	85,77
595,491	87,75
595,73	87,48
595,969	88,34
596,208	88,78
596,447	91,09
596,687	91,49
596,926	91,93
597,165	86,78
597,404	87,49
597,643	83,6
597,882	80,53
598,121	79,06
598,36	77,61
598,599	76,38
598,838	74,74
599,077	69,19
599,316	68,47
599,555	67,86
599,794	68,66
600,033	68,94
600,272	68,29
600,511	65,39
600,75	65,3
600,989	66,27
601,228	66,52
601,466	65,71
601,705	65,62
601,944	65,17
602,183	66,05
602,422	64,58
602,66	63,09
602,899	61,66
603,138	61,85
603,376	59,89
603,615	59,01
603,854	57,61
604,092	55,72
604,331	54,09
604,569	55,55
604,808	54,5
605,047	55,96
605,285	58,25
605,524	60,58
605,762	61,18
606	65,29
606,239	71,04
606,477	77,69
606,716	84
606,954	95,75
607,193	108,71
607,431	126,57
607,669	152,64
607,908	183,47
608,146	217,9
608,384	248,21
608,622	278,62
608,861	307,71
609,099	333,29
609,337	355,74
609,575	374,77
609,813	394,11
610,052	410,45
610,29	420,98
610,528	431,03
610,766	442,35
611,004	451,9
611,242	459,75
611,48	467,13
611,718	474,72
611,956	482,09
612,194	486,16
612,432	491,46
612,67	494,33
612,908	498,45
613,146	498,84
613,384	498,49
613,621	496,04
613,859	493,58
614,097	487,65
614,335	478,85
614,573	467,2
614,811	450,96
615,048	425,3
615,286	397,04
615,524	365,89
615,761	334,06
615,999	304,48
616,237	276,92
616,474	254,95
616,712	235,37
616,95	215,94
617,187	197,46
617,425	181,67
617,662	170,93
617,9	160,04
618,137	149,29
618,375	140,41
618,612	131,21
618,85	125,76
619,087	120,08
619,325	112,61
619,562	106,92
619,799	101
620,037	97,39
620,274	92,73
620,511	91,8
620,749	87,77
620,986	85,63
621,223	82,77
621,461	81,57
621,698	81,47
621,935	81,04
622,172	79,55
622,409	81,66
622,647	82,83
622,884	80,61
623,121	83,19
623,358	83,35
623,595	83,89
623,832	84,59
624,069	83,15
624,306	83,23
624,543	86,06
624,78	88,64
625,017	88,13
625,254	88,54
625,491	89,75
625,728	90,37
625,965	90,23
626,202	90,31
626,438	89,59
626,675	90,41
626,912	92,99
627,149	94,02
627,386	94,94
627,622	95,62
627,859	95,36
628,096	97,11
628,333	98,45
628,569	100,43
628,806	102,42
629,043	103,22
629,279	102,34
629,516	102,85
629,752	98,19
629,989	97,03
630,225	95,1
630,462	92,86
630,699	90,75
630,935	88,35
631,171	83,47
631,408	80,35
631,644	78,36
631,881	73,32
632,117	69,4
632,354	68,58
632,59	67,27
632,826	64,74
633,063	63,74
633,299	62,95
633,535	58,48
633,771	55,58
634,008	54,81
634,244	50,8
634,48	46,75
634,716	45,2
634,953	41,91
635,189	39,67
635,425	37,97
635,661	36,52
635,897	30,97
636,133	28,01
636,369	24,22
636,605	19,84
636,841	17,78
637,077	18,21
637,313	17,66
637,549	16,37
637,785	14,91
638,021	14,8
638,257	14,51
638,493	15,64
638,729	15,63
638,965	16,54
639,2	18,17
639,436	16,85
639,672	16,31
639,908	13,74
640,144	17,37
640,379	17,96
640,615	16,63
640,851	18,05
641,086	18,87
641,322	16,39
641,558	18,03
641,793	18,43
642,029	15,48
642,264	14,25
642,5	13,68
642,736	9,59
642,971	9,37
643,207	8,83
643,442	6,7
643,678	6,56
643,913	7,91
644,148	7,42
644,384	8,3
644,619	7,84
644,855	9,69
645,09	10,25
645,325	10,1
645,561	10,35
645,796	8,89
646,031	11,48
646,266	10,71
646,502	10,36
646,737	13,56
646,972	13,75
647,207	14,44
647,442	12,25
647,678	11,08
647,913	12,87
648,148	14,27
648,383	14,11
648,618	15,47
648,853	14,91
649,088	17,03
649,323	19
649,558	21,53
649,793	23,39
650,028	26,4
650,263	24,06
650,498	26,01
650,733	27,39
650,968	27
651,202	28,93
651,437	27,39
651,672	26,05
651,907	25,6
652,142	27,13
652,376	27,65
652,611	29,69
652,846	30,42
653,081	29,93
653,315	29,48
653,55	29,2
653,785	27,97
654,019	27,3
654,254	25,85
654,488	26,35
654,723	23,78
654,958	22,77
655,192	21,57
655,427	19,49
655,661	20,2
655,896	22,24
656,13	23,04
656,364	19,13
656,599	17,84
656,833	23,22
657,068	23,9
657,302	22,99
657,536	22,4
657,771	24,38
658,005	24,41
658,239	25,1
658,474	22,78
658,708	24,65
658,942	24,34
659,176	23,46
659,41	20,64
659,645	20,26
659,879	18,19
660,113	16,23
660,347	16,23
660,581	13,91
660,815	14,61
661,049	14,34
661,283	12,88
661,517	11,58
661,751	11,06
661,985	10,28
662,219	10,53
662,453	9,27
662,687	9,93
662,921	7,86
663,155	6,36
663,389	2,05
663,622	2,62
663,856	4,61
664,09	-2,68
664,324	-4,93
664,558	-4,25
664,791	-4,58
665,025	-5,81
665,259	-5,99
665,492	-7,24
665,726	-5,13
665,96	-6,68
666,193	-6,86
666,427	-6,45
666,661	-7,39
666,894	-7,96
667,128	-7,48
667,361	-6,32
667,595	-6,38
667,828	-6,09
668,062	-6,06
668,295	-5,78
668,529	-5,67
668,762	-4,53
668,995	-4,69
669,229	-2,17
669,462	-1,05
669,695	-0,28
669,929	-2,01
670,162	-1,08
670,395	-1,83
670,629	0,08
670,862	1,63
671,095	-1,45
671,328	-0,8
671,561	-1,77
671,795	-1,14
672,028	1,01
672,261	1,74
672,494	2,57
672,727	2,56
672,96	4,02
673,193	3,98
673,426	5,22
673,659	6,4
673,892	6,6
674,125	6,02
674,358	6,09
674,591	5,89
674,824	5,71
675,057	4,55
675,29	2,12
675,523	3,39
675,755	3,43
675,988	3,54
676,221	5,47
676,454	3,92
676,687	3,75
676,919	2,61
677,152	2,97
677,385	1,97
677,617	1,23
677,85	1,53
678,083	0,68
678,315	3,24
678,548	0,51
678,78	1,3
679,013	1,43
679,246	1,53
679,478	1,69
679,711	0,33
679,943	2,09
680,175	-1,28
680,408	1,67
680,64	0,11
680,873	0,49
681,105	2,64
681,338	5,62
681,57	4,34
681,802	4,88
682,034	4,86
682,267	7,88
682,499	9,39
682,731	7,95
682,964	7,24
683,196	6,36
683,428	5,71
683,66	5,96
683,892	7,9
684,124	10,62
684,356	13,13
684,589	12,85
684,821	12,51
685,053	12,89
685,285	13,73
685,517	15,39
685,749	17,89
685,981	18,21
686,213	17,84
686,445	18,19
686,676	17,32
686,908	17,63
687,14	16,31
687,372	18,26
687,604	14,96
687,836	16,08
688,068	15,63
688,299	14,5
688,531	12,36
688,763	16,02
688,995	14,42
689,226	16,89
689,458	15,46
689,69	15,63
689,921	15,36
690,153	15,9
690,384	18,33
690,616	17,46
690,848	17,02
691,079	15,26
691,311	13,97
691,542	12,16
691,774	12,12
692,005	13,74
692,237	16,28
692,468	14,95
692,699	13,02
692,931	14,01
693,162	13,7
693,393	12,42
693,625	11,11
693,856	10,57
694,087	11,26
694,319	12,81
694,55	11,17
694,781	11,11
695,012	10
695,243	9,07
695,475	9,68
695,706	9,13
695,937	7,94
696,168	8,11
696,399	6,53
696,63	5,78
696,861	5,2
697,092	8,63
697,323	10,35
697,554	9,76
697,785	9,37
698,016	11,27
698,247	10
698,478	11,35
698,709	10,95
698,94	13,04
699,171	12,25
699,401	9,41
699,632	11,49
699,863	10,14
700,094	8,86
700,325	10,01
700,555	10,89
700,786	11,81
701,017	11,3
701,247	11,78
701,478	11,26
701,709	11,96
701,939	12,03
702,17	14,3
702,401	15,46
702,631	15,38
702,862	14,71
703,092	13,09
703,323	15,02
703,553	17,03
703,784	18,23
704,014	19,27
704,244	16,63
704,475	16,82
704,705	18,14
704,936	19,38
705,166	18,9
705,396	21,38
705,627	21,59
705,857	23,86
706,087	25,21
706,317	24,89
706,548	24,47
706,778	24,05
707,008	25,58
707,238	25,92
707,468	24,57
707,698	22,84
707,928	23,17
708,158	23,77
708,389	23,15
708,619	22,26
708,849	21,88
709,079	23,22
709,309	21,91
709,539	20,74
709,768	20,71
709,998	23,8
710,228	23,25
710,458	22,54
710,688	19,99
710,918	20,71
711,148	19,82
711,378	18,14
711,607	16,39
711,837	15,56
712,067	14,59
712,297	14,06
712,526	12,81
712,756	12,68
712,986	9,32
713,215	5,9
713,445	5,78
713,674	6
713,904	3,89
714,134	5,66
714,363	5,81
714,593	5,75
714,822	7,38
715,052	4,59
715,281	4,7
715,511	3,38
715,74	2,14
715,969	0,25
716,199	-0,3
716,428	0,76
716,657	-0,54
716,887	0,48
717,116	-1,94
717,345	-1,04
717,575	-0,62
717,804	-1,14
718,033	-2,86
718,262	-2,83
718,492	-0,74
718,721	-1,18
718,95	-2,6
719,179	-3,18
719,408	-3,13
719,637	-6,7
719,866	-8,93
720,095	-7,24
720,324	-7,65
720,553	-9,75
720,782	-10,99
721,011	-8,9
721,24	-11,66
721,469	-12,78
721,698	-12,82
721,927	-13,7
722,156	-12,84
722,385	-13,59
722,613	-10,53
722,842	-9,06
723,071	-5,19
723,3	-4,75
723,529	-6,18
723,757	-4,93
723,986	-7,61
724,215	-9,32
724,443	-7,78
724,672	-6,75
724,901	-5,61
725,129	-4,58
725,358	-3,07
725,586	-5,13
725,815	-5,29
726,043	-5,52
726,272	-7,5
726,5	-7,46
726,729	-5,26
726,957	-6,85
727,186	-7,88
727,414	-6,51
727,642	-5,63
727,871	-3,52
728,099	-5,1
728,327	-4,28
728,556	-2,57
728,784	-3,31
729,012	-4,31
729,241	-2,77
729,469	-2,82
729,697	-6,22
729,925	-6,31
730,153	-8,15
730,381	-8,36
730,61	-8,3
730,838	-10,57
731,066	-9,45
731,294	-8,54
731,522	-11,01
731,75	-14,85
731,978	-16,03
732,206	-16,23
732,434	-17,57
732,662	-16,76
732,89	-17,23
733,118	-17,97
733,346	-17,66
733,573	-17,24
733,801	-16,94
734,029	-11,2
734,257	-10,8
734,485	-8,08
734,712	-5,82
734,94	-8,13
735,168	-5,5
735,396	-6,93
735,623	-8,73
735,851	-7,42
736,078	-5,84
736,306	-5,96
736,534	-6,25
736,761	-6,05
736,989	-7,53
737,216	-7
737,444	-7,26
737,671	-7,84
737,899	-3,41
738,126	-4,72
738,354	-4,96
738,581	-4,15
738,809	-3,2
739,036	-4,08
739,263	-4,08
739,491	-5,03
739,718	-4,87
739,945	-1,71
740,173	0,03
740,4	1,7
740,627	0,85
740,854	0,58
741,081	-1,9
741,309	-3,69
741,536	-5,93
741,763	-7,01
741,99	-4,31
742,217	-4,54
742,444	-3,83
742,671	-1,59
742,898	-1,39
743,125	-2,37
743,352	-3,41
743,579	-2,99
743,806	-1,95
744,033	0,68
744,26	0,41
744,487	-0,54
744,714	1,61
744,941	1,49
745,167	4,52
745,394	5,33
745,621	4,52
745,848	5,49
746,075	8,7
746,301	11,7
746,528	14,69
746,755	13,18
746,981	13,83
747,208	15,22
747,435	16,22
747,661	16,68
747,888	16,76
748,114	14,82
748,341	17,46
748,567	18,2
748,794	16,6
749,02	14,28
749,247	11,94
749,473	11,92
749,7	11,57
749,926	11,47
750,152	13,64
750,379	14
750,605	13,99
750,831	13,42
751,058	11,51
751,284	10,4
751,51	12,51
751,737	12,63
751,963	11,43
752,189	11,51
752,415	11,22
752,641	10,17
752,867	9,35
753,094	6,95
753,32	6,29
753,546	5,58
753,772	6,39
753,998	3,66
754,224	2,98
754,45	2,04
754,676	1,61
754,902	1,11
755,128	1,66
755,354	0,49
755,579	1,44
755,805	3,75
756,031	2,88
756,257	2,51
756,483	2,55
756,709	-0,03
756,934	-0,12
757,16	-1,22
757,386	-0,14
757,612	-2,26
757,837	-2,86
758,063	-0,64
758,289	1,6
758,514	0,76
758,74	-1,51
758,965	-4,07
759,191	-4,5
759,416	-3,89
759,642	-0,57
759,868	0,61
760,093	1,14
760,318	-1,77
760,544	-2,68
760,769	-1,7
760,995	-1,63
761,22	-1,65
761,445	-0,13
761,671	1,15
761,896	4,15
762,121	4,34
762,347	5,23
762,572	3,18
762,797	1,67
763,022	2,97
763,248	6,78
763,473	6,32
763,698	7,26
763,923	7,08
764,148	6,56
764,373	5,32
764,598	8,16
764,823	9,27
765,048	6,88
765,273	3,15
765,498	2,7
765,723	3,39
765,948	3,92
766,173	3,66
766,398	4,34
766,623	1,14
766,848	0,07
767,073	-0,03
767,298	0,27
767,522	0,79
767,747	1,32
767,972	0,62
768,197	0,1
768,421	-1,45
768,646	-4,33
768,871	-7,3
769,095	-7,25
769,32	-7,16
769,545	-8,75
769,769	-7,57
769,994	-6,38
770,218	-9,15
770,443	-7,61
770,667	-6,34
770,892	-6,87
771,116	-7,47
771,341	-7,08
771,565	-7,73
771,79	-7,31
772,014	-7,53
772,238	-7
772,463	-6,3
772,687	-5,55
772,911	-4,62
773,136	-5,78
773,36	-6,18
773,584	-5,89
773,808	-6,81
774,033	-6,06
774,257	-6,38
774,481	-7,3
774,705	-7,72
774,929	-7,43
775,153	-6,75
775,377	-6,41
775,602	-5,12
775,826	-3,99
776,05	-2,48
776,274	-2,29
776,498	-0,85
776,722	-1,58
776,945	-1,58
777,169	-1,86
777,393	-3,25
777,617	-5,14
777,841	-4,63
778,065	-3,8
778,289	-4
778,512	-5,13
778,736	-4,71
778,96	-4,89
779,184	-3,11
779,407	-3,98
779,631	-3,6
779,855	-4,96
780,078	-4,19
780,302	-5,47
780,526	-4,34
780,749	-5,29
780,973	-4,31
781,196	-3,5
781,42	-5,07
781,643	-5,36
781,867	-5,17
782,09	-6,88
782,314	-7,1
782,537	-8,06
782,76	-8,79
782,984	-8,14
783,207	-9,62
783,431	-8,8
783,654	-9,4
783,877	-11,59
784,1	-11,89
784,324	-12,18
784,547	-11,87
784,77	-14,43
784,993	-15,62
785,216	-16,55
785,44	-16,21
785,663	-17,38
785,886	-15,73
786,109	-15,77
786,332	-15,42
786,555	-15,66
786,778	-13,65
787,001	-13,16
787,224	-11,51
787,447	-11,87
787,67	-9,16
787,893	-8,84
788,116	-8,96
788,339	-8,02
788,561	-9,65
788,784	-11,58
789,007	-13,33
789,23	-12,62
789,453	-11,93
789,675	-13,76
789,898	-15,95
790,121	-17,14
790,344	-18,4
790,566	-17,31
790,789	-17,28
791,012	-16,62
791,234	-15,5
791,457	-12,96
791,679	-11,41
791,902	-11,07
792,124	-10,32
792,347	-9,98
792,569	-10,25
792,792	-12,15
793,014	-11,15
793,237	-11,05
793,459	-10,96
793,681	-11,24
793,904	-12,64
794,126	-13,88
794,348	-13,76
794,571	-13,07
794,793	-14,7
795,015	-13,55
795,237	-13,82
795,46	-12,17
795,682	-11,82
795,904	-8,71
796,126	-10,13
796,348	-10,99
796,57	-7,57
796,792	-7,07
797,014	-4,96
797,237	-3,37
797,459	-2,81
797,681	-0,96
797,903	-2
798,124	-0,98
798,346	6,87
798,568	7,79
798,79	10,45
799,012	10,91
799,234	11,51
799,456	11,86
799,678	13,32
799,899	12,03
800,121	11,18
800,343	10,37
800,565	11,13
800,786	11,89
801,008	13,22
801,23	12,64
801,451	13,29
801,673	11,13
801,895	10,06
802,116	12,61
802,338	13,47
802,559	13,65
802,781	11,53
803,002	12,77
803,224	15,1
803,445	12,39
803,667	13,2
803,888	13,19
804,109	11,67
804,331	10,34
804,552	10,2
804,773	11,59
804,995	9,65
805,216	-1,52
805,437	-3,89
805,658	-6,22
805,88	-7,51
806,101	-7,6
806,322	-7,03
806,543	-7,09
806,764	-8,34
806,985	-6,38
807,207	-5,55
807,428	-6,73
807,649	-8,65
807,87	-9,79
808,091	-8,77
808,312	-9,7
808,533	-5,58
808,754	-4,4
808,975	-7,6
809,195	-6,27
809,416	-5,99
809,637	-5,89
809,858	-8,42
810,079	-10,68
810,3	-8,43
810,52	-8,25
810,741	-10,75
810,962	-11,26
811,183	-10,11
811,403	-9,44
811,624	-8,39
811,845	-6,33
812,065	-4,27
812,286	-2,81
812,506	-2,2
812,727	-2,63
812,948	-1,57
813,168	-1,84
813,389	-3,18
813,609	-2,45
813,83	-3,64
814,05	-4,44
814,27	-3,45
814,491	-0,55
814,711	-1,67
814,931	-5,65
815,152	-5,82
815,372	-7,95
815,592	-8,94
815,813	-8,75
816,033	-9,97
816,253	-9
816,473	-9,72
816,694	-7,8
816,914	-7,2
817,134	-8,11
817,354	-11,18
817,574	-9,35
817,794	-9,68
818,014	-11,13
818,234	-12,41
818,454	-14,91
818,674	-18,29
818,894	-20,44
819,114	-19,14
819,334	-19,19
819,554	-16,21
819,774	-15,57
819,994	-17,19
820,214	-17,05
820,433	-16,91
820,653	-16,12
820,873	-14,06
821,093	-13,52
821,312	-14,73
821,532	-13,16
821,752	-9,15
821,972	-10,51
822,191	-9,06
822,411	-10,31
822,63	-9,92
822,85	-9,28
823,07	-10,4
823,289	-8,96
823,509	-9,98
823,728	-7,87
823,948	-8,82
824,167	-8,21
824,387	-8,73
824,606	-6,39
824,825	-5,64
825,045	-5,31
825,264	-5,49
825,483	-4,26
825,703	-3,12
825,922	-5,06
826,141	-6,34
826,361	-7,88
826,58	-11,11
826,799	-11,16
827,018	-11,43
827,237	-11,43
827,456	-11,76
827,676	-11,87
827,895	-12,28
828,114	-12,09
828,333	-12,21
828,552	-12,73
828,771	-10,58
828,99	-12,34
829,209	-10,99
829,428	-8,9
829,647	-9,03
829,866	-8,23
830,084	-8,56
830,303	-7,96
830,522	-9,34
830,741	-7,64
830,96	-5,92
831,179	-4,89
831,397	-6,62
831,616	-7,44
831,835	-7,57
832,053	-6,61
832,272	-5,66
832,491	-5,07
832,709	-4,58
832,928	-3,63
833,147	-3,91
833,365	-2,98
833,584	-0,73
833,802	1,35
834,021	1,7
834,239	2,3
834,458	0,91
834,676	-1,47
834,894	-1,6
835,113	-3,31
835,331	-3,95
835,55	-5,01
835,768	-3,89
835,986	-3,9
836,204	-7,15
836,423	-7,62
836,641	-8,49
836,859	-9,17
837,077	-9,26
837,296	-8,47
837,514	-10,74
837,732	-11,06
837,95	-11,86
838,168	-10,55
838,386	-11,29
838,604	-9,74
838,822	-8,55
839,04	-9,2
839,258	-7,86
839,476	-6,9
839,694	-6,43
839,912	-6,66
840,13	-6,33
840,348	-4,89
840,566	-6,55
840,783	-5,66
841,001	-7,5
841,219	-6,49
841,437	-4,95
841,655	-3,88
841,872	-2,97
842,09	-2,42
842,308	-1,43
842,525	-0,14
842,743	0,82
842,961	1,71
843,178	-0,04
843,396	4,08
843,613	4,45
843,831	6,86
844,048	6,02
844,266	7,22
844,483	5,58
844,701	4,21
844,918	4,51
845,136	5,07
845,353	3,54
845,57	2,03
845,788	4,35
846,005	1,13
846,222	0,22
846,439	1,54
846,657	2,01
846,874	2,68
847,091	2,38
847,308	3,51
847,526	2,18
847,743	1,82
847,96	1,08
848,177	0,05
848,394	0,03
848,611	0,1
848,828	-0,61
849,045	-1,84
849,262	-3,45
849,479	-4,68
849,696	-5,43
849,913	-5,41
850,13	-9,97
850,347	-7,5
850,564	-8,57
850,78	-9,06
850,997	-9,88
851,214	-8,96
851,431	-7,55
851,647	-9,94
851,864	-9,82
852,081	-9,03
852,298	-11,29
852,514	-13,03
852,731	-11,59
852,948	-9,43
853,164	-10,22
853,381	-9,06
853,597	-10,45
853,814	-12,52
854,03	-14,15
854,247	-12,03
854,463	-11,23
854,68	-12,94
854,896	-12,3
855,113	-13,67
855,329	-13,42
855,545	-12,13
855,762	-12,72
855,978	-15,38
856,194	-16,05
856,411	-13,02
856,627	-12,17
856,843	-11,57
857,059	-11,37
857,275	-12,82
857,492	-13,5
857,708	-11,17
857,924	-11,31
858,14	-10,52
858,356	-10,77
858,572	-9,98
858,788	-10,77
859,004	-8,59
859,22	-9,86
859,436	-9,62
859,652	-11,58
859,868	-13,5
860,084	-15,12
860,3	-15,05
860,516	-15,9
860,731	-16,16
860,947	-19,48
861,163	-17,37
861,379	-15,74
861,595	-14,64
861,81	-12,44
862,026	-12,17
862,242	-11,43
862,457	-11,21
862,673	-9,86
862,889	-9,09
863,104	-10,38
863,32	-9,74
863,535	-8,62
863,751	-10,99
863,966	-8,79
864,182	-7,2
864,397	-8,43
864,613	-8,5
864,828	-8,75
865,044	-8,2
865,259	-7,44
865,474	-7,48
865,69	-6,14
865,905	-5,06
866,12	-5,41
866,336	-4,63
866,551	-2,14
866,766	-1,83
866,981	-3,2
867,196	-2,52
867,412	-0,92
867,627	0,47
867,842	-2,06
868,057	-2,86
868,272	-3,43
868,487	-5,18
868,702	-7,76
868,917	-9,76
869,132	-9,93
869,347	-8,94
869,562	-9,92
869,777	-9,22
869,992	-9,97
870,207	-10,15
870,422	-10,11
870,636	-11,78
870,851	-12,32
871,066	-13,56
871,281	-14,18
871,495	-13,94
871,71	-10,89
871,925	-13,74
872,14	-14,68
872,354	-16,51
872,569	-17,89
872,783	-17,16
872,998	-17,66
873,213	-19,24
873,427	-17,77
873,642	-15,33
873,856	-14,79
874,071	-16,14
874,285	-16,85
874,5	-16,64
874,714	-18,29
874,928	-19,17
875,143	-19,29
875,357	-17,69
875,571	-18,09
875,786	-16,34
876	-14,64
876,214	-13,39
876,429	-15,65
876,643	-16,05
876,857	-16,28
877,071	-15,19
877,285	-14,76
877,499	-16,34
877,714	-13,9
877,928	-11,59
878,142	-13,25
878,356	-16,04
878,57	-14,01
878,784	-12,35
878,998	-12,86
879,212	-10,39
879,426	-12,39
879,639	-11,03
879,853	-11,49
880,067	-12,23
880,281	-13,53
880,495	-12,67
880,709	-10,34
880,922	-8,83
881,136	-7,31
881,35	-4,21
881,564	-5,32
881,777	-7,13
881,991	-6,74
882,205	-4,25
882,418	-4,86
882,632	-6,26
882,845	-6,68
883,059	-4,28
883,273	-4,7
883,486	-4,97
883,7	-4,24
883,913	-5,24
884,126	-3,23
884,34	-6,31
884,553	-8,38
884,767	-5,71
884,98	-5,66
885,193	-5,56
885,407	-6,25
885,62	-4,87
885,833	-4,26
886,046	-1,18
886,26	-1,22
886,473	-1,78
886,686	-2,95
886,899	-0,84
887,112	-2,31
887,326	-4,5
887,539	-4,24
887,752	-4,58
887,965	-5,79
888,178	-3,76
888,391	-3,66
888,604	-3,41
888,817	-5,06
889,03	-4,15
889,243	-5,19
889,455	-6,48
889,668	-7,54
889,881	-4,26
890,094	-4,93
890,307	-6,99
890,52	-5,73
890,732	-6,35
890,945	-6,39
891,158	-5,82
891,37	-7,1
891,583	-6,23
891,796	-5,07
892,008	-7,63
892,221	-8,39
892,434	-12,26
892,646	-15,07
892,859	-17,31
893,071	-14,83
893,284	-13,64
893,496	-14,56
893,709	-15,44
893,921	-14,44
894,133	-14,65
894,346	-13,78
894,558	-14,61
894,771	-15,05
894,983	-13,04
895,195	-12,1
895,407	-10,81
895,62	-13,56
895,832	-12,92
896,044	-11,11
896,256	-11,56
896,468	-13,75
896,681	-12,9
896,893	-11,37
897,105	-11,66
897,317	-12,07
897,529	-10,56
897,741	-9,35
897,953	-9,2
898,165	-10,35
898,377	-12,64
898,589	-10,41
898,801	-11,4
899,013	-9,85
899,224	-7,04
899,436	-4,75
899,648	-6,41
899,86	-7,69
900,072	-5,73
900,283	-3,91
900,495	-3,48
900,707	-4,72
900,919	-8,13
901,13	-6,6
901,342	-8,42
901,554	-9,1
901,765	-9,1
901,977	-10,79
902,188	-10,94
902,4	-11,17
902,611	-13,18
902,823	-14,37
903,034	-15,35
903,246	-16,3
903,457	-18,04
903,669	-18,79
903,88	-19,27
904,091	-19,91
904,303	-20,2
904,514	-20,58
904,725	-19,58
904,936	-18,9
905,148	-18,01
905,359	-15,28
905,57	-15,28
905,781	-16,38
905,992	-18,15
906,204	-18,03
906,415	-17,41
906,626	-17,45
906,837	-15,72
907,048	-15,71
907,259	-15,03
907,47	-15,68
907,681	-16,8
907,892	-12,78
908,103	-12,39
908,314	-14,7
908,525	-13,94
908,735	-12,5
908,946	-12,63
909,157	-12,66
909,368	-11,32
909,579	-11,43
909,789	-12,81
910	-13,53
910,211	-11,96
910,421	-11,67
910,632	-10,79
910,843	-12,29
911,053	-8,85
911,264	-6,56
911,475	-6,6
911,685	-7,1
911,896	-7,67
912,106	-6,22
912,317	-6,94
912,527	-5,35
912,737	-4,59
912,948	-3,94
913,158	-6,07
913,369	-8,4
913,579	-7,29
913,789	-7,44
914	-4,7
914,21	-4,23
914,42	-5,92
914,63	-6,59
914,841	-5,37
915,051	-4,58
915,261	-4,52
915,471	-3,6
915,681	-2,49
915,891	-2,19
916,101	-1,68
916,311	-0,55
916,521	1,86
916,731	0,98
916,941	3,15
917,151	2,94
917,361	5,05
917,571	0,36
917,781	-1,37
917,991	-3,94
918,201	-3,41
918,411	-5,69
918,621	-6,41
918,83	-6,07
919,04	-7,67
919,25	-6,91
919,46	-6,07
919,669	-8,79
919,879	-8,51
920,089	-8,96
920,298	-10,36
920,508	-9,34
920,717	-9,68
920,927	-10,47
921,136	-10,65
921,346	-11,64
921,555	-13,31
921,765	-13,31
921,974	-14,05
922,184	-16,98
922,393	-17,18
922,603	-17,88
922,812	-16,07
923,021	-18,65
923,23	-19,32
923,44	-21,62
923,649	-21,75
923,858	-23,3
924,067	-21,56
924,277	-23,7
924,486	-20,95
924,695	-21,3
924,904	-18,9
925,113	-20,01
925,322	-18,89
925,531	-18,8
925,74	-20,61
925,949	-21,55
926,158	-18,43
926,367	-19,24
926,576	-20,03
926,785	-19,12
926,994	-21,11
927,203	-19,96
927,412	-20,29
927,621	-20,63
927,83	-18,74
928,038	-18,57
928,247	-19,64
928,456	-20,34
928,665	-17,86
928,873	-16,58
929,082	-14,27
929,291	-13,22
929,499	-11,44
929,708	-12,61
929,916	-12,25
930,125	-12,52
930,333	-11,8
930,542	-11,14
930,75	-8,13
930,959	-8,38
931,167	-9,57
931,376	-10,6
931,584	-8,72
931,793	-9,72
932,001	-9,77
932,209	-10,47
932,418	-12,24
932,626	-14,41
932,834	-15,25
933,042	-15,94
933,251	-15,17
933,459	-15,02
933,667	-15,79
933,875	-14,43
934,083	-12,76
934,291	-12,34
934,499	-11,65
934,707	-11,46
934,915	-10,38
935,123	-9,88
935,331	-10,4
935,539	-12,64
935,747	-14,69
935,955	-15,36
936,163	-14,32
936,371	-14,23
936,579	-12,86
936,787	-14,15
936,995	-15,81
937,202	-17,71
937,41	-18,75
937,618	-18,31
937,826	-17,25
938,033	-20,47
938,241	-21,23
938,449	-18,18
938,656	-16,42
938,864	-16,77
939,071	-15,07
939,279	-13,04
939,486	-12,32
939,694	-13,35
939,901	-13,13
940,109	-11,92
940,316	-12,43
940,524	-12,98
940,731	-14,36
940,939	-14,26
941,146	-14,83
941,353	-15,19
941,561	-14,57
941,768	-15,89
941,975	-14,1
942,182	-14,85
942,39	-13,2
942,597	-10,77
942,804	-9,91
943,011	-10,43
943,218	-8,93
943,425	-8,07
943,632	-6,3
943,839	-5,84
944,046	-6,04
944,253	-5,92
944,46	-5,11
944,667	-2,4
944,874	-2,88
945,081	-1,45
945,288	0,25
945,495	0,53
945,702	0,56
945,909	-1,18
946,115	-0,1
946,322	-1,42
946,529	-3
946,736	-4,64
946,942	-4,41
947,149	-4,87
947,356	-5,66
947,562	-6,23
947,769	-7,44
947,976	-8,57
948,182	-6,68
948,389	-8,2
948,595	-7,53
948,802	-7,77
949,008	-9,96
949,215	-10,66
949,421	-12,5
949,628	-14,22
949,834	-13,74
950,04	-15,69
950,247	-14
950,453	-13,72
950,659	-15,55
950,865	-13,94
951,072	-17,75
951,278	-16,97
951,484	-19,09
951,69	-20,76
951,896	-21,04
952,103	-20,91
952,309	-19,35
952,515	-19,72
952,721	-18,19
952,927	-16,19
953,133	-16,17
953,339	-17,06
953,545	-16,49
953,751	-15,46
953,957	-13,03
954,163	-14,02
954,369	-13,82
954,574	-16,13
954,78	-15,23
954,986	-13,89
955,192	-13,41
955,398	-13,94
955,603	-15,11
955,809	-12,38
956,015	-11,46
956,22	-11,51
956,426	-9,39
956,632	-10,75
956,837	-10,81
957,043	-11,05
957,248	-11,37
957,454	-10,99
957,66	-13,97
957,865	-13,53
958,07	-12,41
958,276	-13,63
958,481	-14,02
958,687	-14,59
958,892	-13,85
959,097	-13,66
959,303	-15,55
959,508	-15,18
959,713	-15,04
959,919	-15,74
960,124	-15,88
960,329	-15,94
960,534	-12,96
960,739	-11,74
960,945	-9,17
961,15	-9,52
961,355	-11,31
961,56	-13,74
961,765	-15,2
961,97	-14,97
962,175	-14,23
962,38	-16,43
962,585	-16,5
962,79	-18,53
962,995	-19,34
963,2	-19,78
963,404	-19,07
963,609	-19,88
963,814	-20,42
964,019	-20,35
964,224	-23,14
964,428	-21,8
964,633	-20,31
964,838	-19,53
965,042	-19,48
965,247	-21,4
965,452	-21,7
965,656	-20,56
965,861	-19,84
966,066	-20,36
966,27	-18,26
966,475	-15,92
966,679	-18,4
966,884	-17,66
967,088	-19,4
967,292	-20,77
967,497	-20,08
967,701	-20,02
967,906	-18,96
968,11	-14,68
968,314	-11,47
968,518	-13,36
968,723	-11,47
968,927	-10,95
969,131	-9,89
969,335	-7,04
969,539	-5,53
969,744	-3,48
969,948	-1,32
970,152	0,12
970,356	-0,04
970,56	2,16
970,764	0,44
970,968	2,45
971,172	1,06
971,376	1,24
971,58	2,76
971,784	2,94
971,988	1,66
972,192	4,07
972,395	3,38
972,599	0,42
972,803	-1,94
973,007	0,56
973,21	-1,6
973,414	-0,29
973,618	-0,81
973,822	-2,11
974,025	-0,84
974,229	-0,28
974,432	-2,78
974,636	-4,64
974,84	-3,57
975,043	-2,7
975,247	-3,32
975,45	-5
975,654	-4,96
975,857	-4,06
976,06	-5,71
976,264	-7,3
976,467	-5,71
976,671	-5,31
976,874	-5,01
977,077	-6
977,28	-7,45
977,484	-7,9
977,687	-7,74
977,89	-7,53
978,093	-7,29
978,297	-6,39
978,5	-8,9
978,703	-8,56
978,906	-6,12
979,109	-6,08
979,312	-5,35
979,515	-4,98
979,718	-5,5
979,921	-5,04
980,124	-5,83
980,327	-6,93
980,53	-6,84
980,733	-6
980,936	-4,84
981,138	-6,18
981,341	-6,43
981,544	-6,22
981,747	-5,59
981,949	-7,15
982,152	-7,89
982,355	-8,13
982,558	-6,4
982,76	-9
982,963	-9,17
983,165	-8,46
983,368	-7,91
983,571	-8,72
983,773	-7,73
983,976	-8,3
984,178	-7,52
984,381	-7,7
984,583	-8,27
984,785	-8,53
984,988	-6,3
985,19	-6,61
985,392	-7,88
985,595	-10,49
985,797	-10,36
985,999	-9,27
986,202	-7,17
986,404	-8,97
986,606	-6,04
986,808	-6,74
987,01	-6,15
987,212	-6,58
987,415	-7,26
987,617	-6,44
987,819	-7,53
988,021	-7,35
988,223	-7,64
988,425	-9,02
988,627	-8,46
988,829	-12,09
989,031	-10,57
989,232	-12,2
989,434	-11,33
989,636	-10,45
989,838	-10,08
990,04	-8,06
990,242	-7,93
990,443	-11,48
990,645	-10,83
990,847	-9,96
991,048	-9,2
991,25	-11,9
991,452	-11,07
991,653	-10,63
991,855	-11,2
992,057	-11,11
992,258	-11,08
992,46	-13,12
992,661	-9,34
992,863	-11,6
993,064	-10,72
993,265	-11,18
993,467	-13,29
993,668	-11,86
993,87	-12,5
994,071	-12,84
994,272	-11,99
994,473	-11,21
994,675	-9,4
994,876	-9,68
995,077	-7,95
995,278	-7,37
995,48	-6,23
995,681	-7,67
995,882	-6,58
996,083	-6,51
996,284	-9,59
996,485	-10,51
996,686	-9
996,887	-9,45
997,088	-11,51
997,289	-12,15
997,49	-10,72
997,691	-11,34
997,892	-12,32
998,092	-8,11
998,293	-8,19
998,494	-9,39
998,695	-9,13
998,896	-9,79
999,096	-10,15
999,297	-10,54
999,498	-11,94
999,698	-12,29
999,899	-13,83
1000,1	-15,51
1000,3	-15,34
1000,501	-15,89
1000,701	-16,35
1000,902	-17,48
1001,102	-16,6
1001,303	-16,13
1001,503	-17,59
1001,704	-15,79
1001,904	-17,06
1002,105	-17,32
1002,305	-17,48
1002,505	-18,11
1002,706	-17,7
1002,906	-18,18
1003,106	-19,18
1003,306	-17,96
1003,507	-17,15
1003,707	-17,95
1003,907	-15,92
1004,107	-13,85
1004,307	-15,57
1004,507	-14,67
1004,707	-14,62
1004,907	-14,75
1005,107	-15,57
1005,308	-15,03
1005,507	-17,29
1005,707	-15,86
1005,907	-15,74
1006,107	-14,73
1006,307	-12,24
1006,507	-12,46
1006,707	-12,86
1006,907	-12,66
1007,106	-12,55
1007,306	-14,43
1007,506	-13,81
1007,706	-13,9
1007,905	-16,59
1008,105	-16,25
1008,305	-16,76
1008,504	-15,85
1008,704	-11,44
1008,903	-10,71
1009,103	-8,93
1009,303	-9,15
1009,502	-9,95
1009,702	-9,86
1009,901	-10,21
1010,1	-13,2
1010,3	-12,07
1010,499	-14,13
1010,699	-15,5
1010,898	-16,04
1011,097	-15,57
1011,296	-15,05
1011,496	-17,06
1011,695	-17
1011,894	-18,32
1012,093	-15,98
1012,293	-15,76
1012,492	-17,51
1012,691	-17,97
1012,89	-17,76
1013,089	-19,65
1013,288	-18,02
1013,487	-17,18
1013,686	-17,45
1013,885	-17,18
1014,084	-15,83
1014,283	-14,86
1014,482	-15,87
1014,681	-16,55
1014,88	-20
1015,078	-19,92
1015,277	-22,09
1015,476	-22,08
1015,675	-21,01
1015,873	-20,7
1016,072	-19,75
1016,271	-17,57
1016,47	-19,49
1016,668	-17,67
1016,867	-17,87
1017,065	-19,27
1017,264	-20,26
1017,463	-19,17
1017,661	-17,83
1017,86	-17,41
1018,058	-16,54
1018,256	-18,3
1018,455	-18,4
1018,653	-17,43
1018,852	-16,69
1019,05	-17,81
1019,248	-17,96
1019,447	-20,54
1019,645	-21,15
1019,843	-22,17
1020,041	-21,49
1020,24	-22,68
1020,438	-20
1020,636	-19,86
1020,834	-22,18
1021,032	-20,86
1021,23	-20,53
1021,428	-19,08
1021,626	-16,39
1021,824	-15,98
1022,022	-17,28
1022,22	-16,22
1022,418	-16,07
1022,616	-18,23
1022,814	-18,62
1023,012	-18,15
1023,21	-16,02
1023,408	-17,08
1023,606	-18,11
1023,803	-14,32
1024,001	-13,42
1024,199	-14,66
1024,397	-13,37
1024,594	-13,83
1024,792	-15,02
1024,99	-13,75
1025,187	-13,32
1025,385	-10,95
1025,582	-9,69
1025,78	-10,09
1025,977	-10,35
1026,175	-10,45
1026,372	-9,55
1026,57	-11,34
1026,767	-10,81
1026,965	-10,02
1027,162	-8,84
1027,359	-9,32
1027,557	-8,68
1027,754	-11,56
1027,951	-13,62
1028,148	-12,12
1028,346	-14,22
1028,543	-16,32
1028,74	-15,13
1028,937	-17,17
1029,134	-17,37
1029,331	-18,32
1029,528	-16,25
1029,725	-17,31
1029,923	-19,78
1030,12	-17,31
1030,317	-17,5
1030,513	-16
1030,71	-14,9
1030,907	-13,82
1031,104	-15,34
1031,301	-15,91
1031,498	-16,16
1031,695	-16,47
1031,892	-15,02
1032,088	-14,05
1032,285	-15,63
1032,482	-16,2
1032,678	-18,13
1032,875	-17,97
1033,072	-16,74
1033,268	-17,75
1033,465	-18,47
1033,662	-20,47
1033,858	-19,74
1034,055	-19,61
1034,251	-17,48
1034,448	-17,54
1034,644	-17,9
1034,84	-16,06
1035,037	-13,47
1035,233	-13,47
1035,43	-12,9
1035,626	-14,36
1035,822	-14,26
1036,019	-15,63
1036,215	-17,45
1036,411	-17,02
1036,607	-19,7
1036,803	-21,29
1037	-20,96
1037,196	-21,46
1037,392	-21,56
1037,588	-22,1
1037,784	-21,42
1037,98	-21,67
1038,176	-22,22
1038,372	-21,34
1038,568	-20,12
1038,764	-18,12
1038,96	-16,66
1039,156	-18,45
1039,352	-20
1039,547	-18,07
1039,743	-16,34
1039,939	-16,55
1040,135	-16,58
1040,331	-18,83
1040,526	-16,91
1040,722	-16,45
1040,918	-17,85
1041,113	-21,03
1041,309	-22,42
1041,505	-22,66
1041,7	-21,51
1041,896	-20,91
1042,091	-21,24
1042,287	-22,1
1042,482	-21,4
1042,678	-21,06
1042,873	-20,78
1043,069	-21,83
1043,264	-20,8
1043,459	-19,58
1043,655	-19,64
1043,85	-20,88
1044,045	-21,06
1044,24	-20,75
1044,436	-20,33
1044,631	-21,42
1044,826	-23,99
1045,021	-26,89
1045,216	-24,97
