Data from FLMT021711__3__16-29-22-232.txt Node

Date: Tue Nov 05 16:29:22 CET 2024
User: Etudiants TP
Spectrometer: FLMT02171
Trigger mode: 0
Integration Time (sec): 1,000000E-1
Scans to average: 5
Electric dark correction enabled: true
Nonlinearity correction enabled: false
Boxcar width: 15
XAxis mode: Wavelengths
Number of Pixels in Spectrum: 3648
>>>>>Begin Spectral Data<<<<<
194,658	-48,19
194,923	-46,75
195,188	-41,25
195,453	-39,05
195,717	-33,6
195,982	-30,48
196,247	-29,26
196,512	-32,23
196,777	-30,97
197,042	-29,1
197,307	-28,24
197,572	-25,16
197,837	-25,43
198,101	-24,2
198,366	-21,87
198,631	-21,38
198,896	-15,86
199,161	-10,73
199,425	-5,14
199,69	1,66
199,955	1,37
200,22	-1,02
200,484	-0,46
200,749	-1,52
201,014	-2,07
201,278	-1,97
201,543	-0,8
201,807	-1,46
202,072	0,2
202,337	-0,02
202,601	0,86
202,866	-1,46
203,13	-1,02
203,395	-3,35
203,659	-4,29
203,924	-6,22
204,189	-7,7
204,453	-6,95
204,717	-3,41
204,982	-2,7
205,246	-2
205,511	-1,04
205,775	-1,9
206,04	2,2
206,304	2,37
206,568	2,44
206,833	3,14
207,097	3,04
207,361	4,53
207,626	6,39
207,89	6,89
208,154	8,12
208,419	10,09
208,683	9,95
208,947	12,28
209,211	13,54
209,476	13,95
209,74	14,39
210,004	14,99
210,268	14,68
210,532	17,34
210,796	17,25
211,061	18,63
211,325	20,07
211,589	19,74
211,853	20,54
212,117	19,47
212,381	19,6
212,645	20,59
212,909	19,84
213,173	17,6
213,437	18,55
213,701	18,7
213,965	19,91
214,229	16,13
214,493	16,63
214,757	16,07
215,021	16,79
215,285	20
215,549	21,17
215,813	19,6
216,077	19,48
216,34	21,31
216,604	19,63
216,868	19,89
217,132	20,48
217,396	19,65
217,659	18,6
217,923	17,58
218,187	17,91
218,451	17,52
218,714	14,52
218,978	14,3
219,242	16,14
219,505	16,47
219,769	17
220,033	16,25
220,296	18,33
220,56	19,66
220,824	16,66
221,087	16,87
221,351	17,21
221,614	15,59
221,878	16,48
222,142	16,36
222,405	16,84
222,669	18,88
222,932	16,78
223,196	15,35
223,459	13,56
223,722	14,11
223,986	13,77
224,249	12,74
224,513	12,41
224,776	12,24
225,04	12,52
225,303	11,75
225,566	11,06
225,83	11,96
226,093	13,68
226,356	11,38
226,62	10,8
226,883	12,37
227,146	13,05
227,409	12,22
227,673	9,67
227,936	11,04
228,199	11,33
228,462	9,72
228,725	8,82
228,989	8,92
229,252	9,72
229,515	13,88
229,778	13,43
230,041	12,58
230,304	9,58
230,567	9,84
230,83	7,49
231,093	10,21
231,356	8,95
231,619	12,7
231,882	11,34
232,145	13,02
232,408	12,45
232,671	11,11
232,934	10,73
233,197	7,92
233,46	5,86
233,723	6,39
233,986	5,03
234,249	2,45
234,512	4,17
234,775	6,42
235,037	5,98
235,3	5,63
235,563	5,57
235,826	6,99
236,089	7,18
236,351	6,99
236,614	8,4
236,877	9,35
237,14	11,27
237,402	10,18
237,665	5,39
237,928	5,33
238,19	3,63
238,453	5,68
238,716	5,44
238,978	5,99
239,241	2,95
239,503	5,05
239,766	0,81
240,029	-0,48
240,291	0,12
240,554	0,22
240,816	-0,26
241,079	0,61
241,341	1,22
241,604	0,54
241,866	-1,38
242,129	-0,57
242,391	1,08
242,653	1,16
242,916	1,07
243,178	0,81
243,441	2,93
243,703	2,44
243,965	-0
244,228	-0,16
244,49	0,17
244,752	0,56
245,015	0,29
245,277	1,37
245,539	1,73
245,801	2,44
246,064	1,66
246,326	1,8
246,588	1,69
246,85	3,59
247,112	3,09
247,374	4,95
247,637	5,46
247,899	6
248,161	6,84
248,423	4,95
248,685	5,7
248,947	6,39
249,209	6,84
249,471	8,64
249,733	10,51
249,995	10,56
250,257	11,02
250,519	10,08
250,781	11,91
251,043	9,94
251,305	11,38
251,567	11,3
251,829	12,86
252,091	14,26
252,353	12,09
252,615	12,67
252,876	11,73
253,138	11,39
253,4	8,64
253,662	9,08
253,924	11,15
254,185	12,06
254,447	11,33
254,709	10,46
254,971	10,52
255,232	12,05
255,494	11,44
255,756	11,45
256,017	11,77
256,279	11,91
256,541	11,11
256,802	11,31
257,064	10,84
257,326	10,21
257,587	10,58
257,849	11,02
258,11	11,91
258,372	12,92
258,633	14,13
258,895	11,98
259,156	11,14
259,418	9,58
259,679	7,6
259,941	4,78
260,202	5,81
260,464	6,94
260,725	6,86
260,987	5,29
261,248	4,58
261,509	6,23
261,771	5,05
262,032	5,91
262,293	4,42
262,555	5,04
262,816	4,97
263,077	3,59
263,338	0,95
263,6	0,96
263,861	-0,38
264,122	-0,77
264,383	0,38
264,645	1,73
264,906	0,56
265,167	2,07
265,428	1,65
265,689	1,5
265,95	-1,27
266,211	0,21
266,473	-0,72
266,734	-4,04
266,995	-5,59
267,256	-4,79
267,517	-3,22
267,778	-0,15
268,039	1,21
268,3	0,38
268,561	-0,77
268,822	0,83
269,083	0,28
269,344	-1,32
269,604	-2,9
269,865	-1,62
270,126	-4,85
270,387	-2,57
270,648	-1,35
270,909	-1,9
271,17	-1,45
271,43	-2,38
271,691	-3,38
271,952	-4,57
272,213	-4,63
272,473	-5,32
272,734	-4,42
272,995	-4,16
273,256	-4,3
273,516	-2,85
273,777	-4,16
274,038	-1,71
274,298	-4,89
274,559	-6,29
274,82	-2,61
275,08	0,41
275,341	0,8
275,601	0,62
275,862	-3,21
276,122	-2,7
276,383	-2,82
276,643	-2,48
276,904	-3,81
277,164	-0,18
277,425	0,71
277,685	4,24
277,946	4,05
278,206	5,26
278,467	5,69
278,727	5,23
278,987	4,19
279,248	2,68
279,508	3,29
279,768	5,02
280,029	6,25
280,289	4,14
280,549	3,84
280,81	4,27
281,07	3,87
281,33	4,73
281,59	2,07
281,851	3,8
282,111	3,81
282,371	4,67
282,631	6,09
282,891	4,95
283,151	2,56
283,412	2,19
283,672	1,57
283,932	2,61
284,192	3,22
284,452	2,67
284,712	1,82
284,972	1,12
285,232	-1,89
285,492	-0,3
285,752	-2,84
286,012	1,17
286,272	2,93
286,532	1,22
286,792	1,27
287,052	2,95
287,312	4,41
287,571	4,35
287,831	4,11
288,091	2,61
288,351	3,68
288,611	5,79
288,871	5,39
289,13	5,22
289,39	2,46
289,65	4,85
289,91	2,55
290,17	4,3
290,429	6,77
290,689	5,44
290,949	4,11
291,208	5,65
291,468	7,66
291,728	8,28
291,987	10,16
292,247	9,16
292,506	9,43
292,766	11,48
293,026	10,51
293,285	12,02
293,545	14,14
293,804	13,98
294,064	10,65
294,323	8,92
294,583	10,1
294,842	11,55
295,102	11,91
295,361	11,62
295,621	12,36
295,88	12,27
296,139	12,09
296,399	12,33
296,658	7,66
296,917	6,88
297,177	4,47
297,436	5,73
297,695	4,74
297,955	6,94
298,214	5,28
298,473	5,2
298,732	7,26
298,992	9,16
299,251	8,87
299,51	5,18
299,769	5,07
300,028	5,29
300,287	5,18
300,547	6,02
300,806	3,36
301,065	4,71
301,324	4,96
301,583	1,21
301,842	-0,24
302,101	-0,89
302,36	-0,04
302,619	-0,21
302,878	-1,66
303,137	-2,82
303,396	-2,06
303,655	-1,34
303,914	-2,59
304,173	-1,66
304,432	-2,01
304,691	0,95
304,95	-0,22
305,208	5,1
305,467	5,28
305,726	5,82
305,985	6,37
306,244	6,8
306,503	6,72
306,761	5,25
307,02	3,73
307,279	3,29
307,537	5,19
307,796	3,64
308,055	0,73
308,314	1,74
308,572	0,89
308,831	3,65
309,09	5,37
309,348	5,44
309,607	5,21
309,865	8,15
310,124	7,92
310,382	9,03
310,641	8,78
310,9	7,7
311,158	8,07
311,417	7,38
311,675	7,84
311,933	8
312,192	8,53
312,45	8,71
312,709	9,12
312,967	8,5
313,226	7,1
313,484	6,73
313,742	5,35
314,001	4,54
314,259	3,48
314,517	3,31
314,776	4,5
315,034	6,71
315,292	6,3
315,55	5,42
315,809	5,4
316,067	5,45
316,325	3,57
316,583	3,98
316,841	2,16
317,1	0,99
317,358	-0,58
317,616	0,02
317,874	-2,29
318,132	-3,24
318,39	-3,87
318,648	-4,18
318,906	-4,27
319,164	-4,39
319,422	-4,96
319,68	-5,81
319,938	-5,98
320,196	-5,51
320,454	-3,82
320,712	-4,44
320,97	-2,3
321,228	-3,08
321,486	-1,93
321,744	-0,34
322,002	0,25
322,26	-0,24
322,517	-0,75
322,775	-2,19
323,033	-3,92
323,291	-2,31
323,549	-2,03
323,806	-0,82
324,064	0,08
324,322	2,87
324,58	2,42
324,837	4,31
325,095	1,35
325,353	3,63
325,61	4,35
325,868	4,18
326,126	7,2
326,383	6,91
326,641	6,91
326,898	9,18
327,156	8,33
327,413	9,09
327,671	8,61
327,928	11,13
328,186	11,39
328,443	10
328,701	11,72
328,958	9,47
329,216	8,45
329,473	6,64
329,731	6,31
329,988	5,59
330,245	7,27
330,503	8,67
330,76	9,15
331,017	9,98
331,275	7,84
331,532	8,9
331,789	7,2
332,047	7,34
332,304	3,55
332,561	4,54
332,818	2,81
333,076	5,52
333,333	5,5
333,59	5,2
333,847	7,24
334,104	5,36
334,361	4,17
334,618	2,61
334,876	0,52
335,133	0,9
335,39	0,25
335,647	1,24
335,904	-1,01
336,161	-2,09
336,418	-1,57
336,675	-3,99
336,932	-0,15
337,189	0,57
337,446	1,96
337,703	1,34
337,96	0,06
338,216	-0,8
338,473	-3,41
338,73	-2,93
338,987	-3,05
339,244	0,02
339,501	-2,46
339,757	-1,01
340,014	-0,23
340,271	1,96
340,528	1,23
340,785	4,61
341,041	4,45
341,298	2,09
341,555	1,65
341,811	0,32
342,068	-1,51
342,325	-1,45
342,581	0,86
342,838	2,01
343,094	2,88
343,351	1,68
343,608	0,54
343,864	1,98
344,121	2,27
344,377	0,83
344,634	1,24
344,89	-1,77
345,147	-2,59
345,403	-3,61
345,66	-4,27
345,916	-3,87
346,172	-4,54
346,429	-5,04
346,685	-5,74
346,942	-6,65
347,198	-9,61
347,454	-8,38
347,711	-8,12
347,967	-10,4
348,223	-10,28
348,48	-9,92
348,736	-8,74
348,992	-9,39
349,248	-6,24
349,504	-5,33
349,761	-3,93
350,017	-2,96
350,273	-3,04
350,529	-3,01
350,785	-3,78
351,041	-3,71
351,297	-2,61
351,554	-4,64
351,81	-6,33
352,066	-6,62
352,322	-5,1
352,578	-5,29
352,834	-6,12
353,09	-5,43
353,346	-5,31
353,602	-6,1
353,858	-5,54
354,114	-5,8
354,369	-3,69
354,625	-2,41
354,881	-2,09
355,137	-0
355,393	0,68
355,649	0,69
355,905	0,34
356,16	0,04
356,416	0,47
356,672	-3,55
356,928	-3,66
357,183	-5,76
357,439	-4,87
357,695	-6,82
357,951	-3,32
358,206	-2,87
358,462	-4,2
358,718	-5,24
358,973	-5,85
359,229	-4,77
359,484	-2,83
359,74	-1,61
359,996	-2,11
360,251	-0,47
360,507	-0,72
360,762	1,66
361,018	3,75
361,273	2,33
361,529	5,17
361,784	4,99
362,04	6,63
362,295	4,77
362,55	4,79
362,806	6,85
363,061	5,92
363,316	5,77
363,572	5,51
363,827	6,85
364,082	5,16
364,338	5,57
364,593	5,71
364,848	5,96
365,104	5,68
365,359	6,63
365,614	6,94
365,869	4,54
366,124	3,5
366,38	3,71
366,635	5,27
366,89	6,78
367,145	5,66
367,4	8,48
367,655	8,81
367,91	9,86
368,165	7,62
368,42	5,94
368,675	4,51
368,93	4,35
369,185	3,05
369,44	2,11
369,695	1,82
369,95	0,46
370,205	0,65
370,46	-0,55
370,715	-2,11
370,97	-0,98
371,225	-0,57
371,48	0,21
371,734	0,41
371,989	1,48
372,244	0,55
372,499	1,41
372,754	-0,28
373,008	-2,98
373,263	-7,15
373,518	-5,84
373,773	-7,89
374,027	-7,69
374,282	-6,63
374,537	-6,59
374,791	-6,88
375,046	-7,57
375,301	-8,89
375,555	-9,8
375,81	-9,51
376,064	-8,9
376,319	-6,82
376,573	-6,69
376,828	-9,68
377,082	-6,27
377,337	-8,26
377,591	-8,94
377,846	-8,46
378,1	-6,6
378,355	-6,61
378,609	-6,78
378,863	-9,26
379,118	-8,68
379,372	-9,54
379,627	-9,87
379,881	-10,81
380,135	-10,37
380,389	-9,8
380,644	-8,85
380,898	-7,24
381,152	-6,46
381,407	-5,96
381,661	-3,33
381,915	-1,69
382,169	-1,77
382,423	-2,85
382,677	-4,29
382,932	-4,44
383,186	-4,19
383,44	-4,55
383,694	-3,26
383,948	-4,95
384,202	-5,81
384,456	-4,91
384,71	-3,99
384,964	-4,81
385,218	-3,45
385,472	-3,23
385,726	-3,4
385,98	-2,21
386,234	-2,56
386,488	-4,59
386,742	-3,44
386,996	-5,42
387,249	-5,58
387,503	-3,27
387,757	-2,73
388,011	-1,85
388,265	-2,1
388,518	0,32
388,772	1,8
389,026	3,35
389,28	1,3
389,533	0,06
389,787	0,34
390,041	-0,51
390,295	0,15
390,548	-0,2
390,802	1,94
391,055	1,06
391,309	0,34
391,563	-1,1
391,816	-0,14
392,07	-1,27
392,323	-0,5
392,577	1,04
392,83	1,48
393,084	5,81
393,337	9,29
393,591	10,03
393,844	9,1
394,098	12,77
394,351	15,85
394,604	17,35
394,858	19,47
395,111	19,8
395,364	17,14
395,618	18,59
395,871	15,44
396,124	14,55
396,378	13,78
396,631	14,33
396,884	13,08
397,137	13,3
397,391	13,79
397,644	12,45
397,897	12,65
398,15	12,97
398,403	16,15
398,657	15,94
398,91	15,11
399,163	16,87
399,416	17,51
399,669	17,52
399,922	18,2
400,175	20,23
400,428	25,58
400,681	31,59
400,934	34,98
401,187	41,69
401,44	47,47
401,693	50,19
401,946	49,58
402,199	47,57
402,452	46,35
402,704	44,07
402,957	45,2
403,21	47,43
403,463	47,89
403,716	50,9
403,969	53,49
404,221	52,77
404,474	54,6
404,727	56,95
404,98	59,13
405,232	58,51
405,485	59,57
405,738	61,42
405,99	61,31
406,243	61,84
406,496	63,55
406,748	63,75
407,001	63,87
407,253	63,91
407,506	64,19
407,759	64,99
408,011	61,37
408,264	56,3
408,516	51,49
408,769	42,99
409,021	35,74
409,274	30,71
409,526	28,86
409,778	26,22
410,031	28,55
410,283	28,59
410,536	32,62
410,788	30,83
411,04	28,96
411,293	27,6
411,545	28,06
411,797	26,47
412,049	26,55
412,302	26,32
412,554	25,97
412,806	23,43
413,058	23,21
413,311	23,58
413,563	22,69
413,815	23,88
414,067	21,45
414,319	20,55
414,571	21,18
414,823	19,54
415,075	19,28
415,328	20,86
415,58	23,62
415,832	24,02
416,084	23,67
416,336	22,08
416,588	25,79
416,84	23,1
417,091	24,75
417,343	22,12
417,595	24,48
417,847	24,71
418,099	26,46
418,351	25,08
418,603	27,65
418,855	29,65
419,106	31,5
419,358	31,16
419,61	31,94
419,862	33,8
420,114	32,72
420,365	34,01
420,617	36,02
420,869	35,67
421,12	35,93
421,372	36,36
421,624	36,62
421,875	37,59
422,127	35,89
422,379	37,14
422,63	40,22
422,882	39,51
423,133	39,59
423,385	38,95
423,636	40,83
423,888	42,86
424,139	45,11
424,391	42,59
424,642	43,15
424,894	41,96
425,145	42,14
425,396	39,81
425,648	41,83
425,899	41,04
426,151	42,26
426,402	41,41
426,653	42,01
426,905	41,49
427,156	40,06
427,407	39,85
427,658	39,4
427,91	37,8
428,161	37,03
428,412	39
428,663	39,9
428,914	39,63
429,166	41,41
429,417	42,13
429,668	42,53
429,919	42,87
430,17	42,69
430,421	43,91
430,672	48,39
430,923	48,08
431,174	54,04
431,425	68,65
431,676	92,22
431,927	119,54
432,178	156,04
432,429	191,85
432,68	220,26
432,931	243,57
433,182	260,03
433,433	267,89
433,683	275,89
433,934	279,02
434,185	280,72
434,436	280,99
434,687	283,17
434,937	286,48
435,188	286,58
435,439	286,75
435,69	288,97
435,94	288,57
436,191	288,12
436,442	289,17
436,692	289,36
436,943	288,15
437,194	286,02
437,444	287,43
437,695	288,93
437,945	290,22
438,196	287,46
438,447	285,08
438,697	284,07
438,948	277,18
439,198	260,92
439,449	233,88
439,699	205,66
439,949	171,23
440,2	136,47
440,45	107,89
440,701	86,45
440,951	72,31
441,201	63,32
441,452	54,59
441,702	50,71
441,952	49,23
442,203	48,46
442,453	46,07
442,703	45,76
442,953	46,54
443,204	46,57
443,454	44,28
443,704	45,3
443,954	43,27
444,204	43,48
444,455	45,05
444,705	45,79
444,955	46,69
445,205	45,59
445,455	44,35
445,705	42,7
445,955	43,19
446,205	42,31
446,455	43,1
446,705	43,42
446,955	44,29
447,205	46,48
447,455	48,14
447,705	46,55
447,955	46,98
448,205	48,23
448,454	48,04
448,704	49,54
448,954	47,15
449,204	47,62
449,454	47,9
449,704	46,52
449,953	46,89
450,203	48,05
450,453	44,79
450,703	45,6
450,952	44,85
451,202	47,47
451,452	47,17
451,701	50,51
451,951	53,73
452,201	52,08
452,45	51,09
452,7	51,51
452,949	50,59
453,199	50,33
453,448	52,63
453,698	53,32
453,947	53,78
454,197	53,46
454,446	53,13
454,696	54,1
454,945	53,99
455,195	51,51
455,444	53,19
455,693	53,72
455,943	53,13
456,192	53,19
456,442	52,36
456,691	52,52
456,94	52,66
457,189	51,73
457,439	54,12
457,688	53,98
457,937	54,92
458,186	56,44
458,436	56,82
458,685	58,06
458,934	55,87
459,183	55,23
459,432	54,98
459,681	54,31
459,93	52,38
460,179	52,57
460,429	51,45
460,678	54,4
460,927	55,96
461,176	54,61
461,425	54,53
461,674	55,54
461,923	55,22
462,172	55,02
462,42	53,93
462,669	54,68
462,918	55,18
463,167	54,09
463,416	51,99
463,665	51,45
463,914	51,52
464,162	49,81
464,411	50,96
464,66	52,1
464,909	50,42
465,158	49,41
465,406	49,54
465,655	49,21
465,904	50,83
466,152	51,69
466,401	50,96
466,65	54,03
466,898	53,28
467,147	51,34
467,395	50,92
467,644	54,92
467,893	53,59
468,141	53,86
468,39	50,38
468,638	48,7
468,887	47,55
469,135	46,95
469,384	47,06
469,632	47,84
469,88	47,55
470,129	48,33
470,377	45,74
470,626	47,34
470,874	47,66
471,122	49,15
471,371	48,59
471,619	48,34
471,867	49,86
472,115	49,64
472,364	47,82
472,612	51,65
472,86	51,68
473,108	52,31
473,356	52,7
473,605	52,14
473,853	48,08
474,101	47,14
474,349	44,18
474,597	47,2
474,845	46,14
475,093	44,2
475,341	41,38
475,589	42,62
475,837	43,25
476,085	45,53
476,333	45,14
476,581	45,34
476,829	46,41
477,077	48,7
477,325	49,39
477,573	50,46
477,821	50,15
478,069	52,14
478,317	51,99
478,564	56,07
478,812	56,41
479,06	56,98
479,308	57,69
479,555	59,98
479,803	61,76
480,051	66,35
480,299	68,27
480,546	72,44
480,794	74,14
481,042	78,36
481,289	81,9
481,537	88,42
481,784	94,02
482,032	102,96
482,28	107,68
482,527	114,86
482,775	123,31
483,022	132,27
483,27	140,67
483,517	151,16
483,765	158,13
484,012	166,34
484,259	173,15
484,507	180,53
484,754	187,14
485,002	193,6
485,249	200,24
485,496	207,83
485,744	213,67
485,991	218,22
486,238	220,34
486,486	227,29
486,733	232,77
486,98	239,22
487,227	241,91
487,474	246,6
487,722	251,55
487,969	251,89
488,216	252,15
488,463	253,83
488,71	252,53
488,957	253,44
489,204	252,33
489,451	251,79
489,699	249,31
489,946	243,63
490,193	239,17
490,44	234,27
490,687	230,21
490,934	224,52
491,18	216,09
491,427	212,1
491,674	208,73
491,921	204,46
492,168	200,16
492,415	194,07
492,662	189,91
492,909	186,52
493,155	182,98
493,402	177,42
493,649	173,89
493,896	171,49
494,142	164,51
494,389	160,11
494,636	154,35
494,883	149,74
495,129	144,8
495,376	138,01
495,623	135,11
495,869	133,14
496,116	128,86
496,362	126,33
496,609	123,25
496,855	123,16
497,102	119,61
497,348	114,62
497,595	114,02
497,841	113,49
498,088	108,96
498,334	105,76
498,581	102,22
498,827	100,3
499,074	98,84
499,32	95,93
499,566	95,74
499,813	92,56
500,059	88
500,305	85,53
500,552	83,11
500,798	79,62
501,044	79,04
501,29	74,73
501,537	69,67
501,783	69,52
502,029	70,13
502,275	66,77
502,521	62,12
502,767	59,94
503,013	60,74
503,26	58,02
503,506	53,37
503,752	53,75
503,998	51,15
504,244	51,28
504,49	46,96
504,736	46,53
504,982	45,25
505,228	45,59
505,474	44,51
505,72	44,27
505,966	42,45
506,211	42,92
506,457	42,69
506,703	39,69
506,949	39,12
507,195	37,83
507,441	34,22
507,686	35,4
507,932	34,11
508,178	33,67
508,424	31,02
508,669	30,18
508,915	31,04
509,161	33,54
509,406	33,53
509,652	31,26
509,898	33,75
510,143	36,21
510,389	36,32
510,634	32,81
510,88	33,33
511,125	36,18
511,371	35,76
511,616	36,51
511,862	32,71
512,107	31,67
512,353	31,26
512,598	31,65
512,844	29,19
513,089	29,59
513,335	30,36
513,58	30,34
513,825	29,3
514,071	27,54
514,316	26,6
514,561	25,43
514,806	23,77
515,052	25,84
515,297	24,67
515,542	25,97
515,787	26,04
516,033	28,35
516,278	28,78
516,523	28,43
516,768	26,18
517,013	24,05
517,258	24,19
517,503	22,68
517,748	21,19
517,993	18,96
518,238	17,94
518,483	18,37
518,728	15,89
518,973	14,58
519,218	14,06
519,463	14,49
519,708	14,12
519,953	12,63
520,198	12,22
520,443	13,94
520,688	14,7
520,933	14,21
521,177	12,91
521,422	12,46
521,667	14,51
521,912	13,55
522,157	11,96
522,401	13,92
522,646	14,55
522,891	14,41
523,135	13,3
523,38	13,15
523,625	12,01
523,869	14,14
524,114	14,03
524,358	14
524,603	14,43
524,848	13,47
525,092	13,21
525,337	14,35
525,581	17,1
525,826	19,31
526,07	19,46
526,315	21,05
526,559	20,18
526,803	18,99
527,048	21,58
527,292	22,35
527,537	23,53
527,781	23,43
528,025	21,44
528,269	21,54
528,514	22,35
528,758	23,3
529,002	24,15
529,247	26,3
529,491	26,74
529,735	31,53
529,979	32,46
530,223	33,85
530,467	33,7
530,712	34,55
530,956	35,41
531,2	35,82
531,444	32,94
531,688	34,51
531,932	35,57
532,176	37,65
532,42	39,17
532,664	41,67
532,908	41,84
533,152	42,29
533,396	43,76
533,64	45,94
533,884	47,65
534,128	51,18
534,371	57,63
534,615	64,04
534,859	68,69
535,103	74,05
535,347	80,5
535,59	89,41
535,834	94,8
536,078	104,5
536,322	116,27
536,565	132,6
536,809	147,16
537,053	167,55
537,296	188,28
537,54	215,52
537,784	247,45
538,027	284,33
538,271	321,06
538,514	360,37
538,758	400,25
539,001	437,55
539,245	474,78
539,488	511,01
539,732	545,82
539,975	579,73
540,219	613,39
540,462	645,25
540,706	677,27
540,949	706,52
541,192	735,49
541,436	768,76
541,679	806,07
541,922	843,17
542,166	881
542,409	926,43
542,652	973,82
542,895	1021,92
543,139	1061,29
543,382	1098,44
543,625	1129,38
543,868	1154,28
544,111	1172,02
544,354	1185,61
544,598	1194,37
544,841	1196,31
545,084	1189,46
545,327	1176,25
545,57	1158,79
545,813	1140,11
546,056	1114,85
546,299	1090,34
546,542	1069,25
546,785	1046,61
547,028	1022,4
547,271	999,33
547,514	975,71
547,756	951,07
547,999	927,99
548,242	904,38
548,485	879
548,728	855,35
548,971	825,55
549,213	795,72
549,456	758,58
549,699	717,49
549,942	672,42
550,184	623,8
550,427	574,83
550,67	531,47
550,912	489,33
551,155	451,84
551,398	417,65
551,64	386,26
551,883	359
552,125	332,25
552,368	309,29
552,61	286,71
552,853	269,02
553,095	250,01
553,338	233,66
553,58	219,31
553,823	202,06
554,065	189,14
554,308	174,26
554,55	161,58
554,792	148,58
555,035	137,71
555,277	126,57
555,519	118,47
555,762	109,46
556,004	102,7
556,246	93,72
556,488	88,54
556,731	79,51
556,973	76,15
557,215	70,98
557,457	66,63
557,699	64,44
557,941	57,2
558,183	53,29
558,426	52,95
558,668	47,79
558,91	46,43
559,152	44,07
559,394	40,77
559,636	40,58
559,878	39,34
560,12	37,29
560,362	35,99
560,604	36,15
560,845	33,44
561,087	32,13
561,329	34,18
561,571	32,22
561,813	31,86
562,055	30,45
562,297	30,3
562,538	29,65
562,78	30,86
563,022	28,15
563,264	28,14
563,505	27,74
563,747	27,09
563,989	24,99
564,23	23,34
564,472	20,45
564,714	22,12
564,955	23,1
565,197	20,31
565,438	22,7
565,68	25,17
565,921	23,22
566,163	24,22
566,404	22,87
566,646	24,11
566,887	25,85
567,129	25,69
567,37	23,73
567,612	25,35
567,853	22,72
568,094	23,36
568,336	22,91
568,577	21,91
568,818	21,73
569,06	18,08
569,301	15,64
569,542	15,16
569,783	15,93
570,025	15,62
570,266	16,36
570,507	18,1
570,748	17,75
570,989	19,75
571,23	22,32
571,472	22,43
571,713	21,99
571,954	23,47
572,195	22,57
572,436	23,48
572,677	26,72
572,918	30,6
573,159	31,77
573,4	34,75
573,641	39,29
573,882	44,94
574,123	47,1
574,364	45,91
574,604	49,65
574,845	52,74
575,086	57,28
575,327	62,51
575,568	66,38
575,809	71,02
576,049	75,7
576,29	80,43
576,531	90,15
576,771	97,74
577,012	104,82
577,253	109,6
577,494	114,58
577,734	118,49
577,975	122,17
578,215	126,28
578,456	127,45
578,697	131,28
578,937	138,07
579,178	143,47
579,418	147,42
579,659	152,11
579,899	154,84
580,14	158,56
580,38	160,3
580,62	162,98
580,861	166,68
581,101	168,37
581,342	169,88
581,582	168,95
581,822	173,97
582,063	175,06
582,303	178,5
582,543	179,62
582,783	181,35
583,024	183,66
583,264	186,82
583,504	187,85
583,744	191,9
583,984	193,29
584,224	197,83
584,465	200,07
584,705	203,59
584,945	205,92
585,185	206,28
585,425	209,01
585,665	208,69
585,905	209,36
586,145	208,46
586,385	205,62
586,625	205,63
586,865	203,61
587,105	200,37
587,345	196,97
587,585	194,37
587,824	191,31
588,064	189,12
588,304	185,29
588,544	183,62
588,784	180,72
589,024	182,55
589,263	182,1
589,503	181,2
589,743	182,87
589,982	183,32
590,222	183,54
590,462	181,34
590,701	178,7
590,941	178,31
591,181	173,28
591,42	168,14
591,66	165,21
591,899	162,92
592,139	157,13
592,378	153,18
592,618	149,13
592,857	144,5
593,097	143,15
593,336	139,94
593,576	138,04
593,815	136,53
594,055	133,63
594,294	133,52
594,533	132,82
594,773	132,27
595,012	132,54
595,251	132,41
595,491	133,39
595,73	134,48
595,969	135,02
596,208	135,85
596,447	138,03
596,687	137,19
596,926	135,44
597,165	131,17
597,404	128,8
597,643	125,25
597,882	121,56
598,121	119,46
598,36	118,23
598,599	116,3
598,838	113,64
599,077	106,98
599,316	103,96
599,555	101,54
599,794	100,95
600,033	101,54
600,272	102
600,511	100,03
600,75	101,01
600,989	100,88
601,228	100,85
601,466	101,06
601,705	99,39
601,944	98,53
602,183	99,57
602,422	96,59
602,66	94,75
602,899	92,82
603,138	91,52
603,376	88,77
603,615	86,11
603,854	82,5
604,092	79,4
604,331	80,09
604,569	79,62
604,808	79,58
605,047	82,66
605,285	84,46
605,524	86,45
605,762	87,74
606	94,27
606,239	102,82
606,477	113,98
606,716	124,71
606,954	144,3
607,193	170,25
607,431	205,74
607,669	248,99
607,908	297,58
608,146	351,83
608,384	403,5
608,622	451,78
608,861	496,2
609,099	537,9
609,337	576,52
609,575	610,64
609,813	642,9
610,052	670,41
610,29	690,6
610,528	709,69
610,766	727,56
611,004	744,66
611,242	759,28
611,48	774,28
611,718	783,81
611,956	794,74
612,194	803,92
612,432	810,73
612,67	816,3
612,908	823,16
613,146	826,08
613,384	826,91
613,621	824,12
613,859	818,84
614,097	810,27
614,335	795,21
614,573	770,82
614,811	737,85
615,048	694,44
615,286	649,16
615,524	597,12
615,761	545,6
615,999	498,73
616,237	455,86
616,474	417,45
616,712	382,52
616,95	348,97
617,187	319,68
617,425	295,64
617,662	276
617,9	256,98
618,137	239,52
618,375	221,71
618,612	205,51
618,85	194,11
619,087	184,5
619,325	174,5
619,562	164,28
619,799	155,69
620,037	149,91
620,274	143,06
620,511	138,96
620,749	133,34
620,986	131,15
621,223	129,68
621,461	128,55
621,698	129,15
621,935	128,98
622,172	126,23
622,409	128,96
622,647	126,78
622,884	127,76
623,121	130,51
623,358	131,77
623,595	132,86
623,832	133,73
624,069	131,71
624,306	134,75
624,543	136,4
624,78	136,78
625,017	135,83
625,254	137,56
625,491	139,38
625,728	142,1
625,965	142,72
626,202	140,98
626,438	140,96
626,675	141,15
626,912	143,73
627,149	144,58
627,386	146,2
627,622	148,21
627,859	151,21
628,096	152,22
628,333	153,42
628,569	153,4
628,806	155,52
629,043	153,6
629,279	153,68
629,516	154,84
629,752	151,46
629,989	152
630,225	147,08
630,462	143,9
630,699	140,71
630,935	137,85
631,171	133,49
631,408	131,37
631,644	125,79
631,881	120,08
632,117	114,66
632,354	112,36
632,59	107,68
632,826	103,85
633,063	100,77
633,299	98,74
633,535	94,19
633,771	90,51
634,008	87,51
634,244	82,01
634,48	76,1
634,716	71,99
634,953	64,26
635,189	57,37
635,425	54
635,661	49,45
635,897	43,18
636,133	37,64
636,369	33,2
636,605	28,09
636,841	24,47
637,077	23,36
637,313	20,93
637,549	20,77
637,785	18,95
638,021	17,94
638,257	15,98
638,493	17,02
638,729	14,87
638,965	16,22
639,2	17,07
639,436	16,12
639,672	15,96
639,908	14,76
640,144	18,12
640,379	19,21
640,615	16,73
640,851	18,94
641,086	19,65
641,322	18,74
641,558	20,01
641,793	19,72
642,029	18,81
642,264	19,36
642,5	20,23
642,736	17,6
642,971	18,74
643,207	18,43
643,442	18,03
643,678	19,02
643,913	18,71
644,148	18,48
644,384	20,92
644,619	20,12
644,855	20,93
645,09	22,32
645,325	21,04
645,561	21,58
645,796	18,86
646,031	22,52
646,266	21,45
646,502	20,8
646,737	24,3
646,972	25,67
647,207	27,84
647,442	26,32
647,678	25,84
647,913	29,69
648,148	31,71
648,383	32,51
648,618	34,45
648,853	34,45
649,088	38,87
649,323	41,87
649,558	43,05
649,793	43,38
650,028	44,34
650,263	42,26
650,498	43,71
650,733	43,55
650,968	42,46
651,202	45,23
651,437	44,34
651,672	41,37
651,907	41,41
652,142	42,49
652,376	42,96
652,611	46,23
652,846	47,83
653,081	48,74
653,315	47,01
653,55	47,94
653,785	48,01
654,019	48,34
654,254	45,22
654,488	44,61
654,723	40,85
654,958	38,79
655,192	37,01
655,427	32,95
655,661	32,93
655,896	33,2
656,13	33,84
656,364	30,22
656,599	26,96
656,833	30,15
657,068	30,49
657,302	29,55
657,536	27,23
657,771	28,45
658,005	28,02
658,239	29,96
658,474	27,85
658,708	28,83
658,942	28,95
659,176	28,36
659,41	25,92
659,645	25,23
659,879	24,97
660,113	21,84
660,347	21,66
660,581	20,44
660,815	19,26
661,049	19,02
661,283	16,73
661,517	16,16
661,751	14,85
661,985	14,29
662,219	14,51
662,453	13,55
662,687	15,03
662,921	11,28
663,155	9,7
663,389	4,75
663,622	4,84
663,856	5,2
664,09	1,44
664,324	-0,68
664,558	-0,73
664,791	-1,18
665,025	-1,46
665,259	-1,08
665,492	-2,74
665,726	-0,99
665,96	-1,3
666,193	-3,57
666,427	-4
666,661	-4,63
666,894	-7,1
667,128	-8,64
667,361	-6,78
667,595	-7,45
667,828	-7,6
668,062	-7,91
668,295	-8,41
668,529	-7,65
668,762	-6,79
668,995	-6,74
669,229	-3,61
669,462	-3,7
669,695	-2,26
669,929	-4,81
670,162	-2,92
670,395	-4,24
670,629	-2,01
670,862	-0,42
671,095	-2,32
671,328	-2,33
671,561	-4,11
671,795	-2,82
672,028	-1,96
672,261	-1,98
672,494	-1,17
672,727	-2,09
672,96	-1,3
673,193	-1,44
673,426	2,51
673,659	3,57
673,892	4,43
674,125	4,78
674,358	4,93
674,591	3,62
674,824	2,25
675,057	1,59
675,29	-0
675,523	1,69
675,755	-0,56
675,988	0,02
676,221	1,49
676,454	0,36
676,687	1,37
676,919	-1,49
677,152	0,2
677,385	-0,99
677,617	-0,81
677,85	0,22
678,083	-2,16
678,315	0,03
678,548	-0,78
678,78	0,72
679,013	0,29
679,246	0,9
679,478	1,73
679,711	0,14
679,943	1,59
680,175	-1,27
680,408	0,69
680,64	-2,9
680,873	-1,85
681,105	-2,01
681,338	0,37
681,57	-0,59
681,802	0,06
682,034	1,56
682,267	5,01
682,499	6,66
682,731	5,21
682,964	6,55
683,196	5,33
683,428	3,99
683,66	3,89
683,892	5,63
684,124	8,64
684,356	11,27
684,589	12,31
684,821	12,44
685,053	12,92
685,285	13,71
685,517	14,67
685,749	15
685,981	15,16
686,213	15,67
686,445	16,38
686,676	15,29
686,908	15,45
687,14	13,73
687,372	15,38
687,604	12,51
687,836	14,82
688,068	14,78
688,299	14,56
688,531	13,45
688,763	16,88
688,995	15,72
689,226	18,23
689,458	15,46
689,69	14,13
689,921	13,45
690,153	13,29
690,384	15,28
690,616	14,91
690,848	14,56
691,079	12,88
691,311	10,78
691,542	6,8
691,774	4,99
692,005	6,11
692,237	7,34
692,468	6,09
692,699	4,9
692,931	5,03
693,162	3,46
693,393	2,8
693,625	1,74
693,856	1,53
694,087	2,42
694,319	3,91
694,55	3,19
694,781	3,03
695,012	1,94
695,243	0,3
695,475	0,3
695,706	-0,82
695,937	-2,5
696,168	-2,71
696,399	-5,34
696,63	-5,33
696,861	-5,76
697,092	-3,28
697,323	-0,42
697,554	-0,54
697,785	-1,02
698,016	-0,38
698,247	-1,47
698,478	-1,54
698,709	-0,16
698,94	2,5
699,171	2,13
699,401	-1,76
699,632	0,08
699,863	-2,5
700,094	-2,59
700,325	0,22
700,555	2,03
700,786	3,97
701,017	3,06
701,247	2,86
701,478	4,04
701,709	3,88
701,939	4,1
702,17	5,48
702,401	8,15
702,631	8,74
702,862	8,63
703,092	7,81
703,323	10,88
703,553	13,43
703,784	15,41
704,014	18,46
704,244	17,1
704,475	16,09
704,705	17,18
704,936	18,09
705,166	19,31
705,396	21,24
705,627	23,53
705,857	25,46
706,087	27,76
706,317	28,42
706,548	30,53
706,778	32,07
707,008	34,11
707,238	35,72
707,468	35,24
707,698	32,57
707,928	31,82
708,158	31,89
708,389	31,77
708,619	30,78
708,849	31,13
709,079	33
709,309	32,36
709,539	30,42
709,768	32,06
709,998	35,14
710,228	34,32
710,458	32,83
710,688	30,02
710,918	28,56
711,148	26,94
711,378	26,23
711,607	24,76
711,837	23,03
712,067	22,85
712,297	20,4
712,526	19,02
712,756	19,17
712,986	15,62
713,215	11,32
713,445	10,38
713,674	9,33
713,904	6,06
714,134	7,08
714,363	5
714,593	3,01
714,822	2,69
715,052	2,43
715,281	2,42
715,511	1,37
715,74	0,35
715,969	-1,34
716,199	-3,4
716,428	-4,3
716,657	-5,47
716,887	-4,87
717,116	-9,44
717,345	-9,07
717,575	-9,49
717,804	-9,73
718,033	-10,85
718,262	-13,43
718,492	-12,2
718,721	-12,73
718,95	-13,11
719,179	-14,14
719,408	-13,33
719,637	-15,31
719,866	-16,94
720,095	-14,96
720,324	-14,86
720,553	-18,56
720,782	-20,13
721,011	-18,41
721,24	-19,51
721,469	-19,85
721,698	-17,9
721,927	-17,08
722,156	-18,43
722,385	-17,64
722,613	-15,79
722,842	-15,74
723,071	-13,98
723,3	-11,84
723,529	-12,3
723,757	-11,37
723,986	-14,83
724,215	-14,35
724,443	-13,11
724,672	-12,27
724,901	-11,04
725,129	-9,52
725,358	-5,36
725,586	-7,45
725,815	-7,47
726,043	-6,8
726,272	-7,32
726,5	-8,53
726,729	-7,72
726,957	-10,16
727,186	-12,11
727,414	-10,87
727,642	-8,8
727,871	-7,14
728,099	-7,87
728,327	-8,44
728,556	-7,84
728,784	-9,25
729,012	-11,78
729,241	-9,96
729,469	-10,35
729,697	-12,08
729,925	-11,3
730,153	-11,91
730,381	-12,9
730,61	-13,47
730,838	-16,02
731,066	-14,86
731,294	-15,35
731,522	-17,53
731,75	-18,88
731,978	-19,31
732,206	-20,74
732,434	-23,35
732,662	-23,61
732,89	-25,48
733,118	-26,64
733,346	-26,37
733,573	-25,99
733,801	-25,72
734,029	-20,94
734,257	-20,14
734,485	-18,6
734,712	-17,46
734,94	-18,84
735,168	-17,1
735,396	-17
735,623	-16,56
735,851	-14,97
736,078	-12,95
736,306	-12,51
736,534	-12,38
736,761	-12,2
736,989	-13,86
737,216	-14,61
737,444	-16,07
737,671	-13,91
737,899	-9,55
738,126	-10,59
738,354	-9,59
738,581	-8,33
738,809	-7,11
739,036	-8,89
739,263	-8,69
739,491	-9,39
739,718	-8,17
739,945	-4,24
740,173	-3,26
740,4	-3,19
740,627	-3,21
740,854	-4,2
741,081	-5,81
741,309	-6,17
741,536	-8,9
741,763	-9,41
741,99	-7,82
742,217	-8,69
742,444	-8,23
742,671	-7,89
742,898	-8,2
743,125	-9,47
743,352	-12,48
743,579	-15,09
743,806	-14,52
744,033	-12,05
744,26	-10,63
744,487	-10,42
744,714	-11,63
744,941	-12,91
745,167	-9,2
745,394	-9,52
745,621	-10,75
745,848	-10,84
746,075	-8,6
746,301	-6,12
746,528	-2,58
746,755	-3,59
746,981	-5,08
747,208	-2,55
747,435	-0,99
747,661	-0,69
747,888	1,59
748,114	-0,2
748,341	1,43
748,567	2,76
748,794	2,02
749,02	0,94
749,247	-0,06
749,473	-0,74
749,7	-1,02
749,926	-1,44
750,152	1,27
750,379	2,51
750,605	4,84
750,831	4,54
751,058	3,62
751,284	1,6
751,51	3,11
751,737	3,25
751,963	3,13
752,189	1,04
752,415	-0,29
752,641	-0,35
752,867	-1,85
753,094	-3,75
753,32	-3,73
753,546	-5,93
753,772	-4,45
753,998	-4,77
754,224	-6,86
754,45	-8,14
754,676	-8,65
754,902	-8,34
755,128	-7,82
755,354	-9,61
755,579	-8,38
755,805	-7,65
756,031	-8,41
756,257	-9,16
756,483	-9,49
756,709	-11,19
756,934	-11,82
757,16	-12,22
757,386	-11,75
757,612	-13,39
757,837	-15,01
758,063	-13,8
758,289	-11,01
758,514	-12,34
758,74	-14,79
758,965	-17,3
759,191	-15,43
759,416	-13
759,642	-11,23
759,868	-10,91
760,093	-7,8
760,318	-10,3
760,544	-9,15
760,769	-10,41
760,995	-9,9
761,22	-9,49
761,445	-6,6
761,671	-5,4
761,896	-3,65
762,121	-3,93
762,347	-2,7
762,572	-4,48
762,797	-5,13
763,022	-4,46
763,248	-2,46
763,473	-2,07
763,698	-1,33
763,923	-0,08
764,148	-1,2
764,373	-1,96
764,598	-0,73
764,823	0,83
765,048	-1,17
765,273	-3,41
765,498	-4,27
765,723	-2
765,948	0,27
766,173	-1,69
766,398	-2,72
766,623	-4,34
766,848	-3,75
767,073	-6,6
767,298	-5,68
767,522	-6,92
767,747	-6,62
767,972	-8,16
768,197	-8,78
768,421	-11,67
768,646	-13,9
768,871	-16,92
769,095	-16,52
769,32	-15,54
769,545	-16
769,769	-14,02
769,994	-13,68
770,218	-13,88
770,443	-12,74
770,667	-13,65
770,892	-13,29
771,116	-14,11
771,341	-12,89
771,565	-13,67
771,79	-13,8
772,014	-14,19
772,238	-15,17
772,463	-12,87
772,687	-12,08
772,911	-13,24
773,136	-14,44
773,36	-13,41
773,584	-12
773,808	-14,03
774,033	-13,13
774,257	-12,25
774,481	-13,51
774,705	-13,63
774,929	-12,12
775,153	-12,05
775,377	-10,23
775,602	-9,67
775,826	-8,84
776,05	-7,49
776,274	-9,1
776,498	-9,22
776,722	-10,81
776,945	-10,48
777,169	-10,99
777,393	-12,78
777,617	-11,97
777,841	-11,49
778,065	-9,01
778,289	-10,24
778,512	-9,52
778,736	-8,23
778,96	-9,33
779,184	-7,26
779,407	-9,11
779,631	-10,29
779,855	-10,64
780,078	-8,87
780,302	-10,76
780,526	-13,69
780,749	-11,96
780,973	-11,47
781,196	-12,66
781,42	-12,98
781,643	-13,65
781,867	-13,46
782,09	-15,33
782,314	-16,96
782,537	-17,82
782,76	-18,64
782,984	-17,79
783,207	-16,7
783,431	-17,8
783,654	-18,51
783,877	-19,24
784,1	-21,47
784,324	-20,72
784,547	-22,29
784,77	-25,23
784,993	-27,36
785,216	-26,92
785,44	-27,21
785,663	-28,81
785,886	-25,56
786,109	-26,14
786,332	-25
786,555	-24,62
786,778	-23,57
787,001	-23,5
787,224	-20,32
787,447	-18,46
787,67	-18,3
787,893	-17,74
788,116	-17,27
788,339	-16,01
788,561	-15,72
788,784	-18,75
789,007	-18,8
789,23	-18,92
789,453	-18,82
789,675	-20,21
789,898	-22,88
790,121	-24,42
790,344	-23,81
790,566	-22,92
790,789	-23,96
791,012	-21,16
791,234	-18,99
791,457	-14,83
791,679	-14,53
791,902	-14,57
792,124	-14,2
792,347	-14,23
792,569	-14,14
792,792	-16,81
793,014	-15,32
793,237	-12,94
793,459	-11,63
793,681	-11,2
793,904	-11,49
794,126	-13,33
794,348	-12,98
794,571	-11,88
794,793	-13,12
795,015	-12,74
795,237	-12,94
795,46	-12,43
795,682	-11,27
795,904	-8,73
796,126	-9,37
796,348	-8,31
796,57	-5,83
796,792	-4,21
797,014	-1,61
797,237	-0,82
797,459	0,39
797,681	2,84
797,903	0,43
798,124	-0,31
798,346	7,94
798,568	9,56
798,79	12,36
799,012	12,32
799,234	12,51
799,456	13,39
799,678	14,18
799,899	13,1
800,121	9,93
800,343	8,96
800,565	8,13
800,786	8,24
801,008	9,33
801,23	8,74
801,451	9,17
801,673	7,59
801,895	7,23
802,116	8,12
802,338	8,07
802,559	7,53
802,781	4,78
803,002	6,19
803,224	7,67
803,445	5,63
803,667	5,78
803,888	4,54
804,109	5,88
804,331	4,45
804,552	5,38
804,773	8,09
804,995	6,52
805,216	-4
805,437	-5,25
805,658	-7,18
805,88	-8,06
806,101	-7,3
806,322	-7,55
806,543	-6,89
806,764	-8,89
806,985	-7,47
807,207	-7,04
807,428	-6,34
807,649	-8,69
807,87	-10,19
808,091	-10,63
808,312	-10,66
808,533	-6,51
808,754	-5,49
808,975	-6,8
809,195	-3,67
809,416	-2,14
809,637	-2,33
809,858	-3,15
810,079	-4,05
810,3	-1,5
810,52	-2
810,741	-4,44
810,962	-6,52
811,183	-5,75
811,403	-6,18
811,624	-6,69
811,845	-5,53
812,065	-4,05
812,286	-4,55
812,506	-5,24
812,727	-5,54
812,948	-6,27
813,168	-4,45
813,389	-6,05
813,609	-4,09
813,83	-4,87
814,05	-4,82
814,27	-5,54
814,491	-3,38
814,711	-4,04
814,931	-5,03
815,152	-5,47
815,372	-7,3
815,592	-7,8
815,813	-8,57
816,033	-12,35
816,253	-12,6
816,473	-12,54
816,694	-12,76
816,914	-12,62
817,134	-13,24
817,354	-14,62
817,574	-12,22
817,794	-12,23
818,014	-12,94
818,234	-13,67
818,454	-15,66
818,674	-17,65
818,894	-20,15
819,114	-17,05
819,334	-16,51
819,554	-13,88
819,774	-11,52
819,994	-13,15
820,214	-12,14
820,433	-12,2
820,653	-12,73
820,873	-13,34
821,093	-12,42
821,312	-13,63
821,532	-12,57
821,752	-11,62
821,972	-13,34
822,191	-13,63
822,411	-15,03
822,63	-14,49
822,85	-13,2
823,07	-14,54
823,289	-13,45
823,509	-14,51
823,728	-14,24
823,948	-16,32
824,167	-17,07
824,387	-18,31
824,606	-17,86
824,825	-18,81
825,045	-19,53
825,264	-19,32
825,483	-17,93
825,703	-16,6
825,922	-19,49
826,141	-20,6
826,361	-22,33
826,58	-25,2
826,799	-26,68
827,018	-26,3
827,237	-27,02
827,456	-24,51
827,676	-22,92
827,895	-21,84
828,114	-20,09
828,333	-19,36
828,552	-17,93
828,771	-16,22
828,99	-16,78
829,209	-16,35
829,428	-13,37
829,647	-13,14
829,866	-12,37
830,084	-12,36
830,303	-11,65
830,522	-11,07
830,741	-9,28
830,96	-7,78
831,179	-7,62
831,397	-7,83
831,616	-6,49
831,835	-6,72
832,053	-5,75
832,272	-5,74
832,491	-5,28
832,709	-4,77
832,928	-3,44
833,147	-1,58
833,365	-0,87
833,584	0,73
833,802	1,41
834,021	3,14
834,239	2,7
834,458	0,46
834,676	-4,13
834,894	-5,77
835,113	-5,76
835,331	-7,22
835,55	-8,25
835,768	-7,6
835,986	-6,11
836,204	-9,29
836,423	-9,25
836,641	-9,89
836,859	-10,7
837,077	-10,49
837,296	-11,01
837,514	-12,11
837,732	-12,95
837,95	-13,65
838,168	-11,6
838,386	-11,97
838,604	-8,89
838,822	-9,01
839,04	-10,18
839,258	-9,79
839,476	-8,29
839,694	-7,7
839,912	-9,68
840,13	-9,62
840,348	-7,49
840,566	-9,34
840,783	-8,77
841,001	-10,47
841,219	-10,27
841,437	-8,57
841,655	-7,41
841,872	-8,34
842,09	-7,49
842,308	-6,57
842,525	-5,25
842,743	-5,57
842,961	-4,44
843,178	-5,72
843,396	-3,08
843,613	-1,93
843,831	-1,5
844,048	-1,06
844,266	-0,2
844,483	-0,68
844,701	-0,63
844,918	-2,01
845,136	-2,96
845,353	-5,6
845,57	-5,8
845,788	-3,15
846,005	-4,86
846,222	-6,71
846,439	-6,19
846,657	-5,6
846,874	-5,55
847,091	-8,74
847,308	-7,56
847,526	-9,77
847,743	-9,38
847,96	-8,44
848,177	-6,85
848,394	-6,85
848,611	-6,32
848,828	-8,35
849,045	-8,87
849,262	-10,42
849,479	-9,75
849,696	-11,92
849,913	-12,92
850,13	-15,9
850,347	-14,24
850,564	-14,01
850,78	-15,63
850,997	-18,45
851,214	-17,41
851,431	-17,3
851,647	-19,44
851,864	-18,94
852,081	-18,08
852,298	-20,1
852,514	-20,96
852,731	-20,04
852,948	-18,39
853,164	-18,8
853,381	-18,8
853,597	-18,9
853,814	-19,44
854,03	-22,04
854,247	-20,28
854,463	-20,53
854,68	-21,43
854,896	-21,67
855,113	-22,11
855,329	-21,83
855,545	-19,09
855,762	-20,18
855,978	-21,94
856,194	-24,16
856,411	-20,25
856,627	-18,19
856,843	-17,84
857,059	-17,96
857,275	-19,93
857,492	-19,58
857,708	-16,25
857,924	-16
858,14	-13,89
858,356	-13,72
858,572	-14,24
858,788	-15,01
859,004	-13,32
859,22	-15,02
859,436	-15,54
859,652	-16,91
859,868	-17,87
860,084	-18,88
860,3	-19,2
860,516	-18,31
860,731	-17,67
860,947	-19,88
861,163	-18,75
861,379	-18,91
861,595	-19,03
861,81	-18,84
862,026	-19,18
862,242	-20,09
862,457	-20,44
862,673	-18,92
862,889	-19,1
863,104	-20,22
863,32	-19,97
863,535	-19,22
863,751	-21,86
863,966	-19,19
864,182	-17,63
864,397	-18,83
864,613	-18,64
864,828	-19,4
865,044	-15,89
865,259	-14,06
865,474	-13,81
865,69	-12,71
865,905	-12,54
866,12	-13,3
866,336	-13,72
866,551	-13,07
866,766	-12,66
866,981	-13,56
867,196	-14,21
867,412	-13,63
867,627	-12,99
867,842	-14,08
868,057	-14,17
868,272	-13,86
868,487	-13,49
868,702	-14,94
868,917	-15,33
869,132	-14,02
869,347	-12,72
869,562	-13,05
869,777	-13,66
869,992	-14,89
870,207	-14,86
870,422	-15,35
870,636	-16,49
870,851	-17,88
871,066	-18,81
871,281	-19,89
871,495	-21,13
871,71	-21,4
871,925	-23,85
872,14	-24,92
872,354	-25,83
872,569	-25,81
872,783	-24
872,998	-23,36
873,213	-22,82
873,427	-21,72
873,642	-20,81
873,856	-19,19
874,071	-19,41
874,285	-19,39
874,5	-20,2
874,714	-20,88
874,928	-22,3
875,143	-23,74
875,357	-22,93
875,571	-24,26
875,786	-24,52
876	-23,7
876,214	-22,7
876,429	-23,72
876,643	-23,25
876,857	-22
877,071	-20,09
877,285	-20,01
877,499	-21,8
877,714	-20,55
877,928	-18,62
878,142	-20,31
878,356	-21,12
878,57	-19,92
878,784	-18,91
878,998	-20,4
879,212	-18,65
879,426	-20,43
879,639	-19,29
879,853	-21
880,067	-20,17
880,281	-21,46
880,495	-20,89
880,709	-18,82
880,922	-18,86
881,136	-17,77
881,35	-15,44
881,564	-14,45
881,777	-15,19
881,991	-15,05
882,205	-11,26
882,418	-9,98
882,632	-12,16
882,845	-12,74
883,059	-11,78
883,273	-12,77
883,486	-14,27
883,7	-13,88
883,913	-15,4
884,126	-14,47
884,34	-16,51
884,553	-19,09
884,767	-15,53
884,98	-16,41
885,193	-17,8
885,407	-19,35
885,62	-16,88
885,833	-16,53
886,046	-15,21
886,26	-16,87
886,473	-16,76
886,686	-18,32
886,899	-14,97
887,112	-16,35
887,326	-18,91
887,539	-18,6
887,752	-16,79
887,965	-19,48
888,178	-18,99
888,391	-19,08
888,604	-19,51
888,817	-21,42
889,03	-20,44
889,243	-20,11
889,455	-20,48
889,668	-20,71
889,881	-18,25
890,094	-19,23
890,307	-20,18
890,52	-18,03
890,732	-16,65
890,945	-16,52
891,158	-16,08
891,37	-18,81
891,583	-18,14
891,796	-15,74
892,008	-15,61
892,221	-16,05
892,434	-18,9
892,646	-20,38
892,859	-19,82
893,071	-18,82
893,284	-17,77
893,496	-19,26
893,709	-19,23
893,921	-17,72
894,133	-17,9
894,346	-19,05
894,558	-18,68
894,771	-19,06
894,983	-16,3
895,195	-15,97
895,407	-14,93
895,62	-17,13
895,832	-16,33
896,044	-15,26
896,256	-15,82
896,468	-17,69
896,681	-16,45
896,893	-16,88
897,105	-16,75
897,317	-17,37
897,529	-15,5
897,741	-14,4
897,953	-12,25
898,165	-12,97
898,377	-15,29
898,589	-14,32
898,801	-15,38
899,013	-12,87
899,224	-10,84
899,436	-10,02
899,648	-11,48
899,86	-11,8
900,072	-10,48
900,283	-9,54
900,495	-8,64
900,707	-7,79
900,919	-8,82
901,13	-7,69
901,342	-7,41
901,554	-9,72
901,765	-8,24
901,977	-11,45
902,188	-12,23
902,4	-14,41
902,611	-14,8
902,823	-15,99
903,034	-16,64
903,246	-17,47
903,457	-16,7
903,669	-17,46
903,88	-18,15
904,091	-19,68
904,303	-18,76
904,514	-18,99
904,725	-18,33
904,936	-17,5
905,148	-17,51
905,359	-15,36
905,57	-16,49
905,781	-15,88
905,992	-15,96
906,204	-14,09
906,415	-15,44
906,626	-17,47
906,837	-16,62
907,048	-17,56
907,259	-18,3
907,47	-20,61
907,681	-20,35
907,892	-19,63
908,103	-19,69
908,314	-22,5
908,525	-19,97
908,735	-19,51
908,946	-19,17
909,157	-20,47
909,368	-17,27
909,579	-15,27
909,789	-15,93
910	-18,88
910,211	-17,43
910,421	-17,46
910,632	-16,55
910,843	-18,1
911,053	-16,18
911,264	-14,77
911,475	-14,07
911,685	-14,09
911,896	-13,92
912,106	-13,68
912,317	-16,38
912,527	-15,97
912,737	-16,05
912,948	-14,66
913,158	-12,94
913,369	-14,84
913,579	-12,35
913,789	-12,08
914	-8,55
914,21	-9,01
914,42	-9,19
914,63	-10,18
914,841	-9,01
915,051	-8,69
915,261	-8,82
915,471	-7,77
915,681	-6,09
915,891	-6,84
916,101	-8,16
916,311	-8,38
916,521	-6,45
916,731	-5,31
916,941	-3,3
917,151	-3,65
917,361	-2,29
917,571	-5,06
917,781	-7,51
917,991	-9,39
918,201	-9,56
918,411	-12,3
918,621	-11,78
918,83	-11
919,04	-11,73
919,25	-11,6
919,46	-10,38
919,669	-14,07
919,879	-13,5
920,089	-16,08
920,298	-16,4
920,508	-17,41
920,717	-16,79
920,927	-17,82
921,136	-16,83
921,346	-17,64
921,555	-19,65
921,765	-19,18
921,974	-19,74
922,184	-21,38
922,393	-23,2
922,603	-24
922,812	-21,04
923,021	-20,79
923,23	-22,59
923,44	-25,98
923,649	-25,87
923,858	-26,15
924,067	-26,62
924,277	-27,23
924,486	-26,11
924,695	-25,59
924,904	-23,89
925,113	-24,42
925,322	-22,79
925,531	-22,71
925,74	-24,37
925,949	-25,85
926,158	-23,13
926,367	-22,67
926,576	-22,02
926,785	-22,23
926,994	-22,43
927,203	-22,38
927,412	-22,89
927,621	-23,18
927,83	-21,05
928,038	-20,55
928,247	-20,89
928,456	-20,57
928,665	-20
928,873	-17,51
929,082	-15,88
929,291	-16,18
929,499	-15,32
929,708	-16,23
929,916	-14,76
930,125	-15,61
930,333	-16,76
930,542	-14,27
930,75	-11
930,959	-9,98
931,167	-10,02
931,376	-11,71
931,584	-10,5
931,793	-12,35
932,001	-12,38
932,209	-11,92
932,418	-13,64
932,626	-15,14
932,834	-17,94
933,042	-20,61
933,251	-21,14
933,459	-20,91
933,667	-21,27
933,875	-20,14
934,083	-19,26
934,291	-19,26
934,499	-18,82
934,707	-17,93
934,915	-17,56
935,123	-16,45
935,331	-18,83
935,539	-21,48
935,747	-23,03
935,955	-22,97
936,163	-23,05
936,371	-21,96
936,579	-20,75
936,787	-20,51
936,995	-22,17
937,202	-24,52
937,41	-25,16
937,618	-25,52
937,826	-24,73
938,033	-27,43
938,241	-27,57
938,449	-26,83
938,656	-26,08
938,864	-26,69
939,071	-26,59
939,279	-23,37
939,486	-19,93
939,694	-19,06
939,901	-19,61
940,109	-19,52
940,316	-20,55
940,524	-21,01
940,731	-22,07
940,939	-19,95
941,146	-20,95
941,353	-22,63
941,561	-23,87
941,768	-23,11
941,975	-20,08
942,182	-19,77
942,39	-19,95
942,597	-17,13
942,804	-17,88
943,011	-17,03
943,218	-16,68
943,425	-16,18
943,632	-16,05
943,839	-16,83
944,046	-17,98
944,253	-17,6
944,46	-17,51
944,667	-15,2
944,874	-15,04
945,081	-15,06
945,288	-13,76
945,495	-10,89
945,702	-11,78
945,909	-14,54
946,115	-14,14
946,322	-14,37
946,529	-15,18
946,736	-15
946,942	-14,62
947,149	-14,38
947,356	-17,43
947,562	-18,07
947,769	-17,71
947,976	-17,62
948,182	-17,5
948,389	-19,1
948,595	-19,26
948,802	-19,76
949,008	-21,99
949,215	-20,92
949,421	-22,08
949,628	-23,1
949,834	-22,79
950,04	-22,97
950,247	-19,91
950,453	-18,42
950,659	-20,14
950,865	-18,54
951,072	-21,56
951,278	-21,04
951,484	-20,45
951,69	-22,46
951,896	-23,94
952,103	-23,29
952,309	-20,79
952,515	-22,63
952,721	-21,91
952,927	-21,34
953,133	-21,84
953,339	-22,71
953,545	-23,81
953,751	-22,45
953,957	-20,75
954,163	-21,81
954,369	-20,55
954,574	-21,91
954,78	-22,28
954,986	-20,77
955,192	-19,34
955,398	-19,78
955,603	-21,37
955,809	-21,18
956,015	-20,3
956,22	-21,08
956,426	-20,17
956,632	-21,8
956,837	-23,28
957,043	-21,96
957,248	-21,38
957,454	-20,64
957,66	-21,99
957,865	-22,5
958,07	-21,01
958,276	-22,1
958,481	-23,13
958,687	-25,42
958,892	-23,73
959,097	-24,5
959,303	-24,14
959,508	-24,53
959,713	-22,34
959,919	-21,86
960,124	-22,47
960,329	-23,4
960,534	-20,04
960,739	-19,87
960,945	-17,98
961,15	-17,17
961,355	-18,57
961,56	-21,03
961,765	-21,07
961,97	-22,18
962,175	-19,84
962,38	-22,34
962,585	-21,41
962,79	-23,32
962,995	-25,47
963,2	-25,23
963,404	-25,18
963,609	-27,36
963,814	-27,68
964,019	-29,4
964,224	-30,39
964,428	-28,61
964,633	-27,6
964,838	-27,42
965,042	-26,46
965,247	-28,26
965,452	-26,82
965,656	-25,13
965,861	-23,94
966,066	-25,89
966,27	-24,94
966,475	-22,81
966,679	-25,53
966,884	-26,42
967,088	-28,32
967,292	-28,26
967,497	-27,84
967,701	-28,46
967,906	-26,42
968,11	-24,62
968,314	-20,74
968,518	-22,43
968,723	-19,43
968,927	-19,63
969,131	-17,41
969,335	-14,21
969,539	-13,32
969,744	-11,6
969,948	-9,78
970,152	-8,74
970,356	-8,31
970,56	-8,39
970,764	-8,63
970,968	-6,67
971,172	-5,15
971,376	-3,99
971,58	-3,6
971,784	-3,6
971,988	-6,41
972,192	-4,52
972,395	-5,06
972,599	-5,13
972,803	-6,15
973,007	-3,71
973,21	-3,87
973,414	-3,45
973,618	-3,52
973,822	-3,96
974,025	-3,43
974,229	-4,17
974,432	-7,48
974,636	-9,21
974,84	-8,78
975,043	-8,81
975,247	-9,81
975,45	-10,66
975,654	-10,42
975,857	-9,18
976,06	-10,48
976,264	-11,57
976,467	-10,76
976,671	-10,1
976,874	-10,12
977,077	-11,25
977,28	-13,03
977,484	-15,35
977,687	-16,55
977,89	-13,82
978,093	-14,55
978,297	-13,34
978,5	-16,81
978,703	-14,74
978,906	-15,59
979,109	-15,71
979,312	-14,45
979,515	-14,64
979,718	-14,49
979,921	-15,09
980,124	-17,09
980,327	-16,56
980,53	-16,92
980,733	-14,87
980,936	-13,39
981,138	-14,2
981,341	-14,52
981,544	-13,81
981,747	-14,58
981,949	-16,13
982,152	-16,65
982,355	-17,71
982,558	-15,31
982,76	-17,13
982,963	-17,3
983,165	-15,72
983,368	-16,05
983,571	-15,73
983,773	-14,24
983,976	-15,15
984,178	-15,74
984,381	-15,36
984,583	-17,35
984,785	-15,64
984,988	-14,29
985,19	-12,46
985,392	-13,09
985,595	-15,63
985,797	-14,74
985,999	-12,99
986,202	-11,27
986,404	-10,56
986,606	-8,4
986,808	-8,44
987,01	-7,19
987,212	-8,38
987,415	-10,04
987,617	-9,27
987,819	-9,43
988,021	-8,2
988,223	-8,87
988,425	-9,24
988,627	-7,92
988,829	-10,73
989,031	-9,41
989,232	-10,5
989,434	-10,24
989,636	-9,36
989,838	-9,33
990,04	-8,03
990,242	-7,45
990,443	-10,1
990,645	-9,24
990,847	-7,38
991,048	-7,14
991,25	-8,7
991,452	-9,22
991,653	-9,61
991,855	-9,73
992,057	-11,56
992,258	-11,34
992,46	-12,18
992,661	-10,68
992,863	-12,95
993,064	-12,66
993,265	-14,7
993,467	-15,39
993,668	-13,55
993,87	-13,22
994,071	-13,71
994,272	-13,98
994,473	-13,46
994,675	-13,47
994,876	-13,95
995,077	-14,06
995,278	-13,25
995,48	-12,63
995,681	-14,8
995,882	-15,03
996,083	-15,92
996,284	-19,44
996,485	-19,29
996,686	-18,67
996,887	-19,84
997,088	-20,41
997,289	-21,92
997,49	-22,81
997,691	-24,01
997,892	-23,44
998,092	-19,36
998,293	-18,74
998,494	-19,58
998,695	-20,65
998,896	-19,46
999,096	-19,67
999,297	-19,32
999,498	-19,26
999,698	-20,94
999,899	-22,38
1000,1	-24,73
1000,3	-24,08
1000,501	-24,15
1000,701	-23,48
1000,902	-24,22
1001,102	-23,81
1001,303	-21,86
1001,503	-23,11
1001,704	-23,04
1001,904	-22,95
1002,105	-22,51
1002,305	-22,58
1002,505	-23,04
1002,706	-22,8
1002,906	-23,52
1003,106	-24,3
1003,306	-25
1003,507	-23,89
1003,707	-23,98
1003,907	-22,42
1004,107	-23,14
1004,307	-24,94
1004,507	-24,01
1004,707	-23,75
1004,907	-23,71
1005,107	-23,98
1005,308	-23,64
1005,507	-25,13
1005,707	-23,88
1005,907	-24
1006,107	-21,96
1006,307	-21,99
1006,507	-22,88
1006,707	-23,02
1006,907	-22,85
1007,106	-22,17
1007,306	-22,99
1007,506	-23,09
1007,706	-23,8
1007,905	-24,06
1008,105	-23,23
1008,305	-22,82
1008,504	-21,74
1008,704	-17,36
1008,903	-17,34
1009,103	-14,7
1009,303	-15,44
1009,502	-14,51
1009,702	-15,43
1009,901	-14,34
1010,1	-15,96
1010,3	-13,52
1010,499	-15,04
1010,699	-16,32
1010,898	-17
1011,097	-16
1011,296	-16,85
1011,496	-17,54
1011,695	-17,57
1011,894	-18,36
1012,093	-15,72
1012,293	-15,18
1012,492	-14,35
1012,691	-15,11
1012,89	-14,49
1013,089	-16,07
1013,288	-14,31
1013,487	-12,51
1013,686	-13,09
1013,885	-14,41
1014,084	-13,61
1014,283	-13,2
1014,482	-14,2
1014,681	-14,23
1014,88	-16,67
1015,078	-16,24
1015,277	-18,13
1015,476	-17,54
1015,675	-18,49
1015,873	-17,1
1016,072	-18,15
1016,271	-15,84
1016,47	-19,1
1016,668	-18,89
1016,867	-19,57
1017,065	-20,31
1017,264	-22,43
1017,463	-20,7
1017,661	-20,23
1017,86	-19,67
1018,058	-18,33
1018,256	-19,08
1018,455	-20,34
1018,653	-18,92
1018,852	-17,1
1019,05	-19,2
1019,248	-20,19
1019,447	-22,21
1019,645	-24,08
1019,843	-26
1020,041	-23,56
1020,24	-24,06
1020,438	-22,62
1020,636	-21,99
1020,834	-24,17
1021,032	-22,2
1021,23	-22,07
1021,428	-21,55
1021,626	-19,46
1021,824	-18,43
1022,022	-19,4
1022,22	-18,68
1022,418	-18,9
1022,616	-18,05
1022,814	-17,38
1023,012	-16,87
1023,21	-14,71
1023,408	-13,75
1023,606	-16,99
1023,803	-15,56
1024,001	-14,69
1024,199	-19,18
1024,397	-19,15
1024,594	-21,49
1024,792	-23,22
1024,99	-23,15
1025,187	-22,33
1025,385	-19,22
1025,582	-19,35
1025,78	-19,23
1025,977	-18,07
1026,175	-18,94
1026,372	-19,39
1026,57	-21,12
1026,767	-20,75
1026,965	-20,01
1027,162	-20,75
1027,359	-21,3
1027,557	-20,35
1027,754	-22,66
1027,951	-23,32
1028,148	-22,18
1028,346	-23,45
1028,543	-25,7
1028,74	-26
1028,937	-27,11
1029,134	-27,61
1029,331	-29,68
1029,528	-29,36
1029,725	-28,19
1029,923	-29,7
1030,12	-27,8
1030,317	-24,51
1030,513	-22,51
1030,71	-19,32
1030,907	-17,65
1031,104	-18,53
1031,301	-18,9
1031,498	-19,52
1031,695	-20,45
1031,892	-20,04
1032,088	-19,5
1032,285	-19,94
1032,482	-20,43
1032,678	-20,99
1032,875	-21,85
1033,072	-21,94
1033,268	-22,71
1033,465	-22,47
1033,662	-24,17
1033,858	-24,99
1034,055	-25,6
1034,251	-24,52
1034,448	-24,66
1034,644	-22,75
1034,84	-22,15
1035,037	-20,68
1035,233	-19,95
1035,43	-18,89
1035,626	-19,83
1035,822	-19,55
1036,019	-19,77
1036,215	-22,81
1036,411	-23,53
1036,607	-25,57
1036,803	-28,62
1037	-29,82
1037,196	-31,44
1037,392	-32,89
1037,588	-34,14
1037,784	-31,84
1037,98	-32,34
1038,176	-32,68
1038,372	-33,26
1038,568	-30,96
1038,764	-30,26
1038,96	-29,3
1039,156	-30,34
1039,352	-29,98
1039,547	-29,22
1039,743	-28,8
1039,939	-25,37
1040,135	-24,01
1040,331	-24,11
1040,526	-22,3
1040,722	-24,9
1040,918	-25,39
1041,113	-27,14
1041,309	-27,31
1041,505	-29,5
1041,7	-27,76
1041,896	-27,87
1042,091	-27,58
1042,287	-26,55
1042,482	-25,97
1042,678	-26,17
1042,873	-24,27
1043,069	-24,32
1043,264	-22,48
1043,459	-19,94
1043,655	-19,03
1043,85	-20,35
1044,045	-19,5
1044,24	-19,17
1044,436	-17,16
1044,631	-18,48
1044,826	-19,02
1045,021	-20,27
1045,216	-17,5
