Data from FLMT021711__11__16-30-38-991.txt Node

Date: Tue Nov 05 16:30:38 CET 2024
User: Etudiants TP
Spectrometer: FLMT02171
Trigger mode: 0
Integration Time (sec): 1.000000E-1
Scans to average: 5
Electric dark correction enabled: true
Nonlinearity correction enabled: false
Boxcar width: 15
XAxis mode: Wavelengths
Number of Pixels in Spectrum: 3648
>>>>>Begin Spectral Data<<<<<
194.658	-49.45
194.923	-46.88
195.188	-41.43
195.453	-40.68
195.717	-34.62
195.982	-33.89
196.247	-33.33
196.512	-35.34
196.777	-33.91
197.042	-33.12
197.307	-32.19
197.572	-29.89
197.837	-28.92
198.101	-27.81
198.366	-25.29
198.631	-23.21
198.896	-19.65
199.161	-15.51
199.425	-11.15
199.69	-3.21
199.955	-2.97
200.22	-4.57
200.484	-4.14
200.749	-5.27
201.014	-4.57
201.278	-4.19
201.543	-4.26
201.807	-4.57
202.072	-2.78
202.337	-3.38
202.601	-3.87
202.866	-4.45
203.13	-4.75
203.395	-6.22
203.659	-6.37
203.924	-9.06
204.189	-9.13
204.453	-7.24
204.717	-4.47
204.982	-4.5
205.246	-3.42
205.511	-2.55
205.775	-1.96
206.04	1.16
206.304	1.9
206.568	2.3
206.833	1.59
207.097	2.78
207.361	4.97
207.626	8.04
207.89	7.66
208.154	8.33
208.419	8.24
208.683	8.17
208.947	9.54
209.211	8.53
209.476	8.43
209.74	9.45
210.004	8.91
210.268	7.96
210.532	9.98
210.796	10.99
211.061	11.9
211.325	12.6
211.589	11.3
211.853	11.76
212.117	11.86
212.381	11.6
212.645	10.46
212.909	9.9
213.173	9.24
213.437	9.82
213.701	9.67
213.965	9.11
214.229	4.87
214.493	4.93
214.757	3.68
215.021	2.95
215.285	6.24
215.549	7.54
215.813	6.69
216.077	6.23
216.34	7.66
216.604	7.63
216.868	8.22
217.132	8.84
217.396	8.64
217.659	8.67
217.923	5.97
218.187	6.31
218.451	6.69
218.714	4.45
218.978	3.52
219.242	4.44
219.505	5.33
219.769	6.6
220.033	6.29
220.296	7.48
220.56	9.15
220.824	9.28
221.087	9.42
221.351	9.63
221.614	9.36
221.878	10.08
222.142	8.75
222.405	9.25
222.669	11.02
222.932	8.65
223.196	8.03
223.459	6.07
223.722	6.11
223.986	4.96
224.249	4.99
224.513	5.57
224.776	5.48
225.04	4.65
225.303	4.55
225.566	5.07
225.83	7.06
226.093	9.39
226.356	8.12
226.62	6.29
226.883	8.55
227.146	9.79
227.409	8.8
227.673	7.21
227.936	6.5
228.199	7.02
228.462	4.77
228.725	3.07
228.989	1.97
229.252	2.38
229.515	4.96
229.778	3.79
230.041	2.87
230.304	2.81
230.567	2.92
230.83	1.27
231.093	4.1
231.356	4.64
231.619	8.18
231.882	7.13
232.145	8.77
232.408	7.92
232.671	5.79
232.934	5.91
233.197	4.77
233.46	3.44
233.723	4.65
233.986	2.01
234.249	0.09
234.512	2.59
234.775	6.48
235.037	4.84
235.3	4.11
235.563	4.36
235.826	4.11
236.089	6.02
236.351	5.45
236.614	7.69
236.877	8.96
237.14	11.2
237.402	11.26
237.665	7.74
237.928	7.17
238.19	6.49
238.453	7.48
238.716	7.03
238.978	6.46
239.241	4.41
239.503	4.2
239.766	0.52
240.029	-0.34
240.291	0.14
240.554	-0.37
240.816	-1.25
241.079	-0.92
241.341	-1.89
241.604	-2.64
241.866	-5.05
242.129	-4.27
242.391	-2.42
242.653	-4.88
242.916	-7.11
243.178	-7.44
243.441	-6.29
243.703	-7.2
243.965	-8.91
244.228	-10.19
244.49	-10.43
244.752	-9.98
245.015	-10.38
245.277	-9.93
245.539	-10.37
245.801	-8.81
246.064	-9.04
246.326	-9.76
246.588	-8.92
246.85	-6.13
247.112	-6.26
247.374	-4.62
247.637	-1.68
247.899	-1.32
248.161	-0.65
248.423	-2.56
248.685	-1.32
248.947	-0.27
249.209	-0.06
249.471	0.89
249.733	1.2
249.995	0.94
250.257	1.08
250.519	-0.79
250.781	2.82
251.043	2.18
251.305	3.88
251.567	4.86
251.829	5.24
252.091	5.46
252.353	3.42
252.615	4.25
252.876	2.03
253.138	1.61
253.4	-0.91
253.662	-0.55
253.924	0.76
254.185	1.45
254.447	0.95
254.709	0.59
254.971	1.62
255.232	3.25
255.494	1.93
255.756	-0.19
256.017	-0.05
256.279	0.89
256.541	-0.13
256.802	-0.8
257.064	-0.19
257.326	-1.33
257.587	-0.17
257.849	2.35
258.11	2.98
258.372	3.51
258.633	4.2
258.895	3.01
259.156	1.47
259.418	0.86
259.679	-2.7
259.941	-3.88
260.202	-1.21
260.464	0.06
260.725	-0.44
260.987	0.13
261.248	-0.11
261.509	0.21
261.771	-0.06
262.032	0.82
262.293	1.24
262.555	2.29
262.816	1.06
263.077	-1.51
263.338	-2.89
263.6	-1.38
263.861	-2.25
264.122	-2.41
264.383	-1.53
264.645	-0.41
264.906	-0.49
265.167	-0.21
265.428	0.47
265.689	0.94
265.95	-0.19
266.211	1.47
266.473	1.88
266.734	0.05
266.995	-3.09
267.256	-1.37
267.517	-0.05
267.778	2.4
268.039	3.95
268.3	2.99
268.561	1.24
268.822	4.16
269.083	2.9
269.344	2.69
269.604	1.71
269.865	1.21
270.126	-2.8
270.387	-1.01
270.648	-0.41
270.909	-0.91
271.17	-1.99
271.43	-5.14
271.691	-7.31
271.952	-7.02
272.213	-5.76
272.473	-7.36
272.734	-5.19
272.995	-5.48
273.256	-5.08
273.516	-3.74
273.777	-5.88
274.038	-4.87
274.298	-7
274.559	-7.89
274.82	-4.14
275.08	-1.76
275.341	-0.02
275.601	-1.34
275.862	-2.13
276.122	-2.75
276.383	-2.46
276.643	-0.71
276.904	-2.55
277.164	-0.02
277.425	0.22
277.685	3.05
277.946	2.74
278.206	4.27
278.467	3.06
278.727	3.56
278.987	2.72
279.248	3.4
279.508	5.81
279.768	7.15
280.029	7.79
280.289	5.98
280.549	4.43
280.81	3.84
281.07	4.12
281.33	5.02
281.59	3.41
281.851	5.69
282.111	4.68
282.371	4.51
282.631	5.06
282.891	3.49
283.151	3.01
283.412	1.15
283.672	1
283.932	1
284.192	2.82
284.452	1.5
284.712	-0.53
284.972	-1.6
285.232	-4.35
285.492	-3.23
285.752	-5.43
286.012	-0.32
286.272	0.47
286.532	-0.14
286.792	-1.51
287.052	0.52
287.312	0.64
287.571	-0.75
287.831	0.03
288.091	-1.3
288.351	-2.53
288.611	1.62
288.871	0.55
289.13	0.03
289.39	-2.55
289.65	-0.45
289.91	-2.71
290.17	-0.74
290.429	2.21
290.689	0.69
290.949	-0.94
291.208	-0.94
291.468	1.57
291.728	3.4
291.987	4.02
292.247	2.14
292.506	4.61
292.766	7.98
293.026	6.87
293.285	8.34
293.545	9.17
293.804	10.38
294.064	8.43
294.323	6.65
294.583	6.69
294.842	7.2
295.102	7.19
295.361	7
295.621	8.22
295.88	7.47
296.139	6.94
296.399	9.07
296.658	4.79
296.917	4.82
297.177	3.61
297.436	5.38
297.695	2.7
297.955	5.02
298.214	3.91
298.473	3.53
298.732	5.1
298.992	6.84
299.251	7.73
299.51	3.1
299.769	2.31
300.028	3.34
300.287	4.28
300.547	3.88
300.806	1.93
301.065	5.58
301.324	6.25
301.583	4.47
301.842	1.35
302.101	-0.89
302.36	1.06
302.619	1.42
302.878	2.67
303.137	0.32
303.396	2.2
303.655	2.92
303.914	1.45
304.173	2.49
304.432	1.4
304.691	2.21
304.95	0.74
305.208	2.49
305.467	1.75
305.726	1.79
305.985	2.15
306.244	2.03
306.503	1.26
306.761	0.29
307.02	-2.63
307.279	-2.41
307.537	-0.61
307.796	-2.81
308.055	-6.04
308.314	-4.79
308.572	-7.23
308.831	-6.46
309.09	-7.16
309.348	-5.88
309.607	-6.72
309.865	-2.78
310.124	-2.66
310.382	-3.4
310.641	-2.75
310.9	-4.69
311.158	-3.04
311.417	-4.65
311.675	-4.16
311.933	-3.02
312.192	-2.61
312.45	-2.45
312.709	-1.2
312.967	-0.25
313.226	0.63
313.484	0.41
313.742	-0.73
314.001	-2.35
314.259	-2.96
314.517	-1.52
314.776	0.85
315.034	4.52
315.292	3.05
315.55	2.01
315.809	1.28
316.067	3.5
316.325	1.96
316.583	3.4
316.841	2.15
317.1	0.55
317.358	-1.5
317.616	-2.24
317.874	-4.23
318.132	-5.87
318.39	-4.78
318.648	-6.21
318.906	-5.88
319.164	-5.79
319.422	-6.07
319.68	-7.2
319.938	-6.94
320.196	-6.38
320.454	-5.82
320.712	-5.76
320.97	-6.17
321.228	-8.14
321.486	-6.81
321.744	-3.59
322.002	-3.16
322.26	-4.71
322.517	-5.71
322.775	-8.63
323.033	-10.96
323.291	-10.02
323.549	-8.21
323.806	-5.56
324.064	-4.8
324.322	-3.85
324.58	-4.42
324.837	-3.09
325.095	-3.75
325.353	-2.86
325.61	-0.52
325.868	-0.48
326.126	0.93
326.383	-0.6
326.641	-1.2
326.898	0.15
327.156	0.4
327.413	1.2
327.671	0.93
327.928	2.35
328.186	2.23
328.443	2.26
328.701	4.26
328.958	4.56
329.216	4.88
329.473	2.8
329.731	0.78
329.988	1.8
330.245	4.68
330.503	5.59
330.76	5.29
331.017	6.97
331.275	5.04
331.532	4.81
331.789	2.55
332.047	0.94
332.304	-1.48
332.561	-1.75
332.818	-2.15
333.076	-0.56
333.333	0.04
333.59	0.43
333.847	1.19
334.104	2.44
334.361	1.58
334.618	1.81
334.876	-0.18
335.133	-0.94
335.39	-2.15
335.647	-0.09
335.904	-3.44
336.161	-5.76
336.418	-7.06
336.675	-10.35
336.932	-8.95
337.189	-8.55
337.446	-7.14
337.703	-6.88
337.96	-10.25
338.216	-10.7
338.473	-13.22
338.73	-11.19
338.987	-10.93
339.244	-8.84
339.501	-11.48
339.757	-10.16
340.014	-9.72
340.271	-7.68
340.528	-5.62
340.785	-1.67
341.041	-1.47
341.298	-4.59
341.555	-5.35
341.811	-5.19
342.068	-7.21
342.325	-6.34
342.581	-5.22
342.838	-4.09
343.094	-3.55
343.351	-3.47
343.608	-6.11
343.864	-4.37
344.121	-3.24
344.377	-3.29
344.634	-3.16
344.89	-4.94
345.147	-4.88
345.403	-6.08
345.66	-6.98
345.916	-5.09
346.172	-6.82
346.429	-7.07
346.685	-8.9
346.942	-9.19
347.198	-11.44
347.454	-9.85
347.711	-10.04
347.967	-11.81
348.223	-13.18
348.48	-14.57
348.736	-13.36
348.992	-14.76
349.248	-11.54
349.504	-10.62
349.761	-10.63
350.017	-10.73
350.273	-10.48
350.529	-10.72
350.785	-10.19
351.041	-11.02
351.297	-10.59
351.554	-11.85
351.81	-13.04
352.066	-13.32
352.322	-12.95
352.578	-12.06
352.834	-11.88
353.09	-11.47
353.346	-12.48
353.602	-13.83
353.858	-14.46
354.114	-15.07
354.369	-14.35
354.625	-12.85
354.881	-13.75
355.137	-11.63
355.393	-11.44
355.649	-11.5
355.905	-10.04
356.16	-9.14
356.416	-8.84
356.672	-15.17
356.928	-14.37
357.183	-14.83
357.439	-16.3
357.695	-16.88
357.951	-14.24
358.206	-15.6
358.462	-15.34
358.718	-17.16
358.973	-16.87
359.229	-16.8
359.484	-14.89
359.74	-13
359.996	-13.21
360.251	-11.4
360.507	-11.92
360.762	-11.5
361.018	-9.99
361.273	-9.49
361.529	-6.74
361.784	-6.21
362.04	-3.54
362.295	-2.59
362.55	-2.33
362.806	-0.82
363.061	-0.25
363.316	0.57
363.572	1.88
363.827	2.2
364.082	0.43
364.338	0
364.593	1.5
364.848	2.19
365.104	0.65
365.359	4.1
365.614	3.45
365.869	1.47
366.124	2.19
366.38	0.69
366.635	2.62
366.89	4.56
367.145	4.18
367.4	6.11
367.655	6.05
367.91	6.53
368.165	6.8
368.42	3.83
368.675	4.16
368.93	3.71
369.185	3.05
369.44	1.43
369.695	2.36
369.95	0
370.205	-0.29
370.46	-0.44
370.715	-0.96
370.97	-1.24
371.225	-1.6
371.48	-0.87
371.734	-0.64
371.989	-0.38
372.244	0.02
372.499	0.34
372.754	-1.51
373.008	-3.06
373.263	-7.16
373.518	-5.27
373.773	-5.55
374.027	-5.13
374.282	-3.46
374.537	-4.37
374.791	-4.67
375.046	-4.62
375.301	-5.88
375.555	-7
375.81	-4.93
376.064	-5.21
376.319	-1.55
376.573	-1.49
376.828	-5.14
377.082	-2.33
377.337	-2.13
377.591	-4.23
377.846	-2.98
378.1	-2.16
378.355	-2.21
378.609	-2.55
378.863	-4.44
379.118	-3.07
379.372	-4.95
379.627	-7.11
379.881	-7.92
380.135	-7.64
380.389	-7.45
380.644	-6.57
380.898	-4.85
381.152	-4.07
381.407	-4.56
381.661	-2.61
381.915	-1.6
382.169	-1.26
382.423	-0.97
382.677	-2.41
382.932	-2.54
383.186	-2.02
383.44	-1.01
383.694	-0.92
383.948	-2.78
384.202	-3.78
384.456	-3.39
384.71	-0.7
384.964	-2.17
385.218	-0.72
385.472	1.27
385.726	1.09
385.98	1.72
386.234	1.67
386.488	-0.62
386.742	0.65
386.996	-2.35
387.249	-0.83
387.503	1.9
387.757	3.27
388.011	3.23
388.265	3.88
388.518	4.68
388.772	5.81
389.026	6.28
389.28	4.02
389.533	2.03
389.787	3.06
390.041	0.89
390.295	0.23
390.548	0.59
390.802	3.33
391.055	2.74
391.309	1.79
391.563	0.82
391.816	1.69
392.07	0.47
392.323	1.96
392.577	3.27
392.83	3.75
393.084	8.03
393.337	9.75
393.591	10.15
393.844	10.02
394.098	12.47
394.351	15.69
394.604	15.91
394.858	18.6
395.111	17.99
395.364	15.99
395.618	16.94
395.871	15.09
396.124	13.33
396.378	13.6
396.631	12.7
396.884	11.73
397.137	11.66
397.391	13.34
397.644	10.38
397.897	10.94
398.15	11.97
398.403	13.58
398.657	11.61
398.91	9.6
399.163	11.16
399.416	10.32
399.669	8.82
399.922	8.46
400.175	7.44
400.428	5.68
400.681	7.45
400.934	4.47
401.187	4.88
401.44	5.33
401.693	3.39
401.946	0.6
402.199	-2.56
402.452	-2.49
402.704	-5.77
402.957	-6.89
403.21	-4.92
403.463	-5.62
403.716	-4.42
403.969	-2.81
404.221	-4.26
404.474	-2.06
404.727	-0.83
404.98	2.06
405.232	1.85
405.485	3.64
405.738	4.11
405.99	4.95
406.243	5.04
406.496	7.58
406.748	8.64
407.001	6.24
407.253	6.91
407.506	7.56
407.759	9.03
408.011	6.53
408.264	7.66
408.516	5.64
408.769	2.62
409.021	1.8
409.274	1.29
409.526	3.62
409.778	2.36
410.031	5.17
410.283	4.68
410.536	8.57
410.788	8.8
411.04	7.37
411.293	8.05
411.545	7.9
411.797	6.29
412.049	7.62
412.302	7.79
412.554	8.85
412.806	7.52
413.058	6.17
413.311	6.33
413.563	6.46
413.815	4.61
414.067	1.25
414.319	-0.65
414.571	0.48
414.823	0.82
415.075	0.94
415.328	1.98
415.58	4.02
415.832	5.69
416.084	5.94
416.336	6.09
416.588	9.78
416.84	7.77
417.091	10.45
417.343	7.21
417.595	9.69
417.847	10.3
418.099	11.7
418.351	11.08
418.603	13.32
418.855	14.07
419.106	14.41
419.358	15.37
419.61	17.01
419.862	16.58
420.114	14.23
420.365	14.76
420.617	14.11
420.869	13.43
421.12	12.08
421.372	13.29
421.624	14.46
421.875	16.33
422.127	13.77
422.379	14.34
422.63	16.22
422.882	14.97
423.133	14.42
423.385	13.05
423.636	13.41
423.888	13.75
424.139	14.54
424.391	12.51
424.642	12.95
424.894	11.26
425.145	11.52
425.396	9.03
425.648	9.99
425.899	8.32
426.151	8.17
426.402	6.68
426.653	6.4
426.905	5.31
427.156	4.52
427.407	3.94
427.658	4.43
427.91	2.35
428.161	0.07
428.412	2.11
428.663	3.79
428.914	5.73
429.166	6.41
429.417	6.65
429.668	5.19
429.919	4.64
430.17	3.66
430.421	2.18
430.672	3.34
430.923	3.33
431.174	4.3
431.425	6.37
431.676	9.69
431.927	12.33
432.178	18.45
432.429	23.93
432.68	26.29
432.931	31.94
433.182	37.39
433.433	36.64
433.683	39.56
433.934	38.69
434.185	37.95
434.436	36.64
434.687	38.09
434.937	38.95
435.188	37.59
435.439	36.25
435.69	39.22
435.94	38.95
436.191	39.71
436.442	38.73
436.692	37.54
436.943	35.03
437.194	33.25
437.444	35.99
437.695	38.96
437.945	38.66
438.196	38.74
438.447	38.85
438.697	38.44
438.948	37.26
439.198	32.71
439.449	25.86
439.699	22.5
439.949	16.16
440.2	9.9
440.45	7.04
440.701	2.79
440.951	0
441.201	-1.01
441.452	-4
441.702	-3.09
441.952	-2.63
442.203	-1.2
442.453	-2.11
442.703	-1.77
442.953	-1.25
443.204	-0.6
443.454	-3.29
443.704	-1.8
443.954	-5.52
444.204	-5.2
444.455	-4.74
444.705	-2.15
444.955	-0.99
445.205	-2.02
445.455	-3.67
445.705	-2.73
445.955	-3.28
446.205	-4.07
446.455	-3.27
446.705	-3.07
446.955	-2.89
447.205	-1.41
447.455	-0.48
447.705	-1.94
447.955	-2.6
448.205	-2.08
448.454	-3.29
448.704	-2.98
448.954	-4.23
449.204	-4.64
449.454	-4.35
449.704	-5.46
449.953	-6.42
450.203	-5.38
450.453	-7.71
450.703	-5.99
450.952	-6.93
451.202	-5.77
451.452	-5.8
451.701	-3.09
451.951	-1
452.201	-1.35
452.45	-4.16
452.7	-3.91
452.949	-4.92
453.199	-5.09
453.448	-3.24
453.698	-1.59
453.947	-1.89
454.197	-2.33
454.446	-3.21
454.696	-2.72
454.945	-2.54
455.195	-3.72
455.444	-3.07
455.693	-1.03
455.943	-3.18
456.192	-1.53
456.442	-2.27
456.691	-2.42
456.94	-2.11
457.189	-3.59
457.439	-2.72
457.688	-0.73
457.937	-2
458.186	-0.87
458.436	-0.23
458.685	0.14
458.934	0.15
459.183	-0.13
459.432	2.05
459.681	1.98
459.93	1.58
460.179	1.97
460.429	1.26
460.678	3.61
460.927	5.54
461.176	3.67
461.425	2.88
461.674	4.85
461.923	6.72
462.172	7.12
462.42	7.82
462.669	9.29
462.918	8.16
463.167	9.03
463.416	7.35
463.665	8.38
463.914	7.86
464.162	6.22
464.411	7.04
464.66	8.39
464.909	7.3
465.158	8.99
465.406	7.69
465.655	9.07
465.904	10.98
466.152	9.55
466.401	11.01
466.65	12.42
466.898	10.74
467.147	7.51
467.395	5.93
467.644	7.3
467.893	8.14
468.141	6.98
468.39	5.89
468.638	5.29
468.887	4.05
469.135	3.52
469.384	2.85
469.632	1.59
469.88	1.14
470.129	2.41
470.377	-0.86
470.626	2.61
470.874	4.03
471.122	5.98
471.371	5.75
471.619	5.42
471.867	7.04
472.115	7.62
472.364	5.45
472.612	7.88
472.86	5.63
473.108	7.38
473.356	7.99
473.605	6.15
473.853	5.31
474.101	4.67
474.349	3
474.597	4.77
474.845	4.22
475.093	3.28
475.341	1.78
475.589	0.99
475.837	2.09
476.085	3.53
476.333	1.55
476.581	3.24
476.829	2.33
477.077	4.13
477.325	3.26
477.573	3.91
477.821	2.49
478.069	4.71
478.317	3.81
478.564	4.02
478.812	2.61
479.06	0.71
479.308	0.2
479.555	1.41
479.803	0.41
480.051	3.58
480.299	3.3
480.546	4.11
480.794	1.66
481.042	1.9
481.289	2.49
481.537	3.88
481.784	3.78
482.032	7.74
482.28	8.92
482.527	9.12
482.775	11.27
483.022	13.86
483.27	16.04
483.517	19.8
483.765	19.54
484.012	21.47
484.259	19.94
484.507	24.22
484.754	24.13
485.002	26.19
485.249	25.94
485.496	28.91
485.744	27.58
485.991	27.85
486.238	28.18
486.486	28.69
486.733	32.08
486.98	35.07
487.227	34.33
487.474	36.19
487.722	38.3
487.969	37.97
488.216	38.52
488.463	39.91
488.71	38.69
488.957	38.29
489.204	37.23
489.451	37.73
489.699	35.08
489.946	31.85
490.193	31.42
490.44	30.05
490.687	28.83
490.934	26.83
491.18	23.64
491.427	23.82
491.674	24.64
491.921	25.37
492.168	23.31
492.415	20.49
492.662	20.02
492.909	20.95
493.155	20.19
493.402	20.73
493.649	18.51
493.896	18.85
494.142	16.44
494.389	14.55
494.636	11.19
494.883	9.32
495.129	7.49
495.376	3.39
495.623	3.5
495.869	3.65
496.116	5.02
496.362	5.73
496.609	7.01
496.855	11.19
497.102	10.37
497.348	9.95
497.595	10.9
497.841	13.76
498.088	12.26
498.334	11.99
498.581	10.88
498.827	9.81
499.074	8.68
499.32	9.35
499.566	11.69
499.813	11.39
500.059	12.03
500.305	11.5
500.552	10.48
500.798	9.98
501.044	12.13
501.29	11.43
501.537	8.85
501.783	11.78
502.029	13.82
502.275	12.45
502.521	10.55
502.767	10.62
503.013	13.08
503.26	10.53
503.506	9.33
503.752	8.33
503.998	6.17
504.244	6.5
504.49	3.83
504.736	4.07
504.982	3.83
505.228	5.31
505.474	5.29
505.72	6.06
505.966	4.96
506.211	8.23
506.457	8.31
506.703	6.79
506.949	5.12
507.195	2.96
507.441	0.02
507.686	1.27
507.932	0.76
508.178	1.73
508.424	-0.58
508.669	-1.67
508.915	-2.78
509.161	-2.82
509.406	-2.81
509.652	-3.75
509.898	-0.74
510.143	1.18
510.389	2.15
510.634	-0.66
510.88	2.02
511.125	2.66
511.371	2.87
511.616	3.35
511.862	2.05
512.107	-0.18
512.353	0.97
512.598	0.6
512.844	-1.82
513.089	-4.39
513.335	-3.37
513.58	-3.46
513.825	-4.88
514.071	-3.94
514.316	-3.58
514.561	-3.91
514.806	-4.62
515.052	-2.1
515.297	-3.48
515.542	-2.68
515.787	-2.3
516.033	-1.86
516.278	-3.01
516.523	-2.86
516.768	-2.8
517.013	-5
517.258	-6.04
517.503	-6.03
517.748	-5.57
517.993	-7.83
518.238	-8.29
518.483	-8.86
518.728	-10.19
518.973	-11.98
519.218	-11.65
519.463	-11.57
519.708	-11.46
519.953	-13.19
520.198	-11.97
520.443	-9.74
520.688	-7.4
520.933	-7.17
521.177	-7.44
521.422	-9.31
521.667	-7.68
521.912	-7.32
522.157	-8.99
522.401	-6.35
522.646	-6.19
522.891	-4.69
523.135	-4.01
523.38	-5.13
523.625	-5.54
523.869	-3.3
524.114	-1.07
524.358	-0.7
524.603	0.11
524.848	-0.81
525.092	-2.53
525.337	-1.92
525.581	-0.1
525.826	2.27
526.07	1.47
526.315	2.88
526.559	3.5
526.803	2.44
527.048	4.43
527.292	4.9
527.537	5.93
527.781	4.36
528.025	1.72
528.269	3.44
528.514	3.18
528.758	2.3
529.002	3.21
529.247	4.72
529.491	3.45
529.735	7.7
529.979	6.35
530.223	6.89
530.467	5.32
530.712	3.57
530.956	3.75
531.2	4.67
531.444	2.7
531.688	3.43
531.932	2.44
532.176	2.21
532.42	4
532.664	5.75
532.908	4.25
533.152	3.51
533.396	2.62
533.64	3.49
533.884	1.95
534.128	0.6
534.371	1.98
534.615	3.9
534.859	4.24
535.103	3.43
535.347	4.67
535.59	8.49
535.834	5.21
536.078	7.27
536.322	10.35
536.565	14.53
536.809	14.57
537.053	19.37
537.296	21.85
537.54	26.65
537.784	30.48
538.027	37.9
538.271	43.88
538.514	49.98
538.758	56.16
539.001	62.74
539.245	68.18
539.488	75.09
539.732	83.36
539.975	89.23
540.219	95.46
540.462	101.58
540.706	108.28
540.949	113.22
541.192	119.18
541.436	129.1
541.679	139.06
541.922	147.14
542.166	150.32
542.409	157.59
542.652	166.06
542.895	175.96
543.139	182.98
543.382	191.83
543.625	196.77
543.868	202.36
544.111	203.8
544.354	206.07
544.598	206.25
544.841	205.53
545.084	204.75
545.327	203.37
545.57	199.53
545.813	196.5
546.056	191.8
546.299	189.01
546.542	185.71
546.785	184.38
547.028	180.81
547.271	176.41
547.514	172.22
547.756	167.07
547.999	164.68
548.242	161.65
548.485	157.12
548.728	152.01
548.971	144.25
549.213	139.59
549.456	131.25
549.699	124.96
549.942	117.97
550.184	109.33
550.427	100.46
550.67	93.09
550.912	83.8
551.155	79.4
551.398	72.26
551.64	67.48
551.883	61.94
552.125	56.92
552.368	53.58
552.61	47.05
552.853	43.98
553.095	40.31
553.338	38.47
553.58	37.16
553.823	33.06
554.065	32.43
554.308	26.98
554.55	23.73
554.792	19.72
555.035	17.05
555.277	14.32
555.519	11.62
555.762	7.66
556.004	7.05
556.246	4.02
556.488	3.04
556.731	-0.75
556.973	0.05
557.215	-1.48
557.457	-2.35
557.699	-1.07
557.941	-4.32
558.183	-5.3
558.426	-3.31
558.668	-7.24
558.91	-6.23
559.152	-6.56
559.394	-7.37
559.636	-5.38
559.878	-5.55
560.12	-5.87
560.362	-5.08
560.604	-5.2
560.845	-5.99
561.087	-6.13
561.329	-4.05
561.571	-6.29
561.813	-5.01
562.055	-5.72
562.297	-5.3
562.538	-4.71
562.78	-3.54
563.022	-5.05
563.264	-4.96
563.505	-5.62
563.747	-4.39
563.989	-5.63
564.23	-6.13
564.472	-7.45
564.714	-5.4
564.955	-4.49
565.197	-7.14
565.438	-4.85
565.68	-3.02
565.921	-3.9
566.163	-2.99
566.404	-5.14
566.646	-3.57
566.887	-1.92
567.129	-2.32
567.37	-3.84
567.612	-1.84
567.853	-3.05
568.094	-2.41
568.336	-2.51
568.577	-1.72
568.818	-1.9
569.06	-4.1
569.301	-6.62
569.542	-6.55
569.783	-5.76
570.025	-7.1
570.266	-7.41
570.507	-6.88
570.748	-6.3
570.989	-5.22
571.23	-5.43
571.472	-5.61
571.713	-6.49
571.954	-5.37
572.195	-6.66
572.436	-4.95
572.677	-2.26
572.918	-1.43
573.159	-4.56
573.4	-4.85
573.641	-3.54
573.882	-1.81
574.123	-3.11
574.364	-4.6
574.604	-3.74
574.845	-3.94
575.086	-3.14
575.327	-1.07
575.568	-0.99
575.809	-1.3
576.049	-2.11
576.29	-2.99
576.531	3.53
576.771	7.73
577.012	10.03
577.253	11.65
577.494	12.64
577.734	14.19
577.975	15.79
578.215	17.52
578.456	17.6
578.697	20.47
578.937	23.85
579.178	25.59
579.418	25.42
579.659	26.77
579.899	24.45
580.14	24.31
580.38	24.36
580.62	27.18
580.861	29.84
581.101	29.43
581.342	29.9
581.582	28.69
581.822	30.13
582.063	30.26
582.303	32.08
582.543	32.99
582.783	34.85
583.024	37.95
583.264	41.07
583.504	41.02
583.744	43.67
583.984	40.58
584.224	42.27
584.465	42.98
584.705	43.05
584.945	45.17
585.185	44.9
585.425	46.91
585.665	45.79
585.905	44.98
586.145	44.41
586.385	43.97
586.625	45.06
586.865	45.1
587.105	44.79
587.345	46.46
587.585	47.34
587.824	47.86
588.064	47.77
588.304	44.96
588.544	46.04
588.784	45.95
589.024	47.01
589.263	46.69
589.503	47.08
589.743	50.14
589.982	50.3
590.222	49.52
590.462	48.04
590.701	47.15
590.941	49.66
591.181	47.01
591.42	46.92
591.66	47.49
591.899	48.17
592.139	46.7
592.378	46.44
592.618	46.53
592.857	46.05
593.097	46.48
593.336	46.64
593.576	45.43
593.815	44.37
594.055	44.3
594.294	44.94
594.533	44.8
594.773	43.54
595.012	43.86
595.251	44.25
595.491	46.4
595.73	49.32
595.969	50.69
596.208	51.07
596.447	55.48
596.687	57.91
596.926	58.86
597.165	55.74
597.404	55.78
597.643	53.24
597.882	52.38
598.121	51.9
598.36	51.57
598.599	53.02
598.838	52.38
599.077	48.33
599.316	48.53
599.555	48.87
599.794	49.13
600.033	49.8
600.272	48.93
600.511	47.68
600.75	49.12
600.989	51.27
601.228	51.95
601.466	50.47
601.705	50.38
601.944	51.69
602.183	54.55
602.422	53.1
602.66	51.91
602.899	50.5
603.138	50.41
603.376	48.19
603.615	48.42
603.854	46.59
604.092	46.19
604.331	45.52
604.569	47.35
604.808	48.47
605.047	53.24
605.285	54.04
605.524	57.61
605.762	58.75
606	64.16
606.239	71.36
606.477	79.33
606.716	87.23
606.954	100.96
607.193	121.21
607.431	146.56
607.669	181.07
607.908	221.31
608.146	265.44
608.384	308.64
608.622	350.74
608.861	390.51
609.099	426.46
609.337	456.59
609.575	484.05
609.813	512.41
610.052	535.97
610.29	552.57
610.528	568.9
610.766	585.51
611.004	601.78
611.242	614.37
611.48	627.34
611.718	638.33
611.956	649.01
612.194	657.21
612.432	664.72
612.67	670.81
612.908	675.27
613.146	677.59
613.384	678.85
613.621	677.29
613.859	675.66
614.097	669.72
614.335	660.4
614.573	643.63
614.811	621.34
615.048	588.64
615.286	551.66
615.524	510.85
615.761	467.66
615.999	430.12
616.237	394.93
616.474	363.21
616.712	334.35
616.95	306.92
617.187	282.08
617.425	263.42
617.662	247.84
617.9	232.3
618.137	217.26
618.375	201.93
618.612	189.26
618.85	179.55
619.087	172.46
619.325	163.42
619.562	155.56
619.799	147.24
620.037	141.32
620.274	138.29
620.511	137.42
620.749	133.6
620.986	132.01
621.223	129.1
621.461	128.32
621.698	129.26
621.935	128.69
622.172	127.94
622.409	131.66
622.647	133.93
622.884	133.3
623.121	136.36
623.358	134.85
623.595	135.64
623.832	136.55
624.069	137.05
624.306	140.18
624.543	143.42
624.78	143.58
625.017	144.7
625.254	146.45
625.491	148.5
625.728	151.46
625.965	153.47
626.202	153.42
626.438	153.12
626.675	153.89
626.912	156.4
627.149	159.06
627.386	162.7
627.622	164.49
627.859	166.72
628.096	170.28
628.333	172.8
628.569	175.23
628.806	179.26
629.043	177.91
629.279	177.92
629.516	177.88
629.752	173
629.989	170.16
630.225	166.66
630.462	162.33
630.699	158.96
630.935	155.23
631.171	148.5
631.408	145.37
631.644	140.65
631.881	134.36
632.117	128.76
632.354	125.42
632.59	121.06
632.826	116.73
633.063	113.32
633.299	110.32
633.535	104.19
633.771	99.5
634.008	96.66
634.244	92.58
634.48	85.61
634.716	81.29
634.953	74.16
635.189	67.37
635.425	61.32
635.661	56.5
635.897	49.61
636.133	42.4
636.369	38.29
636.605	31.11
636.841	28.43
637.077	27.68
637.313	26.89
637.549	26.37
637.785	24.04
638.021	24.68
638.257	22.95
638.493	25.22
638.729	23.44
638.965	24.93
639.2	26.42
639.436	25.98
639.672	25.46
639.908	23.05
640.144	26.57
640.379	27.25
640.615	24.82
640.851	26.26
641.086	26.95
641.322	26.23
641.558	25.13
641.793	26.83
642.029	24.91
642.264	22.86
642.5	22.71
642.736	20.8
642.971	20.41
643.207	20.02
643.442	19.33
643.678	19.07
643.913	21.59
644.148	20.06
644.384	20.78
644.619	20.45
644.855	21.51
645.09	23.52
645.325	23.09
645.561	23.56
645.796	21.43
646.031	24.39
646.266	22.52
646.502	22.26
646.737	25.94
646.972	26.08
647.207	29.43
647.442	28.64
647.678	27.86
647.913	31.02
648.148	33.22
648.383	33.7
648.618	34.49
648.853	36.74
649.088	38.24
649.323	41
649.558	43.42
649.793	44.25
650.028	44.79
650.263	43.07
650.498	45.11
650.733	44.28
650.968	44.9
651.202	47.6
651.437	46.42
651.672	45.57
651.907	45.14
652.142	44.71
652.376	44.74
652.611	45.59
652.846	47.33
653.081	47.59
653.315	46.2
653.55	46.21
653.785	44.82
654.019	43.48
654.254	42.04
654.488	41.22
654.723	37.43
654.958	34.51
655.192	31.94
655.427	28.39
655.661	28.38
655.896	29.46
656.13	29.13
656.364	25.96
656.599	22.49
656.833	27.51
657.068	29.42
657.302	27.33
657.536	25.63
657.771	25.6
658.005	27.9
658.239	28.36
658.474	25.1
658.708	26.06
658.942	26.11
659.176	24.62
659.41	23.41
659.645	23.79
659.879	22.55
660.113	19.75
660.347	18.94
660.581	17.96
660.815	17.11
661.049	16.52
661.283	13.93
661.517	13.83
661.751	12.56
661.985	12.44
662.219	14.42
662.453	14.4
662.687	15.19
662.921	13.04
663.155	11.65
663.389	7.3
663.622	6.36
663.856	9.32
664.09	1.76
664.324	0.32
664.558	1.59
664.791	2.59
665.025	2.55
665.259	1.27
665.492	-0.34
665.726	2.95
665.96	4.04
666.193	1.23
666.427	1.66
666.661	0.03
666.894	-1.58
667.128	-1.24
667.361	0.37
667.595	0.41
667.828	0.54
668.062	0.43
668.295	1.01
668.529	0.65
668.762	0.98
668.995	0
669.229	2.38
669.462	1.79
669.695	3
669.929	2.29
670.162	2.48
670.395	-0.09
670.629	0.56
670.862	2.53
671.095	-0.89
671.328	1.04
671.561	-1.06
671.795	-0.89
672.028	-0.25
672.261	0.43
672.494	1.68
672.727	1.36
672.96	0.08
673.193	-1.81
673.426	3.14
673.659	3.15
673.892	4.57
674.125	2.75
674.358	1.62
674.591	0.23
674.824	-0.46
675.057	-1.99
675.29	-2.38
675.523	-2.9
675.755	-2.04
675.988	-2.1
676.221	0.47
676.454	0.17
676.687	0.92
676.919	-0.56
677.152	0.77
677.385	1.14
677.617	3.41
677.85	3.83
678.083	2.12
678.315	5.43
678.548	4.29
678.78	4.95
679.013	4.82
679.246	5.25
679.478	5.04
679.711	2.36
679.943	2.38
680.175	0.38
680.408	4.2
680.64	-0.43
680.873	0.58
681.105	1.12
681.338	4.53
681.57	5.37
681.802	5.29
682.034	6.69
682.267	9.36
682.499	9.75
682.731	9.32
682.964	8.42
683.196	7.69
683.428	6.4
683.66	4.38
683.892	6.2
684.124	8.49
684.356	11.53
684.589	11.5
684.821	10.32
685.053	11.84
685.285	13.33
685.517	13.12
685.749	14.03
685.981	15.3
686.213	17.27
686.445	16.45
686.676	15.09
686.908	16.88
687.14	16.62
687.372	17.37
687.604	12.99
687.836	14.96
688.068	14.61
688.299	13.22
688.531	11.66
688.763	13.12
688.995	13.32
689.226	14.54
689.458	12.31
689.69	11.32
689.921	10.03
690.153	11.74
690.384	13.04
690.616	12.73
690.848	13.49
691.079	11.79
691.311	9.04
691.542	4.67
691.774	3.41
692.005	6.14
692.237	8.8
692.468	6.48
692.699	5.16
692.931	4.99
693.162	2.88
693.393	1.68
693.625	0.68
693.856	0.82
694.087	0.63
694.319	1.35
694.55	0.6
694.781	0.87
695.012	-0.37
695.243	-2.93
695.475	-2.94
695.706	-2.23
695.937	-2.38
696.168	-2.76
696.399	-4.02
696.63	-4.39
696.861	-4.06
697.092	-0.46
697.323	0.87
697.554	0.85
697.785	1.54
698.016	1.75
698.247	-0.18
698.478	1.54
698.709	3.14
698.94	4.51
699.171	2.69
699.401	-1.75
699.632	0.9
699.863	-1.24
700.094	-2.42
700.325	-0.47
700.555	0.38
700.786	2.11
701.017	2.09
701.247	1.77
701.478	2.41
701.709	3.23
701.939	3.14
702.17	4.93
702.401	8.21
702.631	10.32
702.862	9.16
703.092	7.41
703.323	11.67
703.553	14.92
703.784	18.37
704.014	20.37
704.244	18.66
704.475	18.29
704.705	20.36
704.936	21.65
705.166	24.64
705.396	28.73
705.627	30.45
705.857	32.68
706.087	35.21
706.317	36.22
706.548	37.62
706.778	38.57
707.008	39.71
707.238	41.69
707.468	40.6
707.698	39.34
707.928	39.79
708.158	40.46
708.389	41.86
708.619	41.29
708.849	41.44
709.079	43.55
709.309	43.44
709.539	42.33
709.768	44.03
709.998	47.71
710.228	48.8
710.458	47.93
710.688	44.45
710.918	42.62
711.148	40.79
711.378	40.31
711.607	39.39
711.837	37.99
712.067	36.32
712.297	32.94
712.526	30.43
712.756	28.43
712.986	24.08
713.215	19.92
713.445	17.38
713.674	15.9
713.904	14.4
714.134	16.09
714.363	14.44
714.593	12.8
714.822	10.93
715.052	9.36
715.281	9.12
715.511	6.58
715.74	5.82
715.969	3.99
716.199	2.03
716.428	-0.09
716.657	-0.29
716.887	-1.22
717.116	-5.38
717.345	-5.95
717.575	-8.75
717.804	-9.23
718.033	-9.78
718.262	-10.12
718.492	-10.2
718.721	-10.62
718.95	-11.36
719.179	-12.67
719.408	-10.8
719.637	-13.86
719.866	-14.98
720.095	-13.77
720.324	-13.36
720.553	-14.69
720.782	-15.58
721.011	-17.04
721.24	-18.8
721.469	-19.39
721.698	-18.71
721.927	-17.59
722.156	-18.55
722.385	-19.32
722.613	-17.15
722.842	-16.29
723.071	-13.68
723.3	-12.34
723.529	-11.92
723.757	-12.56
723.986	-15.71
724.215	-15.45
724.443	-14.7
724.672	-12.86
724.901	-12.17
725.129	-11.94
725.358	-9.86
725.586	-11.68
725.815	-12.6
726.043	-13.65
726.272	-14.51
726.5	-16.28
726.729	-15.84
726.957	-17.97
727.186	-19.39
727.414	-18.98
727.642	-18
727.871	-16.58
728.099	-15.96
728.327	-15.12
728.556	-12.69
728.784	-11.86
729.012	-12.53
729.241	-10.22
729.469	-11.08
729.697	-13.51
729.925	-13.82
730.153	-15.07
730.381	-15.78
730.61	-15.53
730.838	-17.33
731.066	-15.64
731.294	-15.16
731.522	-17.97
731.75	-21.69
731.978	-21.11
732.206	-21.78
732.434	-22.99
732.662	-21.65
732.89	-21.65
733.118	-22.12
733.346	-22.76
733.573	-22.69
733.801	-21.49
734.029	-15.94
734.257	-15.32
734.485	-13.61
734.712	-11.08
734.94	-12.28
735.168	-10.31
735.396	-10.69
735.623	-12.11
735.851	-11.76
736.078	-10.84
736.306	-11.8
736.534	-10.89
736.761	-9.64
736.989	-10.97
737.216	-12.06
737.444	-14.38
737.671	-13.08
737.899	-8.52
738.126	-9.53
738.354	-9.34
738.581	-7.8
738.809	-5.03
739.036	-7.7
739.263	-7.37
739.491	-9.15
739.718	-8.27
739.945	-5.45
740.173	-3.45
740.4	-1.86
740.627	-3.63
740.854	-3.75
741.081	-5.91
741.309	-6.99
741.536	-9.56
741.763	-11.36
741.99	-9.99
742.217	-10.98
742.444	-11.41
742.671	-11.51
742.898	-11.55
743.125	-12.87
743.352	-13.73
743.579	-13.68
743.806	-13.57
744.033	-11.62
744.26	-10.74
744.487	-8.6
744.714	-8.32
744.941	-9.12
745.167	-5.86
745.394	-6.67
745.621	-6.43
745.848	-7.48
746.075	-5.99
746.301	-3.42
746.528	-0.35
746.755	-2.25
746.981	-3.83
747.208	-4.34
747.435	-2.9
747.661	-1.16
747.888	0.32
748.114	-1.18
748.341	1
748.567	1.93
748.794	0.18
749.02	-1.3
749.247	-1.84
749.473	-2.26
749.7	-2.36
749.926	-2.51
750.152	0.89
750.379	0.64
750.605	0.58
750.831	0.38
751.058	-0.92
751.284	-1.76
751.51	0.16
751.737	-0.44
751.963	-1.96
752.189	-4.94
752.415	-5.56
752.641	-6.85
752.867	-7.24
753.094	-7.62
753.32	-9.29
753.546	-10.02
753.772	-8.18
753.998	-9.15
754.224	-8.58
754.45	-10.36
754.676	-10.54
754.902	-10.64
755.128	-10.7
755.354	-11.23
755.579	-9.56
755.805	-8.11
756.031	-8.35
756.257	-8.95
756.483	-9.6
756.709	-10.37
756.934	-10.09
757.16	-12.66
757.386	-11.05
757.612	-13.51
757.837	-13.58
758.063	-10.27
758.289	-6.52
758.514	-9.12
758.74	-11.23
758.965	-12.6
759.191	-11.44
759.416	-10.26
759.642	-9.15
759.868	-9.57
760.093	-7.58
760.318	-8.06
760.544	-8.01
760.769	-8.72
760.995	-7.61
761.22	-7.01
761.445	-4.88
761.671	-3.74
761.896	-2.13
762.121	-2.89
762.347	-3.55
762.572	-5.09
762.797	-4.97
763.022	-3.85
763.248	-0.46
763.473	1.85
763.698	2.01
763.923	0.83
764.148	0.26
764.373	-0.2
764.598	1.96
764.823	2.44
765.048	-1.48
765.273	-4.97
765.498	-5.38
765.723	-4.74
765.948	-4.21
766.173	-2.92
766.398	-2.2
766.623	-3.41
766.848	-2.72
767.073	-4.64
767.298	-5.05
767.522	-5.94
767.747	-6.04
767.972	-7.09
768.197	-9.06
768.421	-9.49
768.646	-11.58
768.871	-14.86
769.095	-12.67
769.32	-11.53
769.545	-11.85
769.769	-11.13
769.994	-10.3
770.218	-13.06
770.443	-13.58
770.667	-12.78
770.892	-11.11
771.116	-10.59
771.341	-10.68
771.565	-10.38
771.79	-9.94
772.014	-9.96
772.238	-11.34
772.463	-9.73
772.687	-8.93
772.911	-9.09
773.136	-12.17
773.36	-12.16
773.584	-11.3
773.808	-12.52
774.033	-12.39
774.257	-12.7
774.481	-13.69
774.705	-14.03
774.929	-13.73
775.153	-13.09
775.377	-13.63
775.602	-14.69
775.826	-13.58
776.05	-13.09
776.274	-12.89
776.498	-13.96
776.722	-14.83
776.945	-14.17
777.169	-14.11
777.393	-14.42
777.617	-16.25
777.841	-16.57
778.065	-15.43
778.289	-16.14
778.512	-17.09
778.736	-18.29
778.96	-17.49
779.184	-14.41
779.407	-14.83
779.631	-14.33
779.855	-16.25
780.078	-14.76
780.302	-15.92
780.526	-16.5
780.749	-16.52
780.973	-14.68
781.196	-13.31
781.42	-13.77
781.643	-13.55
781.867	-12.84
782.09	-15.35
782.314	-15.43
782.537	-15.04
782.76	-15.25
782.984	-14.74
783.207	-15.54
783.431	-14.59
783.654	-14.99
783.877	-17.57
784.1	-18.95
784.324	-19.52
784.547	-18.63
784.77	-22.34
784.993	-24.48
785.216	-23.98
785.44	-23.87
785.663	-24.13
785.886	-22.64
786.109	-24.03
786.332	-23.93
786.555	-23.73
786.778	-21.52
787.001	-20.7
787.224	-19.37
787.447	-19.47
787.67	-18.18
787.893	-19.26
788.116	-18.69
788.339	-16.97
788.561	-16.65
788.784	-19.4
789.007	-19.11
789.23	-19.79
789.453	-18.35
789.675	-19.43
789.898	-20.79
790.121	-22.39
790.344	-22.5
790.566	-21.26
790.789	-21.01
791.012	-19.82
791.234	-18.64
791.457	-16.07
791.679	-13.71
791.902	-11.98
792.124	-12.62
792.347	-12.88
792.569	-12.77
792.792	-14.67
793.014	-13.11
793.237	-12.59
793.459	-13.31
793.681	-13.02
793.904	-13.77
794.126	-15.26
794.348	-15.87
794.571	-14.08
794.793	-15.21
795.015	-16.1
795.237	-16.98
795.46	-17.02
795.682	-15.61
795.904	-14.44
796.126	-14.26
796.348	-14.82
796.57	-12.35
796.792	-12.93
797.014	-9.72
797.237	-8
797.459	-7.1
797.681	-6.64
797.903	-8.05
798.124	-7.44
798.346	1.5
798.568	2.83
798.79	4.33
799.012	6.14
799.234	6.82
799.456	7.45
799.678	9.76
799.899	8.31
800.121	5.96
800.343	5.57
800.565	4.88
800.786	5.32
801.008	7.27
801.23	7.34
801.451	6.74
801.673	6.57
801.895	6.71
802.116	8.77
802.338	9.5
802.559	9.08
802.781	9.25
803.002	10.1
803.224	10.74
803.445	7.97
803.667	8.92
803.888	7.15
804.109	5.98
804.331	5.14
804.552	5.77
804.773	7.22
804.995	4.98
805.216	-6.83
805.437	-8.81
805.658	-10.93
805.88	-12.58
806.101	-12.43
806.322	-12.68
806.543	-14.86
806.764	-15.42
806.985	-13.64
807.207	-12.82
807.428	-11.3
807.649	-14.14
807.87	-16.96
808.091	-15.19
808.312	-15.37
808.533	-10.72
808.754	-9.35
808.975	-11.29
809.195	-9.61
809.416	-8.48
809.637	-9.61
809.858	-10.41
810.079	-10.79
810.3	-8.79
810.52	-9.18
810.741	-11.13
810.962	-10.65
811.183	-11.34
811.403	-11.06
811.624	-11.6
811.845	-10.05
812.065	-8.7
812.286	-8.37
812.506	-7.76
812.727	-8.93
812.948	-8.23
813.168	-6.34
813.389	-7.57
813.609	-7.46
813.83	-7.68
814.05	-8.46
814.27	-10.64
814.491	-7.1
814.711	-6.45
814.931	-9.88
815.152	-9.87
815.372	-12.51
815.592	-13.87
815.813	-15.33
816.033	-17.52
816.253	-17.22
816.473	-17.26
816.694	-16.52
816.914	-15.69
817.134	-14.82
817.354	-16.16
817.574	-15.06
817.794	-15.9
818.014	-16.62
818.234	-16.93
818.454	-17.81
818.674	-19.71
818.894	-22.57
819.114	-21.12
819.334	-21.28
819.554	-17.81
819.774	-16.3
819.994	-18.22
820.214	-17.6
820.433	-17.24
820.653	-16.85
820.873	-15.37
821.093	-13.12
821.312	-15.46
821.532	-14.49
821.752	-12.36
821.972	-13.85
822.191	-13.27
822.411	-13.8
822.63	-13.71
822.85	-13.51
823.07	-16.4
823.289	-15.77
823.509	-17.61
823.728	-17.1
823.948	-19.04
824.167	-18.86
824.387	-19.29
824.606	-18.78
824.825	-18.98
825.045	-18.76
825.264	-19.11
825.483	-17.23
825.703	-14.17
825.922	-15.34
826.141	-15.78
826.361	-18.46
826.58	-23.04
826.799	-24.54
827.018	-23.91
827.237	-23.41
827.456	-22.51
827.676	-23.65
827.895	-23.17
828.114	-22.47
828.333	-22.66
828.552	-22.08
828.771	-20.55
828.99	-22.26
829.209	-22.27
829.428	-19.42
829.647	-19.22
829.866	-17.21
830.084	-17.25
830.303	-17.34
830.522	-17.79
830.741	-17.82
830.96	-17.28
831.179	-16.89
831.397	-17.75
831.616	-17.26
831.835	-18.08
832.053	-16.72
832.272	-16.89
832.491	-16.23
832.709	-17.97
832.928	-18.87
833.147	-17.01
833.365	-14.03
833.584	-10.85
833.802	-9.58
834.021	-9.9
834.239	-9.25
834.458	-9.6
834.676	-12.49
834.894	-12.99
835.113	-13.28
835.331	-14.05
835.55	-15.41
835.768	-14.33
835.986	-13.55
836.204	-15.38
836.423	-14.95
836.641	-15.76
836.859	-15.89
837.077	-13.81
837.296	-15.3
837.514	-16.32
837.732	-16.32
837.95	-16.73
838.168	-14.24
838.386	-14.4
838.604	-12.25
838.822	-11.46
839.04	-12.86
839.258	-13.19
839.476	-9.53
839.694	-8.05
839.912	-9.24
840.13	-11.27
840.348	-10.38
840.566	-13.18
840.783	-12.85
841.001	-15.45
841.219	-14.26
841.437	-12.48
841.655	-10.91
841.872	-11.03
842.09	-10.36
842.308	-8.91
842.525	-9.27
842.743	-8.66
842.961	-9.07
843.178	-11.38
843.396	-8.32
843.613	-8.41
843.831	-8.3
844.048	-6.34
844.266	-4.39
844.483	-5.1
844.701	-5.82
844.918	-7.29
845.136	-7.15
845.353	-8.46
845.57	-9.07
845.788	-6.63
846.005	-9.34
846.222	-11.5
846.439	-10.55
846.657	-9.55
846.874	-8.38
847.091	-9.83
847.308	-7.93
847.526	-8.07
847.743	-7.19
847.96	-8.89
848.177	-9.25
848.394	-10.43
848.611	-10.88
848.828	-11.53
849.045	-12.4
849.262	-13.27
849.479	-13.57
849.696	-14.4
849.913	-13.74
850.13	-16.59
850.347	-14.51
850.564	-15.23
850.78	-16.61
850.997	-19.04
851.214	-19.17
851.431	-17.81
851.647	-18.85
851.864	-19.28
852.081	-18.93
852.298	-20.85
852.514	-21.73
852.731	-19.65
852.948	-18.8
853.164	-18.53
853.381	-19.19
853.597	-20.06
853.814	-21.47
854.03	-24.08
854.247	-22.7
854.463	-23
854.68	-22.26
854.896	-22.23
855.113	-21.79
855.329	-20.76
855.545	-19.9
855.762	-19.62
855.978	-19.63
856.194	-21.38
856.411	-17.79
856.627	-17.16
856.843	-18.29
857.059	-17.93
857.275	-18.97
857.492	-19.93
857.708	-17.59
857.924	-15.35
858.14	-13.31
858.356	-14.17
858.572	-13.3
858.788	-14.35
859.004	-11.92
859.22	-12.63
859.436	-11.84
859.652	-13.23
859.868	-16.1
860.084	-16.68
860.3	-15.38
860.516	-15.81
860.731	-14.32
860.947	-16.46
861.163	-16.35
861.379	-16.29
861.595	-15.42
861.81	-15.63
862.026	-15.59
862.242	-14.65
862.457	-14.86
862.673	-15.18
862.889	-14.35
863.104	-15.54
863.32	-15.71
863.535	-14.34
863.751	-16.84
863.966	-15.1
864.182	-13.32
864.397	-14.34
864.613	-16.92
864.828	-18.69
865.044	-16.61
865.259	-16.16
865.474	-16.48
865.69	-16.8
865.905	-15.35
866.12	-17.99
866.336	-16.31
866.551	-14.22
866.766	-14.66
866.981	-16.22
867.196	-16.09
867.412	-15.81
867.627	-15.43
867.842	-14.46
868.057	-14.65
868.272	-15.08
868.487	-15.1
868.702	-16.2
868.917	-16.38
869.132	-15.92
869.347	-15.87
869.562	-16.38
869.777	-17.26
869.992	-17.88
870.207	-17.52
870.422	-17.07
870.636	-18.21
870.851	-19.6
871.066	-20.19
871.281	-19.32
871.495	-19.82
871.71	-18.53
871.925	-20.46
872.14	-21.15
872.354	-23.1
872.569	-25.36
872.783	-22.66
872.998	-23.61
873.213	-23.43
873.427	-22.41
873.642	-22.14
873.856	-21.79
874.071	-21.57
874.285	-21.88
874.5	-23.29
874.714	-23.58
874.928	-24.85
875.143	-25.4
875.357	-25.58
875.571	-28.17
875.786	-27.76
876	-24.77
876.214	-24.65
876.429	-25.74
876.643	-26.23
876.857	-26.06
877.071	-25.14
877.285	-25.74
877.499	-27.18
877.714	-25.24
877.928	-23.68
878.142	-25.45
878.356	-27.29
878.57	-26.46
878.784	-24.82
878.998	-23.38
879.212	-20.24
879.426	-22.48
879.639	-20.92
879.853	-22.56
880.067	-22.21
880.281	-21.93
880.495	-20.87
880.709	-19.74
880.922	-19.36
881.136	-18.79
881.35	-17.66
881.564	-17.86
881.777	-19.4
881.991	-18.69
882.205	-15.67
882.418	-16.32
882.632	-18.39
882.845	-18.16
883.059	-16.91
883.273	-16.09
883.486	-16.76
883.7	-14.65
883.913	-14.32
884.126	-12.11
884.34	-13.91
884.553	-15.73
884.767	-12.06
884.98	-12.65
885.193	-12.39
885.407	-12.87
885.62	-13.32
885.833	-15.29
886.046	-13.85
886.26	-15.02
886.473	-14.8
886.686	-15.3
886.899	-14.64
887.112	-15.59
887.326	-16.79
887.539	-16.42
887.752	-15.38
887.965	-17.78
888.178	-15.78
888.391	-14.89
888.604	-14.77
888.817	-15.42
889.03	-15.12
889.243	-16.39
889.455	-17.82
889.668	-18.33
889.881	-16.36
890.094	-17.81
890.307	-20.66
890.52	-19.76
890.732	-19.95
890.945	-20.41
891.158	-19.75
891.37	-22.25
891.583	-23.28
891.796	-22.33
892.008	-22.91
892.221	-23.89
892.434	-26.2
892.646	-27.58
892.859	-28.11
893.071	-27.26
893.284	-25.36
893.496	-25.41
893.709	-25.69
893.921	-24.72
894.133	-24.91
894.346	-24.67
894.558	-23.61
894.771	-24.9
894.983	-23.44
895.195	-22.68
895.407	-22.51
895.62	-25.23
895.832	-24.13
896.044	-21.78
896.256	-21.79
896.468	-24.19
896.681	-22.13
896.893	-22.96
897.105	-23.53
897.317	-23.9
897.529	-23.16
897.741	-23.6
897.953	-21.56
898.165	-20.69
898.377	-22.41
898.589	-21.44
898.801	-21.9
899.013	-19.3
899.224	-16.81
899.436	-16.21
899.648	-15.89
899.86	-17.33
900.072	-14.94
900.283	-13.3
900.495	-12.69
900.707	-12.23
900.919	-14.91
901.13	-13.56
901.342	-13.92
901.554	-14.59
901.765	-15.5
901.977	-17.77
902.188	-16.59
902.4	-17.26
902.611	-17.66
902.823	-18.55
903.034	-19.65
903.246	-20.24
903.457	-20.03
903.669	-20.17
903.88	-20.53
904.091	-20.03
904.303	-19.29
904.514	-19.93
904.725	-18.3
904.936	-18.22
905.148	-17.6
905.359	-14.37
905.57	-13.98
905.781	-14.76
905.992	-14.66
906.204	-14.61
906.415	-14.58
906.626	-17.01
906.837	-16.48
907.048	-17.78
907.259	-19.03
907.47	-19.88
907.681	-22.48
907.892	-21.38
908.103	-21.82
908.314	-21.97
908.525	-19.77
908.735	-19.46
908.946	-19.98
909.157	-21.62
909.368	-19.69
909.579	-17.76
909.789	-19.16
910	-18.57
910.211	-17.52
910.421	-18.25
910.632	-18.76
910.843	-21.45
911.053	-18.82
911.264	-17.1
911.475	-16.75
911.685	-17.43
911.896	-17.81
912.106	-18.3
912.317	-20.69
912.527	-19.55
912.737	-20.52
912.948	-20.17
913.158	-20.48
913.369	-22.73
913.579	-21.95
913.789	-21.37
914	-18.04
914.21	-16.15
914.42	-15.83
914.63	-16.57
914.841	-17.21
915.051	-17.09
915.261	-16.09
915.471	-14.38
915.681	-14.42
915.891	-14.77
916.101	-15.42
916.311	-14.2
916.521	-13.35
916.731	-13.06
916.941	-9.95
917.151	-10.07
917.361	-7.35
917.571	-11.08
917.781	-14.12
917.991	-15.44
918.201	-15.73
918.411	-19.85
918.621	-20.36
918.83	-18.6
919.04	-19.91
919.25	-17.78
919.46	-16.62
919.669	-17.49
919.879	-17.61
920.089	-17.6
920.298	-18.05
920.508	-17.83
920.717	-16.79
920.927	-16.95
921.136	-15.2
921.346	-15.54
921.555	-16.8
921.765	-17.44
921.974	-18.7
922.184	-20.07
922.393	-20.32
922.603	-21.14
922.812	-19.49
923.021	-20.55
923.23	-21.98
923.44	-25.06
923.649	-24.97
923.858	-24.73
924.067	-24.65
924.277	-25.88
924.486	-24.74
924.695	-25.71
924.904	-22.72
925.113	-22.95
925.322	-21.95
925.531	-21
925.74	-22.31
925.949	-23.64
926.158	-22.09
926.367	-19.91
926.576	-19.97
926.785	-19.67
926.994	-21.38
927.203	-22.08
927.412	-23.38
927.621	-24.31
927.83	-22.42
928.038	-23.62
928.247	-23.64
928.456	-23.22
928.665	-22.31
928.873	-22.18
929.082	-19.92
929.291	-21.2
929.499	-20.09
929.708	-20.77
929.916	-18.4
930.125	-19.52
930.333	-20.53
930.542	-18.62
930.75	-16.62
930.959	-16.63
931.167	-15.8
931.376	-16.83
931.584	-16.33
931.793	-16.66
932.001	-17.92
932.209	-19.51
932.418	-21.38
932.626	-22.89
932.834	-25.35
933.042	-28.14
933.251	-29.19
933.459	-28.75
933.667	-29.57
933.875	-29.41
934.083	-27.89
934.291	-27.14
934.499	-25.03
934.707	-25.88
934.915	-26.87
935.123	-24.18
935.331	-24.38
935.539	-26.89
935.747	-25.85
935.955	-25.83
936.163	-25.73
936.371	-27.67
936.579	-25.88
936.787	-26.08
936.995	-27.52
937.202	-28.61
937.41	-26.83
937.618	-26.69
937.826	-26.3
938.033	-28.67
938.241	-30.74
938.449	-29.01
938.656	-26.43
938.864	-25.17
939.071	-24.38
939.279	-22.82
939.486	-20.02
939.694	-19.91
939.901	-21.66
940.109	-20.5
940.316	-19.89
940.524	-21.58
940.731	-22.41
940.939	-23.65
941.146	-22.89
941.353	-22.23
941.561	-23.25
941.768	-23.95
941.975	-21.28
942.182	-22.29
942.39	-22.81
942.597	-20.72
942.804	-20.81
943.011	-21.98
943.218	-21.63
943.425	-21.58
943.632	-21.05
943.839	-23.59
944.046	-24.88
944.253	-24.63
944.46	-24.16
944.667	-21.43
944.874	-21.61
945.081	-20.64
945.288	-20.42
945.495	-20.1
945.702	-20.15
945.909	-20.86
946.115	-19.23
946.322	-18.42
946.529	-19.09
946.736	-19.74
946.942	-18.45
947.149	-20.06
947.356	-19.57
947.562	-21.3
947.769	-21.22
947.976	-22.72
948.182	-21.24
948.389	-23.38
948.595	-23
948.802	-23.12
949.008	-23.61
949.215	-22.95
949.421	-22.05
949.628	-22.75
949.834	-22.57
950.04	-21.69
950.247	-18.21
950.453	-17.5
950.659	-19.13
950.865	-17.23
951.072	-19.93
951.278	-18.27
951.484	-20.62
951.69	-22.95
951.896	-23.13
952.103	-23.71
952.309	-23.47
952.515	-24.23
952.721	-22.27
952.927	-21.8
953.133	-21.73
953.339	-23.69
953.545	-23.44
953.751	-22.38
953.957	-18.83
954.163	-20.79
954.369	-19.14
954.574	-20.23
954.78	-20.06
954.986	-20.41
955.192	-19.03
955.398	-20.15
955.603	-21.82
955.809	-21.02
956.015	-20.14
956.22	-19.51
956.426	-19.07
956.632	-21.01
956.837	-20.5
957.043	-18.45
957.248	-17.32
957.454	-16.47
957.66	-18.7
957.865	-18.31
958.07	-17.43
958.276	-18.31
958.481	-19.13
958.687	-20.09
958.892	-19.59
959.097	-20.58
959.303	-21.32
959.508	-21.58
959.713	-19.91
959.919	-20
960.124	-22.03
960.329	-22.99
960.534	-18.61
960.739	-19.07
960.945	-17.78
961.15	-17.41
961.355	-18.4
961.56	-21.19
961.765	-22.22
961.97	-20.25
962.175	-19.07
962.38	-21.56
962.585	-21.62
962.79	-23.71
962.995	-24.05
963.2	-25.37
963.404	-25.99
963.609	-28.94
963.814	-29.74
964.019	-31.34
964.224	-33.18
964.428	-31.87
964.633	-30.01
964.838	-28.6
965.042	-28.25
965.247	-29.83
965.452	-30.5
965.656	-29.14
965.861	-28.59
966.066	-29.31
966.27	-26.75
966.475	-22.16
966.679	-24.56
966.884	-25.52
967.088	-26.82
967.292	-26.79
967.497	-25.82
967.701	-26.13
967.906	-24.38
968.11	-21.09
968.314	-18.89
968.518	-20.6
968.723	-18.16
968.927	-16.92
969.131	-15.98
969.335	-14.97
969.539	-14.37
969.744	-12.62
969.948	-10.04
970.152	-7.79
970.356	-6.35
970.56	-6.34
970.764	-6.07
970.968	-5
971.172	-5.47
971.376	-5.76
971.58	-5.11
971.784	-3.72
971.988	-4.84
972.192	-2.54
972.395	-2.56
972.599	-5.83
972.803	-9.12
973.007	-8.75
973.21	-8.81
973.414	-8.03
973.618	-9.27
973.822	-8.44
974.025	-8.62
974.229	-8.74
974.432	-12.75
974.636	-14.72
974.84	-12.65
975.043	-12.84
975.247	-14.98
975.45	-16.47
975.654	-15.1
975.857	-14.12
976.06	-14.95
976.264	-16.44
976.467	-17.16
976.671	-17.93
976.874	-16.2
977.077	-17.44
977.28	-18.77
977.484	-19.49
977.687	-18.7
977.89	-17.13
978.093	-17.24
978.297	-16.5
978.5	-19.39
978.703	-19.81
978.906	-18.63
979.109	-18.63
979.312	-16.23
979.515	-17.38
979.718	-17.52
979.921	-17.47
980.124	-20.09
980.327	-18.89
980.53	-19.12
980.733	-16.76
980.936	-14.83
981.138	-17.86
981.341	-17.5
981.544	-16.39
981.747	-15.07
981.949	-18.02
982.152	-17.97
982.355	-18.61
982.558	-16.03
982.76	-16.81
982.963	-16.85
983.165	-17.43
983.368	-16.92
983.571	-17.79
983.773	-16.54
983.976	-16.48
984.178	-15.66
984.381	-15.49
984.583	-16.67
984.785	-15.24
984.988	-11.02
985.19	-9.16
985.392	-10.01
985.595	-12.79
985.797	-12.7
985.999	-10.9
986.202	-9.38
986.404	-8.57
986.606	-6.47
986.808	-6.89
987.01	-6.65
987.212	-7.93
987.415	-9.26
987.617	-8.44
987.819	-10.02
988.021	-9.76
988.223	-9.96
988.425	-9.96
988.627	-9.56
988.829	-13.34
989.031	-12.2
989.232	-13.11
989.434	-12.16
989.636	-11.45
989.838	-11.45
990.04	-10.39
990.242	-11.03
990.443	-14.06
990.645	-14.25
990.847	-12.88
991.048	-13.28
991.25	-17.44
991.452	-18.89
991.653	-20.15
991.855	-19.89
992.057	-20.05
992.258	-19.99
992.46	-20.23
992.661	-20.12
992.863	-22.16
993.064	-21.97
993.265	-23.58
993.467	-24.91
993.668	-22.29
993.87	-22.13
994.071	-21.82
994.272	-21.91
994.473	-20.93
994.675	-20.33
994.876	-20.03
995.077	-18.99
995.278	-19.28
995.48	-18.34
995.681	-19.32
995.882	-19.88
996.083	-19.36
996.284	-21.31
996.485	-21.27
996.686	-20.16
996.887	-20.5
997.088	-23.34
997.289	-23.73
997.49	-23.82
997.691	-23.16
997.892	-22.57
998.092	-20.23
998.293	-20.68
998.494	-22.25
998.695	-22.43
998.896	-21
999.096	-20.84
999.297	-20.38
999.498	-20.01
999.698	-21.71
999.899	-23.55
1000.1	-25.92
1000.3	-24.9
1000.501	-26.36
1000.701	-25.66
1000.902	-25.65
1001.102	-26.14
1001.303	-25.07
1001.503	-26.21
1001.704	-25.86
1001.904	-25.68
1002.105	-25.82
1002.305	-26.08
1002.505	-27.69
1002.706	-28.23
1002.906	-28.3
1003.106	-27.91
1003.306	-26.81
1003.507	-26.17
1003.707	-26.17
1003.907	-24.63
1004.107	-22.25
1004.307	-23.3
1004.507	-23.01
1004.707	-22.76
1004.907	-24.82
1005.107	-25.26
1005.308	-25.05
1005.507	-26.55
1005.707	-25.25
1005.907	-24.55
1006.107	-21.89
1006.307	-21.09
1006.507	-22
1006.707	-20.19
1006.907	-20.59
1007.106	-21.3
1007.306	-21.37
1007.506	-22.59
1007.706	-21.17
1007.905	-22.7
1008.105	-23.1
1008.305	-23.25
1008.504	-21.61
1008.704	-17.88
1008.903	-16.41
1009.103	-15.89
1009.303	-18.08
1009.502	-17.45
1009.702	-17.67
1009.901	-17.79
1010.1	-21.48
1010.3	-21.36
1010.499	-22.38
1010.699	-22.62
1010.898	-23.25
1011.097	-22.56
1011.296	-23.62
1011.496	-24.3
1011.695	-24.59
1011.894	-25.24
1012.093	-22.47
1012.293	-24.34
1012.492	-24.27
1012.691	-24.93
1012.89	-25.19
1013.089	-26.62
1013.288	-26.34
1013.487	-25.37
1013.686	-25.37
1013.885	-27.85
1014.084	-27.34
1014.283	-27.61
1014.482	-27.72
1014.681	-28.69
1014.88	-31.01
1015.078	-30.49
1015.277	-33.11
1015.476	-33.03
1015.675	-33.49
1015.873	-33.59
1016.072	-33.42
1016.271	-29.9
1016.47	-32.29
1016.668	-30.64
1016.867	-31.13
1017.065	-31.97
1017.264	-33.07
1017.463	-33.31
1017.661	-33.65
1017.86	-31.83
1018.058	-31.9
1018.256	-33.71
1018.455	-33.24
1018.653	-32.38
1018.852	-30.95
1019.05	-32.84
1019.248	-33.96
1019.447	-35.29
1019.645	-35.44
1019.843	-35.99
1020.041	-34.36
1020.24	-32.74
1020.438	-29.5
1020.636	-30.49
1020.834	-31.96
1021.032	-31.27
1021.23	-32.03
1021.428	-30.12
1021.626	-27.84
1021.824	-26.97
1022.022	-28.06
1022.22	-25.76
1022.418	-26.11
1022.616	-26.11
1022.814	-26.81
1023.012	-26.11
1023.21	-24.53
1023.408	-24.15
1023.606	-23.39
1023.803	-19.02
1024.001	-19.93
1024.199	-21.6
1024.397	-20.48
1024.594	-20.55
1024.792	-21.93
1024.99	-21.38
1025.187	-21.66
1025.385	-18.96
1025.582	-18.44
1025.78	-19.33
1025.977	-19.13
1026.175	-19.15
1026.372	-21.04
1026.57	-23.28
1026.767	-20.75
1026.965	-20.54
1027.162	-20.24
1027.359	-21.77
1027.557	-21.65
1027.754	-23.22
1027.951	-23.55
1028.148	-22.09
1028.346	-24.85
1028.543	-26.48
1028.74	-27.12
1028.937	-27.77
1029.134	-28.12
1029.331	-29.19
1029.528	-27.67
1029.725	-29.4
1029.923	-32.94
1030.12	-30.93
1030.317	-28.56
1030.513	-28.09
1030.71	-27.71
1030.907	-25.87
1031.104	-25.89
1031.301	-25.27
1031.498	-25.13
1031.695	-24.77
1031.892	-24.68
1032.088	-24.25
1032.285	-25.77
1032.482	-25.26
1032.678	-27.29
1032.875	-28.95
1033.072	-28.21
1033.268	-26.97
1033.465	-26.85
1033.662	-28.2
1033.858	-27.95
1034.055	-27.32
1034.251	-26.04
1034.448	-25.73
1034.644	-25.48
1034.84	-22.84
1035.037	-22.34
1035.233	-22.44
1035.43	-21.22
1035.626	-22.52
1035.822	-21.09
1036.019	-20.49
1036.215	-23.03
1036.411	-25.24
1036.607	-27.33
1036.803	-28
1037	-28.1
1037.196	-29.79
1037.392	-30.58
1037.588	-32.4
1037.784	-31.34
1037.98	-32.98
1038.176	-33.02
1038.372	-32.06
1038.568	-31.17
1038.764	-29.67
1038.96	-28.27
1039.156	-28.54
1039.352	-30.56
1039.547	-29.01
1039.743	-28.2
1039.939	-26.72
1040.135	-28.64
1040.331	-29.54
1040.526	-27.28
1040.722	-28.16
1040.918	-29.27
1041.113	-31.08
1041.309	-32.05
1041.505	-33.29
1041.7	-32.54
1041.896	-32.6
1042.091	-33.72
1042.287	-32.76
1042.482	-31.49
1042.678	-30.59
1042.873	-30.7
1043.069	-32.23
1043.264	-31.73
1043.459	-30.13
1043.655	-29.17
1043.85	-30.73
1044.045	-28.39
1044.24	-27.74
1044.436	-27.21
1044.631	-28.05
1044.826	-28.14
1045.021	-29.92
1045.216	-30.62
