Data from FLMT021711__7__16-29-59-079.txt Node

Date: Tue Nov 05 16:29:59 CET 2024
User: Etudiants TP
Spectrometer: FLMT02171
Trigger mode: 0
Integration Time (sec): 1.000000E-1
Scans to average: 5
Electric dark correction enabled: true
Nonlinearity correction enabled: false
Boxcar width: 15
XAxis mode: Wavelengths
Number of Pixels in Spectrum: 3648
>>>>>Begin Spectral Data<<<<<
194.658	-48.47
194.923	-46.85
195.188	-39.77
195.453	-38.92
195.717	-36.81
195.982	-35.62
196.247	-33.88
196.512	-36.06
196.777	-34.31
197.042	-31.77
197.307	-31.55
197.572	-26.81
197.837	-27.45
198.101	-24.81
198.366	-22.12
198.631	-20.98
198.896	-15.64
199.161	-10.41
199.425	-4.35
199.69	1.57
199.955	1.54
200.22	-0.58
200.484	-1.17
200.749	-1.14
201.014	0.05
201.278	0.89
201.543	0.2
201.807	-0.64
202.072	-0.12
202.337	-0.18
202.601	0.98
202.866	-0.57
203.13	-0.07
203.395	-2.91
203.659	-1.99
203.924	-1.35
204.189	-0.96
204.453	-0.36
204.717	2.1
204.982	2.56
205.246	3.31
205.511	4.29
205.775	2.55
206.04	7.3
206.304	7.5
206.568	8.12
206.833	9.17
207.097	9.17
207.361	10.91
207.626	13.55
207.89	14
208.154	14.05
208.419	14.48
208.683	15.53
208.947	16.94
209.211	17.66
209.476	17.96
209.74	17.67
210.004	17.19
210.268	18.49
210.532	21.29
210.796	20.43
211.061	20.89
211.325	21.19
211.589	20.77
211.853	20.52
212.117	19.66
212.381	18.79
212.645	18.73
212.909	17.86
213.173	16.29
213.437	15.72
213.701	16.56
213.965	17.03
214.229	13.29
214.493	11.38
214.757	9.26
215.021	8.75
215.285	11.56
215.549	12.95
215.813	11.15
216.077	11.78
216.34	13.47
216.604	14.13
216.868	13.97
217.132	14.05
217.396	13.52
217.659	13.07
217.923	11.04
218.187	11.58
218.451	9.1
218.714	7.26
218.978	7.05
219.242	7.36
219.505	8.96
219.769	9.78
220.033	9.77
220.296	10.23
220.56	11.01
220.824	8.84
221.087	10.05
221.351	10.64
221.614	9.55
221.878	10.26
222.142	9.1
222.405	8.73
222.669	11.22
222.932	9.07
223.196	7.93
223.459	6.38
223.722	6.55
223.986	5.36
224.249	4.79
224.513	4.21
224.776	4.71
225.04	4.24
225.303	4.26
225.566	3.23
225.83	4.61
226.093	7.91
226.356	6.24
226.62	7.61
226.883	9.1
227.146	9.68
227.409	10.18
227.673	7.93
227.936	7.63
228.199	8.59
228.462	9.32
228.725	9.79
228.989	10.22
229.252	10.98
229.515	14.54
229.778	14.54
230.041	13.56
230.304	12.93
230.567	13.93
230.83	13.35
231.093	16.25
231.356	15.56
231.619	18.89
231.882	16.54
232.145	18
232.408	17.35
232.671	17.6
232.934	16.86
233.197	16.13
233.46	15.21
233.723	16.24
233.986	15.89
234.249	14
234.512	16.24
234.775	18.15
235.037	16.78
235.3	16.25
235.563	16.64
235.826	17.57
236.089	19.46
236.351	17.61
236.614	18.5
236.877	19.08
237.14	20.28
237.402	19.56
237.665	14.25
237.928	13.25
238.19	12.54
238.453	14.22
238.716	14.01
238.978	13.88
239.241	13.01
239.503	15.36
239.766	12.6
240.029	13.89
240.291	17
240.554	15.66
240.816	15.12
241.079	14.02
241.341	14.06
241.604	14.64
241.866	12.06
242.129	11.86
242.391	12.51
242.653	10.92
242.916	9.33
243.178	9.66
243.441	11.65
243.703	10.79
243.965	9.15
244.228	7.69
244.49	8.75
244.752	9.08
245.015	8.8
245.277	11.47
245.539	10.97
245.801	12.84
246.064	14.02
246.326	12.58
246.588	12.49
246.85	14.16
247.112	14.8
247.374	15.47
247.637	15.66
247.899	14.8
248.161	14.37
248.423	8.56
248.685	9.78
248.947	9.6
249.209	10.39
249.471	10.49
249.733	11.47
249.995	11.32
250.257	12.2
250.519	12.16
250.781	14.65
251.043	12.43
251.305	13.8
251.567	14.07
251.829	14.87
252.091	15.14
252.353	13.64
252.615	13.9
252.876	11.56
253.138	10.73
253.4	6.92
253.662	7.86
253.924	9.72
254.185	10.46
254.447	11.61
254.709	9.65
254.971	10.12
255.232	10.7
255.494	9.09
255.756	8.9
256.017	10.61
256.279	10.04
256.541	11.59
256.802	11.18
257.064	11.24
257.326	10.58
257.587	12.52
257.849	12.24
258.11	14.56
258.372	14.69
258.633	15.07
258.895	14
259.156	15.25
259.418	14.05
259.679	10.58
259.941	9.34
260.202	10.62
260.464	12.37
260.725	11.48
260.987	10.83
261.248	10.18
261.509	11.57
261.771	10.1
262.032	10.3
262.293	10.75
262.555	10.9
262.816	10.44
263.077	8.43
263.338	6.16
263.6	7.74
263.861	6.65
264.122	4.46
264.383	6.23
264.645	6.62
264.906	6.38
265.167	6.93
265.428	6.02
265.689	6.02
265.95	4.68
266.211	5.01
266.473	3.91
266.734	1.06
266.995	-0.67
267.256	-0.67
267.517	0.22
267.778	3.07
268.039	3.65
268.3	2.01
268.561	-0.31
268.822	3.14
269.083	2.14
269.344	0.91
269.604	-0.13
269.865	0.57
270.126	-2.96
270.387	-3.07
270.648	-2.31
270.909	-1.62
271.17	-2.86
271.43	-4.17
271.691	-6.82
271.952	-6.74
272.213	-5.1
272.473	-6.19
272.734	-4.77
272.995	-2.77
273.256	-1.67
273.516	-0.46
273.777	-2.55
274.038	-2.21
274.298	-4.08
274.559	-4.4
274.82	-0.18
275.08	1.25
275.341	2.62
275.601	1.78
275.862	0.28
276.122	0.19
276.383	1.28
276.643	3.06
276.904	-0.59
277.164	3.11
277.425	4.36
277.685	7.96
277.946	8.6
278.206	10.34
278.467	10.73
278.727	10.39
278.987	9.51
279.248	9.52
279.508	9.23
279.768	11.21
280.029	12.2
280.289	10.18
280.549	8.81
280.81	8.41
281.07	7.09
281.33	7.76
281.59	7.84
281.851	9.52
282.111	10.28
282.371	10.6
282.631	13.01
282.891	11.99
283.151	11.78
283.412	10.14
283.672	9.51
283.932	9.28
284.192	10.25
284.452	9.17
284.712	7.01
284.972	6.83
285.232	2.96
285.492	4.24
285.752	2.3
286.012	6.57
286.272	9.15
286.532	6.94
286.792	6.31
287.052	7.26
287.312	8.23
287.571	8.8
287.831	8.46
288.091	7.13
288.351	7.52
288.611	10.83
288.871	10.36
289.13	10.54
289.39	6.67
289.65	7.35
289.91	5.38
290.17	6.48
290.429	7.76
290.689	4.46
290.949	2.21
291.208	2.55
291.468	4.62
291.728	6.31
291.987	8.13
292.247	7.41
292.506	9.79
292.766	13.07
293.026	12.38
293.285	15.05
293.545	16.46
293.804	16.33
294.064	12.89
294.323	10.3
294.583	10.56
294.842	10.61
295.102	11.84
295.361	11.61
295.621	11.98
295.88	13.07
296.139	10.71
296.399	11.81
296.658	7.42
296.917	7.36
297.177	5.28
297.436	6.48
297.695	4.95
297.955	5.89
298.214	4.03
298.473	4.38
298.732	7.31
298.992	9.07
299.251	8.25
299.51	6.51
299.769	6.76
300.028	5.75
300.287	5.57
300.547	5.39
300.806	2.4
301.065	4.7
301.324	5.13
301.583	2.76
301.842	1.34
302.101	0.74
302.36	0.91
302.619	1.02
302.878	1.47
303.137	-0.3
303.396	0.74
303.655	1.82
303.914	-0.47
304.173	1
304.432	-0.45
304.691	2.03
304.95	0.01
305.208	3.43
305.467	5.3
305.726	6.22
305.985	8.96
306.244	11.9
306.503	12.43
306.761	9.75
307.02	8.25
307.279	9.2
307.537	7.89
307.796	4.98
308.055	4.07
308.314	4.69
308.572	3.29
308.831	4.59
309.09	4.72
309.348	5.45
309.607	5.11
309.865	7.64
310.124	6.77
310.382	7.57
310.641	8.81
310.9	7.37
311.158	7.05
311.417	7.33
311.675	7
311.933	8.32
312.192	9.27
312.45	9.4
312.709	10.55
312.967	10.52
313.226	10.32
313.484	8.73
313.742	8.15
314.001	4.77
314.259	3.06
314.517	3.26
314.776	5.04
315.034	6.38
315.292	4.71
315.55	4.33
315.809	4.36
316.067	5.03
316.325	4.25
316.583	5.18
316.841	5.23
317.1	4.9
317.358	2.26
317.616	2.11
317.874	-0.67
318.132	-1.13
318.39	-1.36
318.648	-2.28
318.906	-1.96
319.164	-1.84
319.422	-2.7
319.68	-3.45
319.938	-4.53
320.196	-4.47
320.454	-2.96
320.712	-4.71
320.97	-3.32
321.228	-5.28
321.486	-4.43
321.744	-4.66
322.002	-2.95
322.26	-4.43
322.517	-4.27
322.775	-6.53
323.033	-6.76
323.291	-3.8
323.549	-1.54
323.806	1.26
324.064	1.65
324.322	2.9
324.58	2.2
324.837	2.83
325.095	1.78
325.353	3.03
325.61	4.78
325.868	5.61
326.126	8.16
326.383	6.91
326.641	7.36
326.898	9.34
327.156	10.68
327.413	11.86
327.671	12.27
327.928	14.31
328.186	14.28
328.443	12.62
328.701	15.62
328.958	16.14
329.216	17.98
329.473	16.65
329.731	16.35
329.988	16.11
330.245	18.03
330.503	18.69
330.76	18.23
331.017	19.7
331.275	16.21
331.532	15.85
331.789	13.63
332.047	13.83
332.304	11.51
332.561	11.64
332.818	10.47
333.076	11.12
333.333	12.19
333.59	11.15
333.847	12.66
334.104	10.4
334.361	10.78
334.618	9.22
334.876	8.31
335.133	8.41
335.39	7.37
335.647	8.6
335.904	5.64
336.161	3.69
336.418	5.19
336.675	2.9
336.932	3.89
337.189	2.21
337.446	3.16
337.703	3.2
337.96	0.85
338.216	1.02
338.473	-2.45
338.73	-0.57
338.987	-0.71
339.244	1.59
339.501	0.78
339.757	1.5
340.014	0.88
340.271	1.91
340.528	2.89
340.785	6.17
341.041	6.94
341.298	4.51
341.555	4.5
341.811	3.93
342.068	2.83
342.325	2.7
342.581	5.4
342.838	5.88
343.094	4.59
343.351	3.46
343.608	1.59
343.864	4.07
344.121	5
344.377	4.01
344.634	3.46
344.89	1.44
345.147	1.24
345.403	0.36
345.66	-0.3
345.916	0.91
346.172	-1.59
346.429	-0.85
346.685	-2.43
346.942	-2.43
347.198	-4
347.454	-4
347.711	-4.34
347.967	-6.59
348.223	-6.33
348.48	-7.29
348.736	-5.03
348.992	-5.79
349.248	-4.74
349.504	-5
349.761	-5.56
350.017	-4.97
350.273	-4.57
350.529	-5.67
350.785	-6.68
351.041	-6.67
351.297	-6.17
351.554	-6.75
351.81	-7.28
352.066	-7.65
352.322	-6.84
352.578	-5.43
352.834	-5.15
353.09	-5.44
353.346	-4.76
353.602	-4.55
353.858	-5.18
354.114	-4.92
354.369	-4.38
354.625	-1.37
354.881	-3.18
355.137	-2.04
355.393	-1.67
355.649	-1.2
355.905	-0.4
356.16	0.16
356.416	0.45
356.672	-4.54
356.928	-3.98
357.183	-4.23
357.439	-4.29
357.695	-4.49
357.951	-1.87
358.206	-2.66
358.462	-3.11
358.718	-3.21
358.973	-2.4
359.229	-0.75
359.484	0.31
359.74	1.23
359.996	1.28
360.251	3.9
360.507	1.94
360.762	2.01
361.018	4.94
361.273	3.28
361.529	3.73
361.784	4.92
362.04	7.25
362.295	7.59
362.55	6.64
362.806	8.73
363.061	9.62
363.316	10.04
363.572	10.46
363.827	12.56
364.082	10.03
364.338	9.58
364.593	9.72
364.848	10.03
365.104	10.29
365.359	12.76
365.614	13.24
365.869	12.69
366.124	13.93
366.38	12.5
366.635	12.68
366.89	14.06
367.145	14.06
367.4	15.64
367.655	16.47
367.91	17.12
368.165	14.35
368.42	13.41
368.675	14.13
368.93	13.39
369.185	12.12
369.44	12.77
369.695	12.87
369.95	10.46
370.205	9.43
370.46	9.35
370.715	8.05
370.97	6.7
371.225	6.25
371.48	7.72
371.734	7.02
371.989	9.37
372.244	9.25
372.499	10.72
372.754	8.83
373.008	5.96
373.263	2.14
373.518	2.66
373.773	0.53
374.027	-1.69
374.282	1.28
374.537	2.98
374.791	2.16
375.046	0.46
375.301	0.23
375.555	-1.68
375.81	-0.82
376.064	0.08
376.319	3.28
376.573	1.49
376.828	-1.26
377.082	2.3
377.337	0.93
377.591	-0.24
377.846	1.78
378.1	4
378.355	3.9
378.609	4.45
378.863	2.9
379.118	4.59
379.372	2.72
379.627	2.21
379.881	-0.24
380.135	0.7
380.389	-0.49
380.644	0.31
380.898	2.3
381.152	4.97
381.407	5.02
381.661	7.03
381.915	8.88
382.169	7.2
382.423	5.33
382.677	3.47
382.932	3.5
383.186	1.41
383.44	2.11
383.694	3.84
383.948	1.66
384.202	-0.04
384.456	2.19
384.71	3.8
384.964	2.33
385.218	3.57
385.472	4.29
385.726	4.59
385.98	4.29
386.234	4.07
386.488	1.02
386.742	2.51
386.996	-0.15
387.249	0.64
387.503	3.07
387.757	3.61
388.011	3.58
388.265	3.85
388.518	5.31
388.772	5.65
389.026	5.03
389.28	2.74
389.533	1.91
389.787	2.61
390.041	1.41
390.295	1.85
390.548	2.71
390.802	5.32
391.055	5.57
391.309	4.42
391.563	2.47
391.816	3.74
392.07	3.12
392.323	3.35
392.577	3.41
392.83	5.07
393.084	8.83
393.337	10.38
393.591	10.14
393.844	9.16
394.098	10.48
394.351	13.71
394.604	15.3
394.858	16.2
395.111	15.34
395.364	12.13
395.618	14.69
395.871	12.71
396.124	11.83
396.378	10.57
396.631	11.24
396.884	9.29
397.137	8.7
397.391	9.55
397.644	7.6
397.897	8.67
398.15	10.4
398.403	11.53
398.657	10.39
398.91	11.14
399.163	12.09
399.416	12.89
399.669	11.47
399.922	10.72
400.175	9.72
400.428	11.26
400.681	11.91
400.934	9.87
401.187	10.88
401.44	11.3
401.693	12.08
401.946	11.61
402.199	7.74
402.452	5.8
402.704	3.72
402.957	3.48
403.21	4.17
403.463	2.49
403.716	3.8
403.969	5.75
404.221	5.41
404.474	6.94
404.727	9.79
404.98	12.73
405.232	12.49
405.485	14.27
405.738	15.6
405.99	13.27
406.243	14.27
406.496	14.48
406.748	13.52
407.001	13.13
407.253	12.71
407.506	13.66
407.759	14.06
408.011	12.51
408.264	11.16
408.516	11.08
408.769	7.74
409.021	6.84
409.274	5.82
409.526	7.9
409.778	6.95
410.031	10.84
410.283	12.51
410.536	17.78
410.788	16.64
411.04	16.52
411.293	17.71
411.545	18.32
411.797	16.71
412.049	16.99
412.302	16.8
412.554	18.23
412.806	16.66
413.058	15.4
413.311	15.89
413.563	14.62
413.815	15.34
414.067	14.09
414.319	14.59
414.571	16.66
414.823	15.2
415.075	14.08
415.328	15.1
415.58	17.88
415.832	19.46
416.084	20
416.336	18.11
416.588	21.58
416.84	19.78
417.091	21.27
417.343	17.41
417.595	18.29
417.847	18.73
418.099	18.69
418.351	17.71
418.603	20.79
418.855	22.19
419.106	22.32
419.358	22.54
419.61	23.39
419.862	24.59
420.114	22.56
420.365	21.59
420.617	22.08
420.869	20.73
421.12	20.2
421.372	20.79
421.624	20.02
421.875	19.65
422.127	17.38
422.379	16.13
422.63	18.07
422.882	17.94
423.133	16.86
423.385	16.84
423.636	17.76
423.888	19.36
424.139	20.37
424.391	18.88
424.642	18.19
424.894	16.42
425.145	17.02
425.396	15.31
425.648	15.38
425.899	14.09
426.151	12.95
426.402	11.11
426.653	11.2
426.905	10.8
427.156	8.98
427.407	8.89
427.658	7.26
427.91	5.62
428.161	5.65
428.412	7.08
428.663	8.77
428.914	9.61
429.166	10.64
429.417	11.58
429.668	10.89
429.919	9.18
430.17	9.03
430.421	8.64
430.672	10.87
430.923	11.89
431.174	11.12
431.425	11.31
431.676	12.78
431.927	14.22
432.178	18.86
432.429	22.86
432.68	26.64
432.931	31.01
433.182	35.07
433.433	35.36
433.683	37.07
433.934	36.96
434.185	35.68
434.436	35.13
434.687	36.18
434.937	37.28
435.188	36.36
435.439	36.04
435.69	38.35
435.94	35.82
436.191	36.4
436.442	35.46
436.692	33.89
436.943	32.24
437.194	32.1
437.444	33.56
437.695	36.74
437.945	36.74
438.196	35.74
438.447	34.18
438.697	33.85
438.948	32.83
439.198	29.79
439.449	24.52
439.699	22.45
439.949	18.47
440.2	14.68
440.45	11.72
440.701	7.6
440.951	4.64
441.201	4.34
441.452	2.86
441.702	2.4
441.952	3.12
442.203	3.24
442.453	0.93
442.703	1.4
442.953	1.6
443.204	2.38
443.454	1.07
443.704	3.74
443.954	0.15
444.204	0.28
444.455	1.6
444.705	1.97
444.955	0.75
445.205	-0.78
445.455	-2.98
445.705	-2.39
445.955	-1.73
446.205	-1.82
446.455	-0.87
446.705	0.03
446.955	1.37
447.205	2.36
447.455	2.11
447.705	-0.11
447.955	-0.51
448.205	-0.49
448.454	0.15
448.704	0.64
448.954	-0.82
449.204	-0.3
449.454	-0.19
449.704	0.25
449.953	-1.09
450.203	1.35
450.453	-0.54
450.703	1.34
450.952	0.73
451.202	1.82
451.452	-0.63
451.701	2.26
451.951	4.72
452.201	3.55
452.45	2.83
452.7	4.27
452.949	5.21
453.199	4.95
453.448	4.94
453.698	5.48
453.947	5.54
454.197	4.6
454.446	2.98
454.696	3.88
454.945	3.95
455.195	3.59
455.444	4.08
455.693	6.27
455.943	4.89
456.192	4.66
456.442	5.13
456.691	5.32
456.94	3.9
457.189	3.39
457.439	4
457.688	5.47
457.937	4.14
458.186	5.32
458.436	4.7
458.685	5.18
458.934	3.77
459.183	3.67
459.432	3.17
459.681	3.76
459.93	2.42
460.179	2.42
460.429	1.15
460.678	2.72
460.927	5.55
461.176	6.15
461.425	5.13
461.674	5.9
461.923	4.95
462.172	6.02
462.42	5.36
462.669	6.5
462.918	5.95
463.167	7.37
463.416	5.66
463.665	5.92
463.914	5.98
464.162	4.74
464.411	5.02
464.66	6.69
464.909	5.86
465.158	7.46
465.406	7.1
465.655	8.57
465.904	9.66
466.152	9.97
466.401	9.82
466.65	10.91
466.898	10.95
467.147	9.97
467.395	8.7
467.644	10.58
467.893	10.28
468.141	9.88
468.39	7.8
468.638	6.05
468.887	4.4
469.135	5.53
469.384	6.15
469.632	6.55
469.88	4.96
470.129	6.87
470.377	5.18
470.626	7.88
470.874	8.11
471.122	9.4
471.371	9.69
471.619	9.55
471.867	11.84
472.115	11.99
472.364	10.32
472.612	12.84
472.86	10.32
473.108	11.09
473.356	11.44
473.605	10.97
473.853	8.04
474.101	8.36
474.349	9.11
474.597	11.42
474.845	10.15
475.093	9.44
475.341	8.17
475.589	9.06
475.837	10.81
476.085	11.32
476.333	10.45
476.581	11.26
476.829	10.03
477.077	11.55
477.325	11.68
477.573	13.62
477.821	11.98
478.069	12.34
478.317	12.94
478.564	14.01
478.812	12.42
479.06	11.2
479.308	10.1
479.555	9.2
479.803	8.4
480.051	10.15
480.299	9.32
480.546	9.59
480.794	8.8
481.042	8.98
481.289	9.18
481.537	11.61
481.784	10.72
482.032	12.7
482.28	12.52
482.527	12.67
482.775	14
483.022	15.36
483.27	16.95
483.517	18.33
483.765	18.99
484.012	18.79
484.259	17.8
484.507	20.8
484.754	22.07
485.002	23.77
485.249	22.53
485.496	25.52
485.744	26.66
485.991	25.97
486.238	24.83
486.486	28.65
486.733	30.78
486.98	35.18
487.227	35.13
487.474	36.56
487.722	37.8
487.969	36.8
488.216	38.03
488.463	37.81
488.71	36.18
488.957	36.13
489.204	35.91
489.451	36.32
489.699	35.39
489.946	32.98
490.193	34.04
490.44	33.94
490.687	34.89
490.934	33.15
491.18	31.14
491.427	31.53
491.674	33.98
491.921	34.72
492.168	33.48
492.415	29.89
492.662	28.63
492.909	29.71
493.155	26.92
493.402	25.06
493.649	23.18
493.896	23.46
494.142	19.73
494.389	18.36
494.636	13.45
494.883	11.35
495.129	10.28
495.376	9.29
495.623	9.87
495.869	11.14
496.116	11.49
496.362	12.89
496.609	13.87
496.855	16.63
497.102	16.93
497.348	16.07
497.595	15.88
497.841	17.79
498.088	15.53
498.334	14.76
498.581	13.27
498.827	12.81
499.074	12.87
499.32	13.47
499.566	15.18
499.813	15.21
500.059	13.62
500.305	12.77
500.552	11.32
500.798	12.21
501.044	14.86
501.29	11.95
501.537	9.8
501.783	10.31
502.029	11.83
502.275	11.16
502.521	10.58
502.767	10.7
503.013	12.86
503.26	10.98
503.506	7.56
503.752	8.5
503.998	6.12
504.244	6.68
504.49	5.09
504.736	5.8
504.982	5.43
505.228	6.15
505.474	5.58
505.72	5.79
505.966	4.83
506.211	7.63
506.457	7.78
506.703	5.44
506.949	3.39
507.195	3.33
507.441	-0.19
507.686	2.25
507.932	2.2
508.178	3.54
508.424	0.82
508.669	-0.89
508.915	0.85
509.161	2.85
509.406	3.06
509.652	3.67
509.898	5.84
510.143	5.8
510.389	5.2
510.634	1.88
510.88	4.18
511.125	4.89
511.371	5.29
511.616	5.95
511.862	2.47
512.107	-0.06
512.353	0.72
512.598	-0.55
512.844	-1.05
513.089	-2.27
513.335	-0.4
513.58	-0.62
513.825	-1.24
514.071	-1.54
514.316	-2.02
514.561	-0.57
514.806	-2.22
515.052	1.22
515.297	0.04
515.542	0.5
515.787	1.62
516.033	3.13
516.278	3.09
516.523	2.78
516.768	1.42
517.013	-0.04
517.258	-0.9
517.503	-1
517.748	-0.31
517.993	-1.41
518.238	-2.27
518.483	-2.71
518.728	-2.83
518.973	-3.71
519.218	-2.99
519.463	-2
519.708	-1.94
519.953	-3.4
520.198	-2.64
520.443	-0.47
520.688	1
520.933	-0.32
521.177	-0.92
521.422	-3.29
521.667	-0.48
521.912	0.5
522.157	-2.88
522.401	-1.63
522.646	-1.77
522.891	-0.56
523.135	1.16
523.38	0.42
523.625	-0.4
523.869	1.11
524.114	2.99
524.358	3.09
524.603	3.66
524.848	0.62
525.092	0.3
525.337	2.52
525.581	4.34
525.826	6.82
526.07	5.31
526.315	5.9
526.559	4.42
526.803	2.35
527.048	4.28
527.292	5.48
527.537	5.03
527.781	4.58
528.025	1.37
528.269	2.08
528.514	2.1
528.758	2.36
529.002	3.02
529.247	4.21
529.491	3.98
529.735	7.73
529.979	6.99
530.223	6.82
530.467	4.61
530.712	1.92
530.956	1.08
531.2	3.4
531.444	1.58
531.688	2.63
531.932	2.79
532.176	2.99
532.42	3.82
532.664	4.35
532.908	2.33
533.152	1.2
533.396	0.02
533.64	0.11
533.884	-1.09
534.128	-1.09
534.371	1.53
534.615	2.91
534.859	1.01
535.103	2.21
535.347	2.82
535.59	5.79
535.834	4.44
536.078	7.36
536.322	9.93
536.565	13.8
536.809	13.06
537.053	16.33
537.296	17.02
537.54	20.84
537.784	23.98
538.027	29.26
538.271	33.19
538.514	37.9
538.758	41.43
539.001	45.51
539.245	49.28
539.488	54.07
539.732	60.06
539.975	64.86
540.219	70.52
540.462	73.57
540.706	78.32
540.949	80.99
541.192	85.85
541.436	94.08
541.679	102.29
541.922	106.49
542.166	108.19
542.409	115.25
542.652	119.2
542.895	126.24
543.139	130.55
543.382	138.02
543.625	140.67
543.868	142.66
544.111	144.82
544.354	146.2
544.598	146.59
544.841	148.12
545.084	146.26
545.327	144.14
545.57	142.86
545.813	142.16
546.056	139.47
546.299	137.16
546.542	135.45
546.785	133.21
547.028	129.49
547.271	126.32
547.514	123.86
547.756	118.83
547.999	117.18
548.242	115.06
548.485	112.18
548.728	109.97
548.971	102.68
549.213	98.69
549.456	93.88
549.699	89.4
549.942	83.57
550.184	77.98
550.427	72.02
550.67	68.11
550.912	60.55
551.155	57.55
551.398	52.38
551.64	47.01
551.883	44.84
552.125	41.93
552.368	39.29
552.61	35.39
552.853	34.45
553.095	30.6
553.338	29.81
553.58	28.07
553.823	24.9
554.065	25.38
554.308	21.3
554.55	19.35
554.792	16.59
555.035	15.73
555.277	14.17
555.519	13.23
555.762	10.35
556.004	9.97
556.246	6.19
556.488	7.26
556.731	3.72
556.973	3.34
557.215	1.8
557.457	2.56
557.699	4.08
557.941	1.5
558.183	-0.05
558.426	0.55
558.668	-3.06
558.91	-0.49
559.152	-0.29
559.394	-1.2
559.636	-0.83
559.878	-0.27
560.12	-0.64
560.362	0.93
560.604	1.93
560.845	-0.12
561.087	0.01
561.329	1.31
561.571	-1.67
561.813	-0.35
562.055	-1.36
562.297	-1.78
562.538	-2.55
562.78	-1.47
563.022	-3.17
563.264	-1.84
563.505	-2.34
563.747	-1.19
563.989	-3.69
564.23	-4.03
564.472	-5.06
564.714	-2.08
564.955	-1.9
565.197	-4.43
565.438	-4.02
565.68	-1.71
565.921	-3.25
566.163	-1.47
566.404	-3.48
566.646	-1.5
566.887	-1.54
567.129	-1.43
567.37	-3.3
567.612	-0.94
567.853	-3.65
568.094	-4.42
568.336	-4.31
568.577	-5.41
568.818	-5.62
569.06	-6.52
569.301	-8.25
569.542	-7.21
569.783	-5.4
570.025	-5.39
570.266	-5.21
570.507	-3.8
570.748	-4.32
570.989	-4.11
571.23	-2.08
571.472	-0.94
571.713	-0.02
571.954	1.62
572.195	-1.02
572.436	-0.44
572.677	1.53
572.918	4.5
573.159	3.63
573.4	1.74
573.641	1.44
573.882	2.34
574.123	0.16
574.364	-2.19
574.604	-1.34
574.845	-1.97
575.086	-1.75
575.327	-0.41
575.568	0.9
575.809	1.11
576.049	1.28
576.29	1.08
576.531	4.42
576.771	7.07
577.012	9.35
577.253	10.45
577.494	10.49
577.734	11.85
577.975	13.4
578.215	14.62
578.456	14.64
578.697	15.53
578.937	17.32
579.178	16.23
579.418	15.16
579.659	16.47
579.899	15.11
580.14	15.5
580.38	15.36
580.62	15.44
580.861	19.58
581.101	19.84
581.342	20.28
581.582	18.18
581.822	20.17
582.063	19.86
582.303	22.19
582.543	23.03
582.783	24.57
583.024	24.91
583.264	27.51
583.504	27.56
583.744	28.63
583.984	28.68
584.224	30.1
584.465	29.77
584.705	29.32
584.945	30.91
585.185	30.16
585.425	30.01
585.665	29.74
585.905	30
586.145	28.73
586.385	27.57
586.625	29.94
586.865	30.12
587.105	30.66
587.345	30.77
587.585	31.54
587.824	30.02
588.064	29.51
588.304	26.75
588.544	25.73
588.784	24.81
589.024	27.17
589.263	27.22
589.503	26.24
589.743	25.41
589.982	24.23
590.222	22.42
590.462	21.05
590.701	18.44
590.941	20.04
591.181	19.17
591.42	17.6
591.66	18.18
591.899	18.55
592.139	17.67
592.378	17.33
592.618	17.17
592.857	15.52
593.097	15.6
593.336	13.89
593.576	11.6
593.815	12.28
594.055	12.11
594.294	10.4
594.533	9.39
594.773	8.71
595.012	9.03
595.251	9.87
595.491	11.8
595.73	13.66
595.969	14.26
596.208	13.54
596.447	16.16
596.687	16.34
596.926	16.31
597.165	15.59
597.404	16.41
597.643	14.25
597.882	13.29
598.121	14.49
598.36	13.89
598.599	14.69
598.838	14.17
599.077	12.12
599.316	13.59
599.555	12.41
599.794	11.37
600.033	11.9
600.272	13.35
600.511	12.53
600.75	15.2
600.989	16.74
601.228	16.41
601.466	15.14
601.705	17.28
601.944	18.67
602.183	20
602.422	19.48
602.66	18.52
602.899	18.29
603.138	18.66
603.376	19.17
603.615	20.55
603.854	19.31
604.092	19.1
604.331	19.92
604.569	20.29
604.808	19.4
605.047	22.51
605.285	23.27
605.524	23.23
605.762	22.71
606	24.06
606.239	26.28
606.477	26.76
606.716	24.55
606.954	27.36
607.193	29.45
607.431	31.24
607.669	35.4
607.908	39.45
608.146	46.7
608.384	53.23
608.622	58.12
608.861	64.14
609.099	68.24
609.337	70.97
609.575	75.22
609.813	79.15
610.052	82.03
610.29	80.1
610.528	81.12
610.766	82.66
611.004	84.43
611.242	84.75
611.48	86.14
611.718	85.86
611.956	86.44
612.194	87.92
612.432	87.75
612.67	88.69
612.908	90.7
613.146	90.27
613.384	89.48
613.621	88.6
613.859	88.6
614.097	86.98
614.335	85.6
614.573	85.04
614.811	82.31
615.048	78.19
615.286	73.82
615.524	66.34
615.761	59.45
615.999	55.75
616.237	49.8
616.474	47.51
616.712	44.52
616.95	39.83
617.187	36.34
617.425	34.98
617.662	34.77
617.9	32.65
618.137	29.11
618.375	25.93
618.612	23.13
618.85	23.88
619.087	25.62
619.325	25.29
619.562	22.28
619.799	20.55
620.037	18.82
620.274	17.58
620.511	18.61
620.749	16.08
620.986	13.65
621.223	11.35
621.461	11.23
621.698	11.38
621.935	10.18
622.172	8.64
622.409	10.32
622.647	10.68
622.884	10.29
623.121	11.52
623.358	9.72
623.595	10.37
623.832	9.32
624.069	8.22
624.306	8.59
624.543	9.93
624.78	8.89
625.017	7.16
625.254	8.63
625.491	10.46
625.728	12.86
625.965	13.61
626.202	12.62
626.438	10.95
626.675	10.15
626.912	11.63
627.149	12.77
627.386	14.27
627.622	14.02
627.859	12.63
628.096	13.15
628.333	14.9
628.569	16.19
628.806	18.96
629.043	18.84
629.279	20.65
629.516	22.44
629.752	18.74
629.989	18.89
630.225	17.58
630.462	16.76
630.699	16.2
630.935	14.99
631.171	12.2
631.408	12.19
631.644	9.93
631.881	6.92
632.117	5.93
632.354	8.57
632.59	6.59
632.826	5.69
633.063	4.76
633.299	5.22
633.535	3
633.771	2.49
634.008	3.75
634.244	2.94
634.48	1.94
634.716	1.59
634.953	-0.5
635.189	-0.11
635.425	1.84
635.661	2.87
635.897	1.14
636.133	-0.35
636.369	-0.57
636.605	-3.91
636.841	-3.94
637.077	-2.86
637.313	-3.72
637.549	-2.57
637.785	-2.86
638.021	-2.87
638.257	-3.35
638.493	-1.16
638.729	-2.16
638.965	1.34
639.2	2.79
639.436	3.26
639.672	2.28
639.908	0.51
640.144	4.19
640.379	6.08
640.615	5.21
640.851	6.91
641.086	7.68
641.322	6.62
641.558	7.61
641.793	8.6
642.029	7.43
642.264	7.2
642.5	7.17
642.736	4.7
642.971	5.8
643.207	5.13
643.442	4.61
643.678	4.01
643.913	4.43
644.148	3.03
644.384	5.09
644.619	5.15
644.855	5.29
645.09	5.86
645.325	6.77
645.561	7.7
645.796	6.47
646.031	9.51
646.266	7.51
646.502	6.67
646.737	7.07
646.972	7.07
647.207	8.41
647.442	6.79
647.678	4.2
647.913	6.15
648.148	7.47
648.383	6.43
648.618	6.25
648.853	7.41
649.088	8.47
649.323	10.19
649.558	11.94
649.793	12.11
650.028	14.1
650.263	10.28
650.498	11.53
650.733	11.17
650.968	9.96
651.202	11.66
651.437	10.68
651.672	7.45
651.907	7.13
652.142	8.05
652.376	8.72
652.611	8.65
652.846	9.27
653.081	9.53
653.315	8.49
653.55	7.78
653.785	6.35
654.019	8.04
654.254	7.13
654.488	8.13
654.723	4.95
654.958	4.12
655.192	3.45
655.427	-0.53
655.661	0.88
655.896	3.03
656.13	3.06
656.364	0.42
656.599	-1.13
656.833	3.6
657.068	5.23
657.302	3.29
657.536	3.54
657.771	5.87
658.005	6.27
658.239	8.42
658.474	5.91
658.708	8.08
658.942	8.48
659.176	9.19
659.41	7.35
659.645	7.46
659.879	8.41
660.113	6.09
660.347	6.18
660.581	4.33
660.815	5.76
661.049	5.74
661.283	2.98
661.517	2.2
661.751	1.4
661.985	1.82
662.219	2.21
662.453	0.59
662.687	2.36
662.921	0.35
663.155	-0.02
663.389	-4.11
663.622	-3.66
663.856	-2.46
664.09	-8.15
664.324	-9.41
664.558	-8.29
664.791	-9.52
665.025	-11.27
665.259	-10.53
665.492	-11.46
665.726	-7.52
665.96	-7.84
666.193	-9.15
666.427	-9.6
666.661	-10.51
666.894	-12.28
667.128	-12.75
667.361	-10.84
667.595	-11.5
667.828	-11.01
668.062	-12.7
668.295	-11.94
668.529	-10.56
668.762	-8.77
668.995	-9.5
669.229	-6.7
669.462	-6.38
669.695	-5.82
669.929	-6.84
670.162	-6.21
670.395	-7.21
670.629	-5.17
670.862	-4.27
671.095	-5.83
671.328	-5.83
671.561	-6.29
671.795	-6.81
672.028	-6.09
672.261	-4.36
672.494	-3.95
672.727	-5.5
672.96	-5.53
673.193	-6.99
673.426	-3.92
673.659	-4.54
673.892	-2.74
674.125	-3.21
674.358	-4.01
674.591	-4.52
674.824	-5.59
675.057	-6.42
675.29	-6.39
675.523	-4.87
675.755	-5.79
675.988	-6.34
676.221	-3.91
676.454	-5.19
676.687	-3.46
676.919	-3.48
677.152	-3.17
677.385	-3.12
677.617	-3.77
677.85	-3.03
678.083	-4.19
678.315	-2.28
678.548	-2.96
678.78	-3.69
679.013	-3.11
679.246	-2.29
679.478	-1.91
679.711	-3.94
679.943	-2.49
680.175	-4.6
680.408	-1.57
680.64	-3.98
680.873	-2.53
681.105	-3.61
681.338	-0.71
681.57	-1.82
681.802	-1.36
682.034	-0.76
682.267	0.73
682.499	1.57
682.731	-0.31
682.964	-0.89
683.196	-2.61
683.428	-4.32
683.66	-5.29
683.892	-3.57
684.124	-2.4
684.356	-0.3
684.589	-0.18
684.821	-0.31
685.053	-0.9
685.285	0.03
685.517	0.91
685.749	1.92
685.981	2.85
686.213	2.12
686.445	2.78
686.676	1.08
686.908	2.3
687.14	1.74
687.372	1.71
687.604	-0.23
687.836	0.59
688.068	0.65
688.299	1.53
688.531	-0.06
688.763	2.96
688.995	2.01
689.226	4.77
689.458	3.57
689.69	3.81
689.921	3.52
690.153	3.34
690.384	5.73
690.616	4.42
690.848	4.43
691.079	1.17
691.311	0.2
691.542	-2.21
691.774	-4.27
692.005	-0.79
692.237	1.32
692.468	0.07
692.699	-0.99
692.931	-1.48
693.162	-3.46
693.393	-2.33
693.625	-3.05
693.856	-3.21
694.087	-2.69
694.319	-0.96
694.55	-0.63
694.781	-2.63
695.012	-1.6
695.243	-3.41
695.475	-4.68
695.706	-3.97
695.937	-3.71
696.168	-3.58
696.399	-5.89
696.63	-5.37
696.861	-5.59
697.092	-1.61
697.323	0.71
697.554	0.8
697.785	3.04
698.016	4.5
698.247	3.78
698.478	4.21
698.709	5.13
698.94	7.27
699.171	5.1
699.401	1.94
699.632	3.08
699.863	0.58
700.094	1.76
700.325	4.69
700.555	4.86
700.786	6.1
701.017	7.34
701.247	6.6
701.478	4.74
701.709	4.61
701.939	4.49
702.17	5.73
702.401	8.3
702.631	9.45
702.862	7.51
703.092	4.61
703.323	5.98
703.553	7.65
703.784	8.13
704.014	8.17
704.244	4.53
704.475	4.15
704.705	4.53
704.936	4.5
705.166	4.6
705.396	5.66
705.627	5.71
705.857	7
706.087	7.52
706.317	6.66
706.548	5.29
706.778	5.18
707.008	6.72
707.238	6.39
707.468	4.62
707.698	2.82
707.928	1.76
708.158	0.73
708.389	0.13
708.619	0.67
708.849	-0.05
709.079	1.91
709.309	-1.24
709.539	-3.66
709.768	-3.37
709.998	-1.39
710.228	-0.29
710.458	-2.57
710.688	-4.42
710.918	-4.32
711.148	-4.63
711.378	-4.02
711.607	-6.02
711.837	-6.52
712.067	-7.29
712.297	-8.29
712.526	-9.01
712.756	-8.25
712.986	-10.19
713.215	-11.24
713.445	-10.56
713.674	-8.66
713.904	-10.17
714.134	-8.79
714.363	-8.79
714.593	-9.42
714.822	-10.11
715.052	-10.21
715.281	-9.29
715.511	-9.88
715.74	-9.75
715.969	-10.06
716.199	-11.31
716.428	-10.3
716.657	-9.53
716.887	-8.58
717.116	-10.46
717.345	-9.68
717.575	-7.89
717.804	-7.13
718.033	-8.21
718.262	-8.58
718.492	-7.6
718.721	-6.55
718.95	-6.79
719.179	-7.72
719.408	-7.13
719.637	-9.18
719.866	-10.89
720.095	-10.95
720.324	-11.93
720.553	-14.23
720.782	-14.42
721.011	-13.32
721.24	-15.2
721.469	-16.14
721.698	-15.8
721.927	-14.96
722.156	-16.45
722.385	-17.48
722.613	-14.71
722.842	-14.88
723.071	-12.8
723.3	-10.35
723.529	-10.35
723.757	-9.46
723.986	-11.99
724.215	-11.98
724.443	-11.69
724.672	-11.37
724.901	-10.27
725.129	-8.49
725.358	-5.96
725.586	-7.88
725.815	-7.61
726.043	-7.93
726.272	-9.52
726.5	-10.34
726.729	-8.54
726.957	-10.71
727.186	-11.03
727.414	-10.22
727.642	-9.45
727.871	-8.62
728.099	-8.6
728.327	-8.12
728.556	-5.98
728.784	-4.87
729.012	-6.14
729.241	-3.21
729.469	-2.34
729.697	-3.47
729.925	-4.12
730.153	-5.19
730.381	-5.88
730.61	-5.48
730.838	-7.8
731.066	-6.62
731.294	-7.36
731.522	-9.67
731.75	-11.35
731.978	-12
732.206	-13.27
732.434	-14.33
732.662	-13.18
732.89	-15.14
733.118	-16.8
733.346	-14.84
733.573	-14.35
733.801	-15.09
734.029	-9.8
734.257	-9.69
734.485	-8.1
734.712	-7.53
734.94	-8.9
735.168	-7.05
735.396	-6.48
735.623	-8.86
735.851	-8.31
736.078	-6.51
736.306	-6.19
736.534	-8.92
736.761	-9.63
736.989	-9.34
737.216	-9.95
737.444	-11.05
737.671	-9.97
737.899	-6.78
738.126	-8.05
738.354	-7.61
738.581	-5.33
738.809	-5.55
739.036	-8.24
739.263	-8.41
739.491	-10.7
739.718	-12.36
739.945	-7.76
740.173	-4.97
740.4	-5.46
740.627	-7.04
740.854	-5.78
741.081	-8.13
741.309	-8.12
741.536	-10.38
741.763	-9.63
741.99	-8.05
742.217	-7.95
742.444	-8.83
742.671	-6.04
742.898	-6.74
743.125	-8.29
743.352	-10.51
743.579	-9.66
743.806	-9.31
744.033	-9.05
744.26	-8.55
744.487	-9.51
744.714	-9.7
744.941	-9.68
745.167	-6.19
745.394	-6.74
745.621	-7.74
745.848	-6.21
746.075	-2.78
746.301	-0.66
746.528	2.94
746.755	2.53
746.981	1.57
747.208	1.26
747.435	2.78
747.661	4.08
747.888	5.24
748.114	4.96
748.341	6.51
748.567	8.7
748.794	7.11
749.02	5.74
749.247	3.92
749.473	4.71
749.7	3.31
749.926	2.7
750.152	5.02
750.379	6.16
750.605	6.67
750.831	5.61
751.058	6.16
751.284	4.53
751.51	6.14
751.737	6.01
751.963	5.95
752.189	4.94
752.415	4.69
752.641	3.94
752.867	2.81
753.094	0.83
753.32	0.22
753.546	-1.66
753.772	1.02
753.998	-0.22
754.224	-0.29
754.45	-1.01
754.676	-1.02
754.902	-2.91
755.128	-3.06
755.354	-3.34
755.579	-2.45
755.805	-0.92
756.031	-1.76
756.257	-1.77
756.483	-3.22
756.709	-4.8
756.934	-3.81
757.16	-5.22
757.386	-5.41
757.612	-7.38
757.837	-8.96
758.063	-7.43
758.289	-4.17
758.514	-5.03
758.74	-7.9
758.965	-11.46
759.191	-10.28
759.416	-8.46
759.642	-7.77
759.868	-7.48
760.093	-5.84
760.318	-6.02
760.544	-5.12
760.769	-5.96
760.995	-6.4
761.22	-5.88
761.445	-4.55
761.671	-3.58
761.896	-0.33
762.121	-0.05
762.347	-0.42
762.572	-2.55
762.797	-2.48
763.022	-1.9
763.248	0.8
763.473	1.44
763.698	1.68
763.923	2.04
764.148	2.81
764.373	2.14
764.598	4.15
764.823	7.05
765.048	4.47
765.273	1.43
765.498	1.53
765.723	2.45
765.948	5.13
766.173	3.61
766.398	4.12
766.623	2.66
766.848	2.68
767.073	0.14
767.298	-1.52
767.522	-2.1
767.747	-1.97
767.972	-1.9
768.197	-2.37
768.421	-3.81
768.646	-5.61
768.871	-9.86
769.095	-9.42
769.32	-8.7
769.545	-9.23
769.769	-8.74
769.994	-6.92
770.218	-9.63
770.443	-8.75
770.667	-7.61
770.892	-7.97
771.116	-9.93
771.341	-9.07
771.565	-9.07
771.79	-8.7
772.014	-9.27
772.238	-9.88
772.463	-8.64
772.687	-7.45
772.911	-8.76
773.136	-11.22
773.36	-10.97
773.584	-9.79
773.808	-11.06
774.033	-10.02
774.257	-9.24
774.481	-9.32
774.705	-9.7
774.929	-10.26
775.153	-10.99
775.377	-9.35
775.602	-9.28
775.826	-7.02
776.05	-6.83
776.274	-7.43
776.498	-7.2
776.722	-8.67
776.945	-9.05
777.169	-7.85
777.393	-8.65
777.617	-9.1
777.841	-8.88
778.065	-7.28
778.289	-8.74
778.512	-8.99
778.736	-8.66
778.96	-8.53
779.184	-6.66
779.407	-7.69
779.631	-7.69
779.855	-8.05
780.078	-6.78
780.302	-8.36
780.526	-9.48
780.749	-9.35
780.973	-8.2
781.196	-7.78
781.42	-9.41
781.643	-8.72
781.867	-7.22
782.09	-7.68
782.314	-9.57
782.537	-10.75
782.76	-10.71
782.984	-9.08
783.207	-9.39
783.431	-8.53
783.654	-9.05
783.877	-10.41
784.1	-12.33
784.324	-12.42
784.547	-14.57
784.77	-17.07
784.993	-18.19
785.216	-17.25
785.44	-17.17
785.663	-19.15
785.886	-16.26
786.109	-17.62
786.332	-17.02
786.555	-16.6
786.778	-14.83
787.001	-13.33
787.224	-12.11
787.447	-10.74
787.67	-8.89
787.893	-7.65
788.116	-6.32
788.339	-5.73
788.561	-7.54
788.784	-10.19
789.007	-10.72
789.23	-10.22
789.453	-9.89
789.675	-12.32
789.898	-13.21
790.121	-13.92
790.344	-13.76
790.566	-13.29
790.789	-13.38
791.012	-12.8
791.234	-10.47
791.457	-7.26
791.679	-6.32
791.902	-5.38
792.124	-5.69
792.347	-6.68
792.569	-6.98
792.792	-9.54
793.014	-6.73
793.237	-5.66
793.459	-6.6
793.681	-6.85
793.904	-8.58
794.126	-9.19
794.348	-9.5
794.571	-8.72
794.793	-11.01
795.015	-12.19
795.237	-13.37
795.46	-12.56
795.682	-12.1
795.904	-9.94
796.126	-11.91
796.348	-10.94
796.57	-7.07
796.792	-8.57
797.014	-6.05
797.237	-5.49
797.459	-2.99
797.681	-1.16
797.903	-2.55
798.124	-2.71
798.346	6.39
798.568	7.78
798.79	10.12
799.012	10.92
799.234	12.34
799.456	12.93
799.678	14.7
799.899	12.54
800.121	9.72
800.343	10.92
800.565	10.32
800.786	10.2
801.008	11
801.23	10.74
801.451	11.03
801.673	10.79
801.895	11.46
802.116	13.71
802.338	14.5
802.559	14.99
802.781	12.68
803.002	14.57
803.224	13.68
803.445	10.18
803.667	12.04
803.888	9.59
804.109	9.36
804.331	8.2
804.552	7.34
804.773	10.3
804.995	7.6
805.216	-2.96
805.437	-4.81
805.658	-8.07
805.88	-9.37
806.101	-9.78
806.322	-9.42
806.543	-10.41
806.764	-12.07
806.985	-10.48
807.207	-10.43
807.428	-9.97
807.649	-12.16
807.87	-14.18
808.091	-14.37
808.312	-14.47
808.533	-11.21
808.754	-10.58
808.975	-12.1
809.195	-10.79
809.416	-10.55
809.637	-10.39
809.858	-11.07
810.079	-11.74
810.3	-8.21
810.52	-8.99
810.741	-8.81
810.962	-10.55
811.183	-11.27
811.403	-10.13
811.624	-11.72
811.845	-9.97
812.065	-8.9
812.286	-7.36
812.506	-6.78
812.727	-7.37
812.948	-6.39
813.168	-4.29
813.389	-5.44
813.609	-3.13
813.83	-3.38
814.05	-3.58
814.27	-3.54
814.491	0.49
814.711	-0.05
814.931	-1.97
815.152	-3.29
815.372	-5.09
815.592	-6.93
815.813	-7.9
816.033	-8.96
816.253	-7.86
816.473	-9.03
816.694	-8.31
816.914	-6.12
817.134	-7.27
817.354	-7.85
817.574	-7.95
817.794	-7.69
818.014	-9.32
818.234	-9.94
818.454	-11.78
818.674	-14.04
818.894	-15.61
819.114	-14.52
819.334	-13.75
819.554	-10.54
819.774	-9.36
819.994	-12.53
820.214	-12.45
820.433	-12.17
820.653	-12.82
820.873	-12.98
821.093	-12.15
821.312	-14.82
821.532	-11.95
821.752	-9.48
821.972	-9.82
822.191	-8.9
822.411	-8.93
822.63	-7.74
822.85	-8.3
823.07	-10.86
823.289	-9.25
823.509	-9.8
823.728	-8.63
823.948	-10.15
824.167	-11.73
824.387	-12.33
824.606	-9.82
824.825	-9.2
825.045	-10.3
825.264	-9.48
825.483	-7.3
825.703	-6.64
825.922	-7.96
826.141	-8.73
826.361	-9.8
826.58	-11.85
826.799	-11.65
827.018	-10.86
827.237	-10.9
827.456	-9.76
827.676	-8.94
827.895	-9.11
828.114	-8.24
828.333	-9.74
828.552	-9.53
828.771	-9.07
828.99	-10.99
829.209	-11.59
829.428	-9.61
829.647	-9.22
829.866	-7.68
830.084	-7.87
830.303	-8.5
830.522	-9.77
830.741	-9.7
830.96	-8.37
831.179	-7.35
831.397	-10
831.616	-10.63
831.835	-11.52
832.053	-10.95
832.272	-11.03
832.491	-9.94
832.709	-10.49
832.928	-10.43
833.147	-10.74
833.365	-11.41
833.584	-9.4
833.802	-8.45
834.021	-7.12
834.239	-6.04
834.458	-8.13
834.676	-10.97
834.894	-11.04
835.113	-11.25
835.331	-12.32
835.55	-12.94
835.768	-12.1
835.986	-9.32
836.204	-10.31
836.423	-10.22
836.641	-11.86
836.859	-12.6
837.077	-11.86
837.296	-9.79
837.514	-9.45
837.732	-10.23
837.95	-11.18
838.168	-10.39
838.386	-10.37
838.604	-7.84
838.822	-7.99
839.04	-8.6
839.258	-8.3
839.476	-7.94
839.694	-7.57
839.912	-8.05
840.13	-7.52
840.348	-5.49
840.566	-7.52
840.783	-7.81
841.001	-8.8
841.219	-6.38
841.437	-5.17
841.655	-4.5
841.872	-4.67
842.09	-5.23
842.308	-3.91
842.525	-3.64
842.743	-4.21
842.961	-5.12
843.178	-6.35
843.396	-2.37
843.613	-0.99
843.831	-0.54
844.048	-1.84
844.266	-2.18
844.483	-2.22
844.701	-2.57
844.918	-2.4
845.136	-1.92
845.353	-3.38
845.57	-2.87
845.788	-1.62
846.005	-3.35
846.222	-2.78
846.439	-0.67
846.657	0.06
846.874	0.53
847.091	-1.85
847.308	0.42
847.526	-0.76
847.743	-1.23
847.96	-2.48
848.177	-2.97
848.394	-2.92
848.611	-4.11
848.828	-4.21
849.045	-5.75
849.262	-5.89
849.479	-6.05
849.696	-7.87
849.913	-8.67
850.13	-13.42
850.347	-12.93
850.564	-13.87
850.78	-15.72
850.997	-16.9
851.214	-16.4
851.431	-16.47
851.647	-17.78
851.864	-17.21
852.081	-16.15
852.298	-17.51
852.514	-18.56
852.731	-17.54
852.948	-17.32
853.164	-17.76
853.381	-18.91
853.597	-19.66
853.814	-20.81
854.03	-22.75
854.247	-22.99
854.463	-23.22
854.68	-23.89
854.896	-22.74
855.113	-21.87
855.329	-20.76
855.545	-19.9
855.762	-19.04
855.978	-20.7
856.194	-22.78
856.411	-18.69
856.627	-17.42
856.843	-16.02
857.059	-14.39
857.275	-14.1
857.492	-12.86
857.708	-10.35
857.924	-9.49
858.14	-7.16
858.356	-7.11
858.572	-6.15
858.788	-7.43
859.004	-5.61
859.22	-7.18
859.436	-7.68
859.652	-7.87
859.868	-10.2
860.084	-9.67
860.3	-9.37
860.516	-9.16
860.731	-9.69
860.947	-10.91
861.163	-9.42
861.379	-8
861.595	-6.35
861.81	-6.42
862.026	-6.64
862.242	-4.64
862.457	-4.46
862.673	-4.79
862.889	-4.52
863.104	-5.43
863.32	-4.98
863.535	-4.61
863.751	-8.24
863.966	-6.36
864.182	-5.7
864.397	-6.62
864.613	-8.11
864.828	-9.25
865.044	-8.81
865.259	-7.39
865.474	-7.3
865.69	-7.03
865.905	-5.05
866.12	-6.09
866.336	-6.48
866.551	-4.92
866.766	-6.32
866.981	-6.57
867.196	-7.74
867.412	-7.04
867.627	-6.07
867.842	-6.52
868.057	-7.02
868.272	-8.55
868.487	-10.08
868.702	-10.83
868.917	-13.07
869.132	-11.89
869.347	-10.4
869.562	-11.01
869.777	-10.78
869.992	-10.39
870.207	-10.52
870.422	-10.14
870.636	-11.05
870.851	-12.61
871.066	-13.67
871.281	-13.82
871.495	-15.36
871.71	-13.1
871.925	-15.88
872.14	-16.49
872.354	-17.94
872.569	-18.75
872.783	-16.76
872.998	-17.57
873.213	-17.46
873.427	-14.31
873.642	-12.89
873.856	-11.9
874.071	-12.1
874.285	-11.99
874.5	-13.8
874.714	-15.35
874.928	-15.47
875.143	-14.57
875.357	-13.41
875.571	-13.2
875.786	-13.96
876	-11.84
876.214	-10.75
876.429	-13.88
876.643	-14.68
876.857	-13.16
877.071	-11.53
877.285	-13.59
877.499	-14.59
877.714	-12.63
877.928	-11.06
878.142	-12.16
878.356	-14.8
878.57	-14.86
878.784	-14.56
878.998	-15.16
879.212	-13.59
879.426	-14.71
879.639	-12.67
879.853	-15.11
880.067	-16.19
880.281	-17.86
880.495	-15.54
880.709	-14.06
880.922	-14.61
881.136	-13.09
881.35	-12.43
881.564	-13.54
881.777	-15.57
881.991	-15.34
882.205	-12.53
882.418	-13.15
882.632	-14.09
882.845	-13.61
883.059	-12.96
883.273	-13.98
883.486	-15.65
883.7	-15.28
883.913	-14.43
884.126	-13.5
884.34	-14.02
884.553	-15.61
884.767	-12.15
884.98	-12.29
885.193	-12.46
885.407	-11.65
885.62	-10.08
885.833	-11.07
886.046	-11.13
886.26	-12.72
886.473	-11.29
886.686	-11.48
886.899	-10.39
887.112	-12.51
887.326	-13.68
887.539	-12.56
887.752	-11.43
887.965	-11.94
888.178	-10.41
888.391	-9.44
888.604	-9.39
888.817	-11.44
889.03	-10.1
889.243	-13.05
889.455	-15.11
889.668	-13.31
889.881	-9.93
890.094	-10.58
890.307	-10.18
890.52	-9.17
890.732	-7.51
890.945	-9.84
891.158	-9.08
891.37	-10.6
891.583	-9.16
891.796	-7.69
892.008	-8.4
892.221	-8.73
892.434	-10.91
892.646	-11.51
892.859	-12.51
893.071	-12.24
893.284	-11.4
893.496	-11.89
893.709	-11.56
893.921	-10.99
894.133	-11.4
894.346	-13.23
894.558	-13.48
894.771	-14.25
894.983	-13.33
895.195	-11.41
895.407	-10.4
895.62	-13.37
895.832	-12.71
896.044	-9.85
896.256	-10.36
896.468	-12.63
896.681	-11.22
896.893	-13.3
897.105	-14.13
897.317	-15.8
897.529	-13.53
897.741	-12.18
897.953	-10.43
898.165	-11.93
898.377	-14.09
898.589	-13.53
898.801	-14.31
899.013	-11.49
899.224	-9.41
899.436	-7.55
899.648	-7.04
899.86	-8.36
900.072	-6.72
900.283	-5.62
900.495	-4.69
900.707	-4.44
900.919	-5.31
901.13	-3.47
901.342	-3.94
901.554	-4.45
901.765	-4.86
901.977	-7.5
902.188	-6.74
902.4	-7.42
902.611	-9.69
902.823	-11.32
903.034	-13.15
903.246	-14.05
903.457	-13.55
903.669	-14.43
903.88	-15.02
904.091	-15.01
904.303	-15.57
904.514	-16.64
904.725	-14.05
904.936	-12.82
905.148	-12.87
905.359	-10.64
905.57	-11.5
905.781	-12.98
905.992	-14
906.204	-14.54
906.415	-13.13
906.626	-13.46
906.837	-12.71
907.048	-13.39
907.259	-13.37
907.47	-13.65
907.681	-15.39
907.892	-15.19
908.103	-14.87
908.314	-18.15
908.525	-16.81
908.735	-16.16
908.946	-15.94
909.157	-16.52
909.368	-14.08
909.579	-12.66
909.789	-13.61
910	-14.92
910.211	-12.43
910.421	-13.46
910.632	-13.29
910.843	-15.53
911.053	-14.28
911.264	-13.89
911.475	-14.45
911.685	-12.84
911.896	-13.03
912.106	-12.23
912.317	-12.7
912.527	-10.46
912.737	-10
912.948	-11.13
913.158	-12.16
913.369	-13.28
913.579	-12.62
913.789	-13.38
914	-11.35
914.21	-10.74
914.42	-10.15
914.63	-10.86
914.841	-9.36
915.051	-8.15
915.261	-7.55
915.471	-5.11
915.681	-3.78
915.891	-4.67
916.101	-4.53
916.311	-4.45
916.521	-4.5
916.731	-4.01
916.941	-0.79
917.151	-1.91
917.361	1.08
917.571	-0.21
917.781	-1.62
917.991	-3.91
918.201	-4.88
918.411	-7.21
918.621	-9.07
918.83	-8.23
919.04	-10.35
919.25	-10.13
919.46	-8.86
919.669	-11.57
919.879	-12.06
920.089	-12.53
920.298	-12.94
920.508	-12.75
920.717	-12.54
920.927	-12.66
921.136	-12.32
921.346	-13.46
921.555	-15.95
921.765	-16.59
921.974	-18.73
922.184	-21.37
922.393	-22.05
922.603	-23.4
922.812	-20.58
923.021	-19.79
923.23	-21.65
923.44	-24.7
923.649	-25.12
923.858	-25.47
924.067	-25.7
924.277	-27.9
924.486	-25.95
924.695	-27.35
924.904	-26.25
925.113	-25.24
925.322	-25.4
925.531	-25.06
925.74	-26.45
925.949	-27.7
926.158	-24.63
926.367	-26.15
926.576	-26.04
926.785	-26.28
926.994	-27.24
927.203	-26.12
927.412	-25.95
927.621	-26.57
927.83	-24.29
928.038	-24.04
928.247	-23.99
928.456	-23.46
928.665	-21.72
928.873	-20.26
929.082	-17.64
929.291	-18.66
929.499	-17.79
929.708	-17.23
929.916	-15.57
930.125	-15.65
930.333	-16.73
930.542	-15.99
930.75	-13.23
930.959	-12.01
931.167	-12.07
931.376	-12.35
931.584	-10.65
931.793	-9.92
932.001	-10.41
932.209	-12.5
932.418	-13.71
932.626	-15.37
932.834	-14.5
933.042	-16.19
933.251	-15.6
933.459	-16.49
933.667	-17.17
933.875	-18.78
934.083	-17.67
934.291	-17.79
934.499	-17.43
934.707	-17.79
934.915	-16.88
935.123	-15.08
935.331	-16.04
935.539	-17.27
935.747	-18.24
935.955	-18.89
936.163	-20.31
936.371	-21.4
936.579	-19.72
936.787	-19.19
936.995	-20.62
937.202	-22.56
937.41	-22.07
937.618	-22.88
937.826	-21.65
938.033	-25.88
938.241	-26.25
938.449	-24.49
938.656	-21.11
938.864	-21.53
939.071	-22
939.279	-20.33
939.486	-17.75
939.694	-18.19
939.901	-18.2
940.109	-17.97
940.316	-17.12
940.524	-17.21
940.731	-17.2
940.939	-16.07
941.146	-16.75
941.353	-18.74
941.561	-18.58
941.768	-18.22
941.975	-18.19
942.182	-18.87
942.39	-18.19
942.597	-14.58
942.804	-14.16
943.011	-15.17
943.218	-15.68
943.425	-15.43
943.632	-14.45
943.839	-16.52
944.046	-16.04
944.253	-16.43
944.46	-15.31
944.667	-13.41
944.874	-13.84
945.081	-12.75
945.288	-11.42
945.495	-8.85
945.702	-9.03
945.909	-11.38
946.115	-9.25
946.322	-10.34
946.529	-10.17
946.736	-10.17
946.942	-9.96
947.149	-12.18
947.356	-13.78
947.562	-14.24
947.769	-13.2
947.976	-14.34
948.182	-13.36
948.389	-13.99
948.595	-13.64
948.802	-14.24
949.008	-16.52
949.215	-15.18
949.421	-15.1
949.628	-15.76
949.834	-14.97
950.04	-15.87
950.247	-12.71
950.453	-10.79
950.659	-12.29
950.865	-10.12
951.072	-13.99
951.278	-12.86
951.484	-13.47
951.69	-15.5
951.896	-17.45
952.103	-18.66
952.309	-16.81
952.515	-18.03
952.721	-15.95
952.927	-17.8
953.133	-18.53
953.339	-19.43
953.545	-20.04
953.751	-20.11
953.957	-17.8
954.163	-19.64
954.369	-18.93
954.574	-21.63
954.78	-22.5
954.986	-19.86
955.192	-17.31
955.398	-17.88
955.603	-19.81
955.809	-18.66
956.015	-18.23
956.22	-17.32
956.426	-16.2
956.632	-18
956.837	-19.12
957.043	-18.65
957.248	-19.05
957.454	-17.26
957.66	-18.93
957.865	-20.86
958.07	-20.13
958.276	-19.73
958.481	-20.7
958.687	-22.46
958.892	-22.42
959.097	-22.22
959.303	-21.64
959.508	-21.56
959.713	-21.06
959.919	-18.73
960.124	-16.75
960.329	-16.22
960.534	-12.99
960.739	-12.55
960.945	-11.13
961.15	-10.35
961.355	-12.47
961.56	-16.19
961.765	-17.36
961.97	-16.9
962.175	-16.48
962.38	-18.55
962.585	-17.87
962.79	-18.96
962.995	-19.93
963.2	-19.98
963.404	-20.74
963.609	-22.53
963.814	-23.88
964.019	-25.52
964.224	-26.47
964.428	-24.74
964.633	-24.47
964.838	-22.8
965.042	-22.77
965.247	-23.68
965.452	-24.77
965.656	-22.85
965.861	-22.77
966.066	-22.93
966.27	-21.56
966.475	-20.39
966.679	-24.46
966.884	-24.35
967.088	-25.99
967.292	-25.6
967.497	-24.77
967.701	-25.66
967.906	-24.32
968.11	-22.26
968.314	-20.08
968.518	-21.65
968.723	-18.62
968.927	-19.27
969.131	-17.93
969.335	-16.69
969.539	-16.45
969.744	-14.95
969.948	-12.67
970.152	-11.66
970.356	-9.52
970.56	-8.17
970.764	-8.68
970.968	-6.74
971.172	-6.73
971.376	-5.26
971.58	-4.33
971.784	-3.11
971.988	-5.3
972.192	-3.52
972.395	-3.42
972.599	-5.33
972.803	-5.07
973.007	-2.85
973.21	-2.37
973.414	-2.11
973.618	-2.83
973.822	-2.21
974.025	-0.58
974.229	-0.21
974.432	-2.12
974.636	-3.76
974.84	-1.99
975.043	-3.26
975.247	-3.94
975.45	-5.79
975.654	-4.41
975.857	-4.58
976.06	-4.58
976.264	-5.63
976.467	-4.47
976.671	-5.26
976.874	-5.43
977.077	-5.3
977.28	-5.35
977.484	-7.54
977.687	-8.14
977.89	-7.51
978.093	-7.88
978.297	-6.26
978.5	-6.73
978.703	-6.33
978.906	-5.58
979.109	-7.18
979.312	-5.89
979.515	-6.77
979.718	-7.15
979.921	-6.94
980.124	-8.85
980.327	-9.75
980.53	-9.98
980.733	-8.55
980.936	-7.11
981.138	-8.32
981.341	-8.14
981.544	-8.06
981.747	-7.73
981.949	-9.6
982.152	-8.42
982.355	-9.83
982.558	-7.15
982.76	-9.29
982.963	-9.58
983.165	-8.63
983.368	-8.91
983.571	-10.2
983.773	-7.2
983.976	-6.41
984.178	-4.67
984.381	-5.19
984.583	-7.35
984.785	-8.34
984.988	-6.91
985.19	-6.59
985.392	-6.36
985.595	-9.19
985.797	-9.05
985.999	-7.28
986.202	-5.79
986.404	-6.36
986.606	-4.47
986.808	-5.05
987.01	-3.42
987.212	-3.9
987.415	-4.54
987.617	-2.99
987.819	-2.96
988.021	-2.74
988.223	-3.98
988.425	-3.97
988.627	-2.7
988.829	-6.04
989.031	-4.96
989.232	-5.91
989.434	-5.52
989.636	-5.84
989.838	-6.12
990.04	-5.88
990.242	-7.27
990.443	-10.46
990.645	-9.08
990.847	-6.7
991.048	-6.72
991.25	-8.42
991.452	-9
991.653	-10.84
991.855	-10.21
992.057	-11.33
992.258	-10.84
992.46	-12.18
992.661	-10.73
992.863	-13.13
993.064	-12.67
993.265	-13.93
993.467	-15.43
993.668	-14.54
993.87	-15.09
994.071	-15.65
994.272	-14.66
994.473	-13.37
994.675	-13.68
994.876	-13.12
995.077	-12.9
995.278	-11.65
995.48	-11.21
995.681	-11.99
995.882	-10.55
996.083	-12.11
996.284	-14.61
996.485	-14.73
996.686	-15.09
996.887	-15.7
997.088	-18.74
997.289	-18.87
997.49	-19.4
997.691	-19.4
997.892	-18.95
998.092	-16.02
998.293	-16.47
998.494	-17.33
998.695	-16.97
998.896	-16.35
999.096	-15.79
999.297	-15.81
999.498	-16.71
999.698	-16.94
999.899	-17.81
1000.1	-19.33
1000.3	-19.69
1000.501	-19.66
1000.701	-19.86
1000.902	-20.94
1001.102	-20.21
1001.303	-19.41
1001.503	-21.44
1001.704	-19.75
1001.904	-21.28
1002.105	-23.85
1002.305	-22.48
1002.505	-22.57
1002.706	-22.11
1002.906	-22.39
1003.106	-23.48
1003.306	-20.88
1003.507	-19.84
1003.707	-20.11
1003.907	-18.47
1004.107	-17.46
1004.307	-18.97
1004.507	-17.55
1004.707	-16.37
1004.907	-16.8
1005.107	-16.39
1005.308	-14.84
1005.507	-15.03
1005.707	-13.28
1005.907	-13.75
1006.107	-13.06
1006.307	-12.77
1006.507	-12.38
1006.707	-12.56
1006.907	-11.69
1007.106	-11.98
1007.306	-13.05
1007.506	-12.88
1007.706	-12.09
1007.905	-14.42
1008.105	-12.33
1008.305	-10.32
1008.504	-9.02
1008.704	-5.55
1008.903	-6.02
1009.103	-4.08
1009.303	-5.11
1009.502	-4.89
1009.702	-5.32
1009.901	-5.02
1010.1	-7.93
1010.3	-6.42
1010.499	-7.3
1010.699	-8.13
1010.898	-10.96
1011.097	-11.06
1011.296	-11.66
1011.496	-13.05
1011.695	-13.7
1011.894	-16.14
1012.093	-13.8
1012.293	-13.27
1012.492	-12.88
1012.691	-12.82
1012.89	-12.97
1013.089	-15.66
1013.288	-13.3
1013.487	-12.9
1013.686	-12.9
1013.885	-13.64
1014.084	-13.62
1014.283	-15.27
1014.482	-16.38
1014.681	-16.77
1014.88	-21.4
1015.078	-20
1015.277	-21.34
1015.476	-19.55
1015.675	-20.77
1015.873	-20.12
1016.072	-21.28
1016.271	-18.44
1016.47	-22.03
1016.668	-20.74
1016.867	-20.88
1017.065	-21.81
1017.264	-22.31
1017.463	-22.31
1017.661	-23.55
1017.86	-23.28
1018.058	-21.74
1018.256	-23.32
1018.455	-24.29
1018.653	-24.35
1018.852	-23.23
1019.05	-25.1
1019.248	-25.34
1019.447	-26.29
1019.645	-26.79
1019.843	-28.76
1020.041	-28.05
1020.24	-27.35
1020.438	-24.06
1020.636	-23.32
1020.834	-25.76
1021.032	-22.27
1021.23	-23.78
1021.428	-23.78
1021.626	-22.78
1021.824	-22.37
1022.022	-23.57
1022.22	-21.27
1022.418	-21.49
1022.616	-21.54
1022.814	-21.28
1023.012	-21.05
1023.21	-18.82
1023.408	-19.21
1023.606	-19.06
1023.803	-14.18
1024.001	-14.67
1024.199	-16.51
1024.397	-16.08
1024.594	-15.92
1024.792	-16.5
1024.99	-16.63
1025.187	-14.99
1025.385	-10.97
1025.582	-11.94
1025.78	-12.23
1025.977	-10.73
1026.175	-11.58
1026.372	-11.47
1026.57	-14.25
1026.767	-13.03
1026.965	-12.71
1027.162	-13.02
1027.359	-11.84
1027.557	-10.47
1027.754	-12.99
1027.951	-14.77
1028.148	-12.76
1028.346	-13.81
1028.543	-15.42
1028.74	-14.3
1028.937	-17.43
1029.134	-18.45
1029.331	-19.93
1029.528	-19.47
1029.725	-20.17
1029.923	-22.62
1030.12	-19.09
1030.317	-18.33
1030.513	-17.28
1030.71	-17
1030.907	-16.07
1031.104	-16.72
1031.301	-18.05
1031.498	-18.36
1031.695	-18.31
1031.892	-18.03
1032.088	-17.76
1032.285	-18.22
1032.482	-18.35
1032.678	-20.41
1032.875	-21.62
1033.072	-20.63
1033.268	-20.93
1033.465	-22.13
1033.662	-23.26
1033.858	-22.1
1034.055	-20.97
1034.251	-19.77
1034.448	-20.55
1034.644	-20.38
1034.84	-18.71
1035.037	-14.78
1035.233	-15.31
1035.43	-13.19
1035.626	-14.6
1035.822	-15.43
1036.019	-15.42
1036.215	-19.32
1036.411	-19.81
1036.607	-20.5
1036.803	-21.76
1037	-21.83
1037.196	-23.55
1037.392	-24.03
1037.588	-27.06
1037.784	-26.41
1037.98	-27.04
1038.176	-27.47
1038.372	-27.69
1038.568	-26.65
1038.764	-24.44
1038.96	-24.37
1039.156	-24.48
1039.352	-24.46
1039.547	-24.09
1039.743	-24.09
1039.939	-22.46
1040.135	-22.76
1040.331	-25.19
1040.526	-23.72
1040.722	-23.99
1040.918	-25.01
1041.113	-28.08
1041.309	-27.16
1041.505	-30.07
1041.7	-27.26
1041.896	-26.15
1042.091	-27.23
1042.287	-25.9
1042.482	-25.03
1042.678	-25.26
1042.873	-24.68
1043.069	-25.21
1043.264	-23.81
1043.459	-22.17
1043.655	-20.24
1043.85	-20.82
1044.045	-20.33
1044.24	-20.3
1044.436	-18.61
1044.631	-19.71
1044.826	-19.64
1045.021	-20
1045.216	-19.99
