Data from FLMT021711__15__16-31-50-385.txt Node

Date: Tue Nov 05 16:31:50 CET 2024
User: Etudiants TP
Spectrometer: FLMT02171
Trigger mode: 0
Integration Time (sec): 1,000000E-1
Scans to average: 5
Electric dark correction enabled: true
Nonlinearity correction enabled: false
Boxcar width: 15
XAxis mode: Wavelengths
Number of Pixels in Spectrum: 3648
>>>>>Begin Spectral Data<<<<<
194,658	-48,56
194,923	-48,44
195,188	-43,17
195,453	-43,13
195,717	-36,23
195,982	-36,26
196,247	-34,44
196,512	-35,86
196,777	-35,48
197,042	-33,42
197,307	-33,69
197,572	-30,23
197,837	-30,75
198,101	-27,52
198,366	-24,21
198,631	-23,83
198,896	-19,87
199,161	-14,29
199,425	-8,27
199,69	-1,96
199,955	-1,46
200,22	-4,78
200,484	-4,8
200,749	-5,68
201,014	-4,36
201,278	-5,11
201,543	-4,37
201,807	-4,97
202,072	-2,58
202,337	-3,4
202,601	-4,17
202,866	-4,51
203,13	-2,7
203,395	-4,59
203,659	-4,6
203,924	-7,53
204,189	-6,58
204,453	-6,06
204,717	-4,8
204,982	-3,92
205,246	-4,06
205,511	-1,96
205,775	-2,9
206,04	1,71
206,304	0,85
206,568	0,55
206,833	1,62
207,097	2,84
207,361	4,91
207,626	7,46
207,89	9,6
208,154	10,45
208,419	12,79
208,683	13,01
208,947	15,29
209,211	14,99
209,476	15,63
209,74	16,01
210,004	16,54
210,268	14,97
210,532	17,66
210,796	18,65
211,061	18,48
211,325	18,56
211,589	17,83
211,853	18,44
212,117	18,94
212,381	18,79
212,645	18,73
212,909	19,48
213,173	17,48
213,437	18,18
213,701	18,51
213,965	19,41
214,229	15,87
214,493	15,01
214,757	13,82
215,021	14,16
215,285	17,42
215,549	17,43
215,813	14,88
216,077	13,68
216,34	16,36
216,604	15,46
216,868	16,1
217,132	16,58
217,396	16,23
217,659	16,49
217,923	13,45
218,187	13,43
218,451	12,53
218,714	10,47
218,978	10,23
219,242	12,05
219,505	11,9
219,769	13,2
220,033	13,87
220,296	14,79
220,56	16,24
220,824	14,26
221,087	13,93
221,351	15,01
221,614	15,33
221,878	15,51
222,142	13,9
222,405	14,28
222,669	17,76
222,932	14,48
223,196	12,71
223,459	11,14
223,722	12,77
223,986	13,37
224,249	12,24
224,513	10,96
224,776	11,1
225,04	9,74
225,303	9,16
225,566	9,42
225,83	10,15
226,093	13,16
226,356	12,07
226,62	12,14
226,883	13,37
227,146	13,77
227,409	13,48
227,673	12,6
227,936	12,49
228,199	12,75
228,462	10,64
228,725	10,58
228,989	11,09
229,252	12,64
229,515	16,48
229,778	14,62
230,041	14,11
230,304	12,69
230,567	13,74
230,83	9,58
231,093	12,45
231,356	12,44
231,619	16,09
231,882	13,79
232,145	14,91
232,408	13,91
232,671	13,43
232,934	11,92
233,197	10,69
233,46	9,34
233,723	9,4
233,986	8,2
234,249	6,71
234,512	9,87
234,775	11,91
235,037	10,88
235,3	10,95
235,563	10,86
235,826	11,29
236,089	11,98
236,351	11,66
236,614	14,07
236,877	14,33
237,14	16,41
237,402	14,74
237,665	8,66
237,928	8,12
238,19	6,08
238,453	9,05
238,716	7,51
238,978	7,93
239,241	7,91
239,503	9,33
239,766	6,11
240,029	5,12
240,291	6,47
240,554	6,63
240,816	5,87
241,079	7,29
241,341	7,84
241,604	7,42
241,866	5,82
242,129	7,39
242,391	8,37
242,653	4,88
242,916	4,86
243,178	3,79
243,441	4,51
243,703	3,27
243,965	2,9
244,228	3,82
244,49	3,39
244,752	4,04
245,015	4,4
245,277	4,51
245,539	4,13
245,801	6,51
246,064	6,84
246,326	7,19
246,588	6,54
246,85	8,29
247,112	8,7
247,374	9,72
247,637	9,91
247,899	9,09
248,161	10,72
248,423	7,43
248,685	8,31
248,947	8,25
249,209	7,72
249,471	9,15
249,733	10,95
249,995	10,46
250,257	9,69
250,519	8,46
250,781	11,87
251,043	9,67
251,305	12,53
251,567	13,97
251,829	14,64
252,091	13,18
252,353	9,66
252,615	9,84
252,876	6,96
253,138	5,33
253,4	3,86
253,662	5,28
253,924	7,36
254,185	8,49
254,447	8,99
254,709	7,72
254,971	8,46
255,232	10,07
255,494	8,68
255,756	9,25
256,017	9,8
256,279	9,12
256,541	9,21
256,802	9,14
257,064	10,27
257,326	10,07
257,587	10,03
257,849	9,4
258,11	12
258,372	12,53
258,633	14,93
258,895	13,38
259,156	13,9
259,418	12,6
259,679	9,05
259,941	7,76
260,202	11,45
260,464	13,55
260,725	13,56
260,987	14,45
261,248	13,89
261,509	14,48
261,771	13,03
262,032	14,31
262,293	14,19
262,555	12,81
262,816	12,33
263,077	10,32
263,338	9,17
263,6	10,28
263,861	9,92
264,122	9,15
264,383	11,35
264,645	12,69
264,906	12,09
265,167	11,65
265,428	10,89
265,689	11,12
265,95	9,68
266,211	10,18
266,473	9,63
266,734	4,9
266,995	2,12
267,256	3,02
267,517	3,83
267,778	6,62
268,039	7,08
268,3	6,2
268,561	4,83
268,822	6,63
269,083	5,15
269,344	4,13
269,604	3,02
269,865	3,87
270,126	0,2
270,387	0,76
270,648	2,21
270,909	1,77
271,17	0,64
271,43	-1,61
271,691	-4,12
271,952	-5,58
272,213	-3,49
272,473	-5,35
272,734	-5,82
272,995	-5,37
273,256	-5,18
273,516	-3,16
273,777	-3,91
274,038	-1,8
274,298	-3,78
274,559	-4,42
274,82	1,09
275,08	3,41
275,341	4,13
275,601	3,43
275,862	1,82
276,122	3,23
276,383	1,74
276,643	2,52
276,904	1,26
277,164	3,03
277,425	4,96
277,685	8,44
277,946	7,19
278,206	8,31
278,467	9,24
278,727	10,11
278,987	10,19
279,248	9,51
279,508	9,9
279,768	12,09
280,029	14,04
280,289	11,07
280,549	8,98
280,81	9,55
281,07	9,69
281,33	11,45
281,59	9,4
281,851	11,3
282,111	10,83
282,371	9,7
282,631	12,35
282,891	10,66
283,151	9,57
283,412	7,51
283,672	8,12
283,932	7,96
284,192	7,36
284,452	7,22
284,712	6,04
284,972	4,03
285,232	2,95
285,492	2,28
285,752	-0
286,012	6,65
286,272	7,16
286,532	5,28
286,792	5,25
287,052	6,74
287,312	8,27
287,571	8,28
287,831	7,07
288,091	4,56
288,351	4,49
288,611	9,15
288,871	8,37
289,13	7,87
289,39	4,88
289,65	7,31
289,91	3,97
290,17	5,5
290,429	7,44
290,689	4,13
290,949	1,5
291,208	2,26
291,468	5,43
291,728	6,93
291,987	7,7
292,247	6,8
292,506	8,35
292,766	10,51
293,026	11,11
293,285	11,74
293,545	14,02
293,804	13,44
294,064	9,72
294,323	7,94
294,583	8,04
294,842	7,95
295,102	8,04
295,361	7,85
295,621	8,25
295,88	9,59
296,139	9,03
296,399	11,09
296,658	7
296,917	7,53
297,177	5,78
297,436	6,24
297,695	4,49
297,955	7,77
298,214	7,59
298,473	9,03
298,732	10,3
298,992	13,33
299,251	13,51
299,51	10,77
299,769	9,04
300,028	9,01
300,287	9,67
300,547	9,23
300,806	7,34
301,065	9,56
301,324	10,25
301,583	7,52
301,842	5,74
302,101	4,1
302,36	5,58
302,619	5,65
302,878	4,15
303,137	3,04
303,396	3,88
303,655	5,86
303,914	4,35
304,173	4,01
304,432	2,26
304,691	4,22
304,95	2,55
305,208	5,82
305,467	4,92
305,726	4,29
305,985	4,26
306,244	3,97
306,503	2,08
306,761	2,03
307,02	-1
307,279	-1
307,537	-1,03
307,796	-3,05
308,055	-4,78
308,314	-4,08
308,572	-5,18
308,831	-4,78
309,09	-5,15
309,348	-4,49
309,607	-5,34
309,865	-3,26
310,124	-3,1
310,382	-2,45
310,641	-1,19
310,9	-1,28
311,158	0,09
311,417	-0,87
311,675	-0,48
311,933	-1,11
312,192	1,59
312,45	1,66
312,709	0,55
312,967	0,52
313,226	-0,22
313,484	1,48
313,742	1,26
314,001	-0,83
314,259	-2,57
314,517	-2,08
314,776	-0,63
315,034	1,68
315,292	0,7
315,55	-0,78
315,809	-0,99
316,067	-0,18
316,325	-1,01
316,583	-0,17
316,841	0,97
317,1	-0,64
317,358	-3,68
317,616	-3,01
317,874	-3,87
318,132	-4,95
318,39	-5,29
318,648	-6,85
318,906	-5,73
319,164	-6,9
319,422	-6,29
319,68	-8,17
319,938	-8,15
320,196	-8,62
320,454	-5,46
320,712	-4,69
320,97	-4,46
321,228	-5,23
321,486	-4,46
321,744	-3,94
322,002	-3,24
322,26	-4,19
322,517	-3,8
322,775	-5,87
323,033	-6,32
323,291	-4,46
323,549	-2,72
323,806	-0,68
324,064	-0,99
324,322	0,69
324,58	-0,94
324,837	0,6
325,095	-0,76
325,353	1,63
325,61	2,44
325,868	3,89
326,126	6,74
326,383	5,9
326,641	5,9
326,898	6,11
327,156	5,07
327,413	5,43
327,671	5,5
327,928	8,39
328,186	8,28
328,443	5,69
328,701	9,18
328,958	9,55
329,216	9,81
329,473	7,92
329,731	8,77
329,988	9,31
330,245	11,41
330,503	12,76
330,76	12,58
331,017	12,88
331,275	10,85
331,532	11,82
331,789	10,27
332,047	11,02
332,304	7,76
332,561	9,16
332,818	6,45
333,076	9,66
333,333	9,91
333,59	11,11
333,847	11,02
334,104	9,44
334,361	9,43
334,618	8,82
334,876	7,56
335,133	8,39
335,39	6,77
335,647	7,44
335,904	3,65
336,161	1,59
336,418	1,57
336,675	-2,47
336,932	-1,03
337,189	-1,39
337,446	-0,96
337,703	-2,16
337,96	-3,59
338,216	-2,97
338,473	-4,6
338,73	-2,99
338,987	-3,24
339,244	-1,27
339,501	-3,8
339,757	-2,98
340,014	-3,06
340,271	-3,15
340,528	-2,87
340,785	0,63
341,041	0,28
341,298	-3,58
341,555	-4,68
341,811	-5,05
342,068	-6,37
342,325	-5,87
342,581	-4,05
342,838	-1,9
343,094	-1,42
343,351	-0,66
343,608	-2,08
343,864	-0,17
344,121	1,21
344,377	1,14
344,634	0,4
344,89	0,27
345,147	-0,34
345,403	-2,03
345,66	-2,11
345,916	-1,63
346,172	-4,1
346,429	-5,32
346,685	-8,57
346,942	-8,3
347,198	-11,17
347,454	-9,68
347,711	-9,84
347,967	-11,48
348,223	-8,47
348,48	-8,48
348,736	-7,09
348,992	-8,42
349,248	-4,1
349,504	-3,85
349,761	-3,95
350,017	-3,88
350,273	-4,22
350,529	-4,99
350,785	-6,51
351,041	-7,35
351,297	-6,72
351,554	-8,15
351,81	-8,79
352,066	-9,8
352,322	-9,5
352,578	-7,8
352,834	-9,9
353,09	-9,69
353,346	-8,15
353,602	-8,14
353,858	-9,07
354,114	-8,44
354,369	-7,31
354,625	-4,17
354,881	-5,45
355,137	-2,65
355,393	-3
355,649	-2,01
355,905	-2,77
356,16	-4,39
356,416	-4,23
356,672	-9,1
356,928	-8,32
357,183	-8,59
357,439	-9,69
357,695	-10,14
357,951	-6,94
358,206	-7,09
358,462	-7,89
358,718	-9,56
358,973	-8,91
359,229	-8,38
359,484	-7,39
359,74	-5,41
359,996	-4,2
360,251	-1,96
360,507	-3,97
360,762	-2,88
361,018	-1,06
361,273	-1,88
361,529	-1,1
361,784	0,44
362,04	2,54
362,295	2,2
362,55	1,95
362,806	3,43
363,061	3,55
363,316	3,15
363,572	3,71
363,827	6,47
364,082	5,78
364,338	5,47
364,593	6,64
364,848	6,8
365,104	4,55
365,359	7,63
365,614	8,22
365,869	6,58
366,124	7,23
366,38	7,34
366,635	9,86
366,89	10,62
367,145	9,81
367,4	13,39
367,655	13,31
367,91	13,3
368,165	11,22
368,42	10,09
368,675	10,49
368,93	11,09
369,185	9,56
369,44	8,6
369,695	7,4
369,95	4,91
370,205	3,7
370,46	2,06
370,715	2,24
370,97	3,26
371,225	4,3
371,48	5,45
371,734	5,84
371,989	6,47
372,244	6,49
372,499	7,31
372,754	6,9
373,008	5,99
373,263	2,03
373,518	3,45
373,773	1,56
374,027	0,3
374,282	0,64
374,537	1,6
374,791	2,48
375,046	3,04
375,301	1,13
375,555	-0,2
375,81	1,43
376,064	1,56
376,319	4,07
376,573	2,84
376,828	-0,03
377,082	2,62
377,337	2,21
377,591	2,55
377,846	4,93
378,1	7,22
378,355	8,6
378,609	7,22
378,863	4
379,118	4,96
379,372	2,6
379,627	0,48
379,881	-1,41
380,135	-0,73
380,389	-0,57
380,644	0,02
380,898	0,95
381,152	2,69
381,407	2,08
381,661	4,55
381,915	5,67
382,169	6,06
382,423	4,64
382,677	2,62
382,932	1,32
383,186	1,81
383,44	1,9
383,694	2,44
383,948	2,03
384,202	1,92
384,456	2,58
384,71	3,29
384,964	2,87
385,218	5,26
385,472	5,8
385,726	4,59
385,98	3,7
386,234	3,17
386,488	1,49
386,742	2,46
386,996	0,65
387,249	1,6
387,503	3,18
387,757	3,82
388,011	4,43
388,265	3,67
388,518	4,92
388,772	6,58
389,026	7,06
389,28	5,19
389,533	2,92
389,787	3,8
390,041	2,94
390,295	2,72
390,548	2,01
390,802	6,05
391,055	4,82
391,309	4,32
391,563	3,19
391,816	4,67
392,07	2,85
392,323	4,92
392,577	5,45
392,83	6,63
393,084	8,92
393,337	10,56
393,591	10,68
393,844	10,99
394,098	12,68
394,351	16,81
394,604	18,43
394,858	20,32
395,111	20,41
395,364	18,8
395,618	21,1
395,871	18,29
396,124	18,44
396,378	16,84
396,631	16,12
396,884	14,95
397,137	14,76
397,391	17,39
397,644	15,27
397,897	14,36
398,15	15,6
398,403	17,9
398,657	16,65
398,91	17,53
399,163	17,81
399,416	18,2
399,669	15,92
399,922	15,84
400,175	15,44
400,428	19,36
400,681	24,01
400,934	25,56
401,187	30,38
401,44	36,46
401,693	39,91
401,946	41,2
402,199	37,97
402,452	37,76
402,704	34,98
402,957	34,03
403,21	36,79
403,463	36,68
403,716	37,79
403,969	38,24
404,221	38,39
404,474	40,26
404,727	42,25
404,98	43,32
405,232	44,13
405,485	45,73
405,738	48,17
405,99	48,97
406,243	50,17
406,496	50,3
406,748	50,96
407,001	51,01
407,253	50,79
407,506	51,49
407,759	52,87
408,011	50,12
408,264	46,54
408,516	41,68
408,769	35,52
409,021	31,43
409,274	26,25
409,526	23,96
409,778	21,3
410,031	23,02
410,283	21,97
410,536	26,9
410,788	25,36
411,04	24,48
411,293	24,54
411,545	24,54
411,797	23,73
412,049	22,87
412,302	23,67
412,554	24,81
412,806	23,86
413,058	20,87
413,311	21,61
413,563	21,01
413,815	20,53
414,067	18,29
414,319	18,08
414,571	17,31
414,823	16,36
415,075	14,75
415,328	16,46
415,58	19,29
415,832	21,09
416,084	22,09
416,336	21,48
416,588	24,64
416,84	22,23
417,091	23,41
417,343	20,7
417,595	21,91
417,847	23,18
418,099	24,76
418,351	23,04
418,603	26,62
418,855	27,55
419,106	27,97
419,358	28,89
419,61	29,58
419,862	31,62
420,114	29,9
420,365	28,91
420,617	29,96
420,869	28,86
421,12	27,23
421,372	28,98
421,624	28,53
421,875	29,51
422,127	27,11
422,379	27,74
422,63	29,82
422,882	29,96
423,133	30,7
423,385	29,19
423,636	29,27
423,888	30,84
424,139	33,22
424,391	30,12
424,642	29,81
424,894	29,52
425,145	29,93
425,396	27,37
425,648	29,56
425,899	28,67
426,151	29,29
426,402	29,35
426,653	29,82
426,905	28,51
427,156	27,64
427,407	27,32
427,658	27,31
427,91	25,55
428,161	25,36
428,412	27,26
428,663	29,17
428,914	31,36
429,166	32,44
429,417	32,38
429,668	32,33
429,919	31,78
430,17	31,44
430,421	31,96
430,672	35,25
430,923	33,83
431,174	35,77
431,425	47,43
431,676	64,35
431,927	83,89
432,178	115,4
432,429	144,49
432,68	169,25
432,931	190,45
433,182	207,23
433,433	214,03
433,683	220,3
433,934	223,55
434,185	223,05
434,436	221,74
434,687	224,96
434,937	226,51
435,188	226,69
435,439	225,74
435,69	228,78
435,94	228,08
436,191	229,06
436,442	229,35
436,692	229,21
436,943	227,42
437,194	225,67
437,444	227,4
437,695	230,88
437,945	233,31
438,196	232,94
438,447	230,96
438,697	231,48
438,948	228,55
439,198	215,94
439,449	196,01
439,699	174,75
439,949	145,19
440,2	116,12
440,45	91,33
440,701	72,75
440,951	59,59
441,201	50,88
441,452	44,38
441,702	41,22
441,952	41,07
442,203	41,88
442,453	39,56
442,703	40,49
442,953	41,05
443,204	43,15
443,454	40,47
443,704	42,23
443,954	39,9
444,204	41,36
444,455	41,97
444,705	42,08
444,955	43,43
445,205	41,15
445,455	38,84
445,705	37,46
445,955	37,05
446,205	37,28
446,455	37,61
446,705	39,7
446,955	39,38
447,205	40,55
447,455	41,71
447,705	41,55
447,955	41,7
448,205	41,89
448,454	41,29
448,704	41,78
448,954	39,8
449,204	39,95
449,454	39,61
449,704	39,77
449,953	39,47
450,203	41,43
450,453	39,9
450,703	38,98
450,952	36,61
451,202	38,01
451,452	36,77
451,701	38,67
451,951	39,77
452,201	39,8
452,45	39,55
452,7	40,57
452,949	41,72
453,199	41,97
453,448	43,4
453,698	44,19
453,947	43,25
454,197	42,73
454,446	40,9
454,696	43,95
454,945	43,76
455,195	42,87
455,444	42,49
455,693	45,45
455,943	44,82
456,192	46,16
456,442	45,05
456,691	45,88
456,94	45,65
457,189	45,5
457,439	46,67
457,688	47,31
457,937	46,39
458,186	46,87
458,436	48,45
458,685	49,51
458,934	48,45
459,183	47,86
459,432	48,89
459,681	49,43
459,93	47,53
460,179	46,93
460,429	45,79
460,678	48,29
460,927	51,04
461,176	50,06
461,425	49,43
461,674	52,13
461,923	52,44
462,172	51,81
462,42	50,24
462,669	51,34
462,918	49,87
463,167	51,06
463,416	48,83
463,665	49,37
463,914	47,4
464,162	45,73
464,411	46,49
464,66	47,97
464,909	46,22
465,158	45,18
465,406	44,79
465,655	45,49
465,904	46,25
466,152	47,69
466,401	48,23
466,65	49,67
466,898	48,75
467,147	46,1
467,395	44,98
467,644	46,95
467,893	47,73
468,141	47,71
468,39	44,68
468,638	42,38
468,887	40,91
469,135	41,23
469,384	40,88
469,632	40,98
469,88	42,19
470,129	43,72
470,377	42,26
470,626	45,66
470,874	46,33
471,122	47,06
471,371	44,56
471,619	45,41
471,867	49,08
472,115	49,15
472,364	48,04
472,612	50,3
472,86	48,42
473,108	49,5
473,356	49,15
473,605	48,14
473,853	44,86
474,101	43,93
474,349	42,48
474,597	44,63
474,845	43,43
475,093	42,2
475,341	39,93
475,589	40,42
475,837	40,54
476,085	41,65
476,333	39,88
476,581	41,03
476,829	40,83
477,077	41,08
477,325	40,62
477,573	40,67
477,821	39,55
478,069	41
478,317	40,07
478,564	41,44
478,812	40,48
479,06	42,19
479,308	41,97
479,555	41,87
479,803	41,63
480,051	43,17
480,299	43,44
480,546	47,1
480,794	47,22
481,042	50,44
481,289	53,66
481,537	57,43
481,784	61,5
482,032	67,61
482,28	70,21
482,527	73,77
482,775	78,44
483,022	84,79
483,27	89,37
483,517	96,67
483,765	99,94
484,012	105,41
484,259	108,48
484,507	114,13
484,754	118,56
485,002	122,23
485,249	125,08
485,496	131,02
485,744	132,97
485,991	135,58
486,238	137,08
486,486	142,26
486,733	144,39
486,98	148,12
487,227	149,69
487,474	153,16
487,722	156,63
487,969	157,63
488,216	157,19
488,463	156,97
488,71	154,49
488,957	153,59
489,204	152,05
489,451	149,82
489,699	148,37
489,946	145,27
490,193	143,64
490,44	141,3
490,687	137,96
490,934	133,45
491,18	127,24
491,427	125,68
491,674	124,18
491,921	120,87
492,168	116,5
492,415	110,63
492,662	108,52
492,909	107,2
493,155	102,82
493,402	98,77
493,649	95,49
493,896	93,88
494,142	88,44
494,389	86,17
494,636	82,35
494,883	77,67
495,129	73,66
495,376	69,37
495,623	66,71
495,869	65,77
496,116	64,58
496,362	63,93
496,609	62,12
496,855	64,08
497,102	62,74
497,348	59,52
497,595	59,11
497,841	59,78
498,088	55,68
498,334	53,33
498,581	50,87
498,827	49,49
499,074	47,76
499,32	47,25
499,566	48,3
499,813	47,74
500,059	46,53
500,305	45,5
500,552	43,07
500,798	41,09
501,044	42,57
501,29	40,5
501,537	37,05
501,783	36,87
502,029	37,09
502,275	33,92
502,521	32,38
502,767	31,18
503,013	32,91
503,26	30,26
503,506	27,51
503,752	28,84
503,998	25,45
504,244	26,82
504,49	23,75
504,736	23,51
504,982	21,96
505,228	21,69
505,474	21,78
505,72	21,82
505,966	20,89
506,211	23,16
506,457	22,5
506,703	19,97
506,949	17,25
507,195	15,14
507,441	11,09
507,686	13,59
507,932	12,77
508,178	13,89
508,424	12,54
508,669	12,36
508,915	12,1
509,161	13,37
509,406	14,56
509,652	13,59
509,898	16,29
510,143	15,79
510,389	15,25
510,634	10,81
510,88	13,04
511,125	14,12
511,371	13,76
511,616	16,43
511,862	13,23
512,107	11,99
512,353	11,33
512,598	11,53
512,844	9,69
513,089	6,74
513,335	7,48
513,58	7,51
513,825	6,94
514,071	6,38
514,316	5,72
514,561	6,93
514,806	7,24
515,052	9,54
515,297	6,63
515,542	6,34
515,787	5,73
516,033	8,3
516,278	7,39
516,523	7,4
516,768	5,63
517,013	3,02
517,258	2,8
517,503	2,74
517,748	3,17
517,993	3,2
518,238	3,95
518,483	2,44
518,728	1,85
518,973	-0,83
519,218	-1,36
519,463	-1,37
519,708	-2,11
519,953	-2,82
520,198	-2,65
520,443	-0,2
520,688	2,07
520,933	0,94
521,177	0,63
521,422	-2,54
521,667	-1
521,912	-0,33
522,157	-3,96
522,401	-3,92
522,646	-4,39
522,891	-3,04
523,135	-1,55
523,38	-1,53
523,625	-3,79
523,869	-2,2
524,114	-2,19
524,358	-3,87
524,603	-3,15
524,848	-4,7
525,092	-5,85
525,337	-5,29
525,581	-3,91
525,826	-2,96
526,07	-1,25
526,315	-0,33
526,559	1,03
526,803	-1,1
527,048	1,3
527,292	1,93
527,537	2,85
527,781	1,54
528,025	-1,1
528,269	-0,03
528,514	1,55
528,758	1,09
529,002	2,77
529,247	5,44
529,491	4,82
529,735	9,26
529,979	10,07
530,223	11,61
530,467	8,95
530,712	7,32
530,956	7,74
531,2	9,12
531,444	6,8
531,688	9,03
531,932	10,61
532,176	10,73
532,42	11,9
532,664	12,85
532,908	12,54
533,152	11,3
533,396	11,97
533,64	11,31
533,884	9,94
534,128	9,48
534,371	11,62
534,615	14,43
534,859	14,11
535,103	15,16
535,347	17
535,59	20,43
535,834	18,76
536,078	21,14
536,322	25,32
536,565	30,65
536,809	32,61
537,053	39,21
537,296	42,86
537,54	48,4
537,784	55,23
538,027	66,1
538,271	73,88
538,514	81,2
538,758	90,31
539,001	97,43
539,245	105,45
539,488	115,43
539,732	124,78
539,975	131,48
540,219	141,26
540,462	150,1
540,706	158,82
540,949	165,36
541,192	173,47
541,436	185,03
541,679	195,76
541,922	205,93
542,166	212,22
542,409	223,95
542,652	234,37
542,895	246,22
543,139	257,06
543,382	269,73
543,625	277,49
543,868	283,03
544,111	286,86
544,354	289,29
544,598	288,62
544,841	289,35
545,084	287,59
545,327	283,55
545,57	279,59
545,813	275,86
546,056	270,14
546,299	262,56
546,542	260,15
546,785	256,46
547,028	250,35
547,271	245,21
547,514	241,75
547,756	234,5
547,999	228,09
548,242	223,13
548,485	216,6
548,728	210,39
548,971	200,04
549,213	192,85
549,456	183,97
549,699	174,5
549,942	164,94
550,184	152,54
550,427	141,48
550,67	129,32
550,912	114,94
551,155	107,01
551,398	98,49
551,64	90,03
551,883	83,96
552,125	77,99
552,368	73,26
552,61	66,03
552,853	63,18
553,095	57,39
553,338	52,96
553,58	50,91
553,823	48,24
554,065	47,23
554,308	40,79
554,55	36,67
554,792	31,49
555,035	26,44
555,277	23,34
555,519	22,17
555,762	18,15
556,004	16,49
556,246	12,41
556,488	11,96
556,731	9,24
556,973	7,44
557,215	4,85
557,457	3,89
557,699	5,45
557,941	2,25
558,183	1,48
558,426	4,39
558,668	1,09
558,91	0,47
559,152	-0,1
559,394	-1,7
559,636	0,17
559,878	-0,29
560,12	0,25
560,362	-0,66
560,604	-1,2
560,845	-2,23
561,087	-4,16
561,329	-3,07
561,571	-7,41
561,813	-6,78
562,055	-8,45
562,297	-6,69
562,538	-5,68
562,78	-3,7
563,022	-6,45
563,264	-4,66
563,505	-4,88
563,747	-4,91
563,989	-6,41
564,23	-7,53
564,472	-8,7
564,714	-6,96
564,955	-7,64
565,197	-10,64
565,438	-8,94
565,68	-6,92
565,921	-9,22
566,163	-8,61
566,404	-9,63
566,646	-7,69
566,887	-5,37
567,129	-4,82
567,37	-6,16
567,612	-4,8
567,853	-4,31
568,094	-1,04
568,336	-0,56
568,577	1,08
568,818	1,74
569,06	0,86
569,301	-0,84
569,542	1,29
569,783	1,46
570,025	1,8
570,266	0,34
570,507	1,91
570,748	1,48
570,989	3,48
571,23	5,73
571,472	6,23
571,713	4,88
571,954	6,31
572,195	4,6
572,436	6,34
572,677	8,56
572,918	9,68
573,159	8,7
573,4	8,39
573,641	8,18
573,882	9,67
574,123	7,85
574,364	4,6
574,604	5,22
574,845	5,47
575,086	5,71
575,327	6,48
575,568	5,31
575,809	6,02
576,049	5,9
576,29	4,34
576,531	9,43
576,771	11,79
577,012	13,01
577,253	14,83
577,494	15,14
577,734	15,15
577,975	15,58
578,215	15,53
578,456	12,92
578,697	13,4
578,937	15,17
579,178	17,1
579,418	16,99
579,659	18,26
579,899	16,96
580,14	17,22
580,38	17,08
580,62	17,93
580,861	21,18
581,101	22,05
581,342	22,52
581,582	20,48
581,822	22,58
582,063	22,38
582,303	23,06
582,543	23,2
582,783	23,64
583,024	25,26
583,264	28,03
583,504	27,28
583,744	29,61
583,984	27,67
584,224	29,89
584,465	29,32
584,705	29,49
584,945	31,19
585,185	32,91
585,425	35,37
585,665	35,68
585,905	36,84
586,145	37,33
586,385	37,1
586,625	38,94
586,865	37,67
587,105	36,87
587,345	36,49
587,585	36,14
587,824	35,69
588,064	34,51
588,304	32,21
588,544	32,64
588,784	31,37
589,024	34,03
589,263	33,74
589,503	33,02
589,743	35,69
589,982	35,99
590,222	37,3
590,462	35,29
590,701	33,09
590,941	35,4
591,181	33,66
591,42	33,1
591,66	33,2
591,899	34,46
592,139	33,58
592,378	32,92
592,618	31,37
592,857	29,91
593,097	28,76
593,336	27,39
593,576	25,35
593,815	25,61
594,055	23,88
594,294	24,97
594,533	26,05
594,773	26,13
595,012	27
595,251	26,76
595,491	28,85
595,73	30,82
595,969	30,07
596,208	29,64
596,447	33,26
596,687	33,88
596,926	33,17
597,165	29,54
597,404	30,36
597,643	27,32
597,882	25,9
598,121	25,75
598,36	25,5
598,599	25,59
598,838	25,13
599,077	22,01
599,316	22,04
599,555	19,93
599,794	20,67
600,033	21,35
600,272	21,31
600,511	20,07
600,75	22,26
600,989	23,84
601,228	23,84
601,466	23,94
601,705	24,26
601,944	23,93
602,183	25,09
602,422	24,15
602,66	23,54
602,899	22,14
603,138	21,31
603,376	21,06
603,615	22,89
603,854	20,4
604,092	20,31
604,331	21,72
604,569	22,58
604,808	21,89
605,047	23,63
605,285	25,22
605,524	25,82
605,762	24,9
606	26,35
606,239	27,98
606,477	30,6
606,716	30,66
606,954	34,79
607,193	37,22
607,431	42,04
607,669	51,42
607,908	62,09
608,146	73,73
608,384	84,87
608,622	94,28
608,861	104,16
609,099	113,31
609,337	120,62
609,575	126,28
609,813	134,45
610,052	139,77
610,29	141,8
610,528	144,65
610,766	149,61
611,004	153,76
611,242	156,81
611,48	159,52
611,718	160,25
611,956	163,16
612,194	164,15
612,432	165,29
612,67	166,25
612,908	167,83
613,146	167,95
613,384	168,91
613,621	168,78
613,859	169,36
614,097	167,42
614,335	164,69
614,573	162,61
614,811	158,3
615,048	148,6
615,286	139,45
615,524	128,48
615,761	116,38
615,999	107,25
616,237	96,32
616,474	88,69
616,712	82,91
616,95	76,44
617,187	69,91
617,425	65,5
617,662	62,08
617,9	57,03
618,137	50,8
618,375	45,2
618,612	40,74
618,85	37,97
619,087	37,39
619,325	33,96
619,562	30,79
619,799	28,63
620,037	25,93
620,274	25,05
620,511	24,83
620,749	22,18
620,986	21,27
621,223	18,1
621,461	18,88
621,698	19,6
621,935	18,13
622,172	16,53
622,409	19,16
622,647	19,76
622,884	18,02
623,121	20,45
623,358	20,24
623,595	21,77
623,832	22,33
624,069	21,18
624,306	21,97
624,543	22
624,78	22,58
625,017	23,49
625,254	25,82
625,491	28,42
625,728	29,6
625,965	29,31
626,202	28,42
626,438	26,51
626,675	27,94
626,912	30,47
627,149	31,87
627,386	32,85
627,622	33,02
627,859	33,94
628,096	33,56
628,333	32,36
628,569	34,32
628,806	36,62
629,043	36,97
629,279	37,5
629,516	38,81
629,752	34,65
629,989	34,98
630,225	33,76
630,462	32,41
630,699	31,38
630,935	29,26
631,171	27,5
631,408	27,49
631,644	24,67
631,881	21,8
632,117	19,88
632,354	19,68
632,59	17,96
632,826	18,08
633,063	17,89
633,299	18,51
633,535	17,16
633,771	16,67
634,008	17,07
634,244	17,74
634,48	15,44
634,716	15,31
634,953	13,09
635,189	11,57
635,425	13,28
635,661	14,62
635,897	11,58
636,133	9,64
636,369	8,32
636,605	5,16
636,841	3,2
637,077	4,36
637,313	2,88
637,549	3,33
637,785	1,89
638,021	1,41
638,257	1,93
638,493	2,42
638,729	-0,04
638,965	2,72
639,2	4,29
639,436	4,92
639,672	3,88
639,908	2,6
640,144	4,65
640,379	7,06
640,615	5,35
640,851	7,45
641,086	9,15
641,322	7,58
641,558	5,79
641,793	6,17
642,029	5,35
642,264	4,07
642,5	4,22
642,736	1,02
642,971	1,43
643,207	0,13
643,442	-2,99
643,678	-3,7
643,913	-2,42
644,148	-2,29
644,384	-0,96
644,619	-1,13
644,855	0,38
645,09	1,89
645,325	2,55
645,561	3,22
645,796	1,34
646,031	4,77
646,266	3,31
646,502	2,09
646,737	3,49
646,972	4,81
647,207	5,69
647,442	3,1
647,678	-0,24
647,913	1,48
648,148	2
648,383	1,28
648,618	1,06
648,853	3,37
649,088	5,63
649,323	8,51
649,558	9,95
649,793	10,56
650,028	11,79
650,263	9,91
650,498	13,71
650,733	14,63
650,968	14,73
651,202	16,61
651,437	15,86
651,672	14,37
651,907	14,51
652,142	14,59
652,376	14,57
652,611	15,06
652,846	15,84
653,081	15,97
653,315	15,37
653,55	16,09
653,785	16,23
654,019	17,46
654,254	16,5
654,488	16,56
654,723	15,43
654,958	14,16
655,192	13,12
655,427	9,89
655,661	10,13
655,896	12,18
656,13	11,56
656,364	8,19
656,599	4,96
656,833	7,65
657,068	9,04
657,302	7,94
657,536	7,24
657,771	6,74
658,005	7,49
658,239	8,23
658,474	6,65
658,708	7,06
658,942	6,86
659,176	5,56
659,41	3,47
659,645	3,56
659,879	3,15
660,113	0,1
660,347	-0,25
660,581	-2,06
660,815	-2,85
661,049	-3,3
661,283	-6,41
661,517	-7,97
661,751	-8,76
661,985	-10,64
662,219	-8,91
662,453	-9,29
662,687	-6,97
662,921	-8,68
663,155	-10,23
663,389	-13,74
663,622	-13,35
663,856	-11,79
664,09	-16,15
664,324	-17,18
664,558	-15,47
664,791	-17,31
665,025	-18,28
665,259	-17,77
665,492	-18,23
665,726	-17,14
665,96	-15,74
666,193	-17,57
666,427	-16,77
666,661	-16,3
666,894	-18,86
667,128	-19,67
667,361	-17,94
667,595	-17,42
667,828	-17,13
668,062	-16,5
668,295	-15,22
668,529	-14,44
668,762	-13,14
668,995	-12,43
669,229	-9,72
669,462	-9,44
669,695	-8,77
669,929	-9,27
670,162	-8,36
670,395	-8,57
670,629	-7,75
670,862	-6,41
671,095	-8,55
671,328	-6,5
671,561	-8,61
671,795	-7,19
672,028	-5,05
672,261	-3,58
672,494	-3,18
672,727	-4,28
672,96	-3,17
673,193	-5,33
673,426	-1,16
673,659	-0,73
673,892	-1,28
674,125	-1,08
674,358	-0,63
674,591	-0,94
674,824	-1,67
675,057	-2,58
675,29	-3,61
675,523	-3,53
675,755	-3,89
675,988	-4,2
676,221	-1,84
676,454	-2,41
676,687	-1,94
676,919	-2,13
677,152	-2,31
677,385	-2,84
677,617	-2,7
677,85	-2,65
678,083	-3,4
678,315	-1,81
678,548	-3,44
678,78	-3,87
679,013	-5,8
679,246	-5,49
679,478	-4,65
679,711	-6,34
679,943	-4,32
680,175	-6,08
680,408	-2,54
680,64	-6,06
680,873	-4,35
681,105	-3,08
681,338	0,2
681,57	0,26
681,802	1,88
682,034	1,81
682,267	4,33
682,499	6,63
682,731	5,16
682,964	4,93
683,196	5,15
683,428	1,51
683,66	1,02
683,892	3,07
684,124	4,55
684,356	7,48
684,589	8,04
684,821	6,13
685,053	7,54
685,285	7,92
685,517	10
685,749	10,33
685,981	11,96
686,213	13,26
686,445	13,7
686,676	10,87
686,908	12,08
687,14	10,79
687,372	10,16
687,604	7,33
687,836	8,37
688,068	7,84
688,299	8,31
688,531	7,03
688,763	8,8
688,995	8,27
689,226	11,54
689,458	9,87
689,69	6,68
689,921	6,11
690,153	6,02
690,384	7,27
690,616	7,22
690,848	7,8
691,079	5,37
691,311	3,62
691,542	1,11
691,774	-0,48
692,005	3,01
692,237	3,99
692,468	2,59
692,699	2,31
692,931	3,91
693,162	1,19
693,393	-0,51
693,625	-1,79
693,856	-0,58
694,087	-0,79
694,319	-0,84
694,55	0,03
694,781	0,36
695,012	-0,09
695,243	-1,24
695,475	-2,45
695,706	-3,42
695,937	-4,28
696,168	-5,37
696,399	-8,76
696,63	-8,74
696,861	-8,16
697,092	-3,67
697,323	-0,69
697,554	-2,23
697,785	-0,77
698,016	-0,53
698,247	-1,45
698,478	-0,47
698,709	0,59
698,94	2,44
699,171	3
699,401	1,35
699,632	2,85
699,863	-0,48
700,094	-1,65
700,325	1,02
700,555	1,54
700,786	2,92
701,017	2,61
701,247	2,49
701,478	3,3
701,709	2,94
701,939	1,77
702,17	4,57
702,401	6,86
702,631	9,43
702,862	9,84
703,092	9,86
703,323	12,34
703,553	15,26
703,784	16,14
704,014	18,55
704,244	15,93
704,475	14,98
704,705	17,35
704,936	18,38
705,166	18,26
705,396	22,33
705,627	23,69
705,857	24,16
706,087	27,07
706,317	24,89
706,548	24,71
706,778	25,24
707,008	27,43
707,238	29,71
707,468	29,45
707,698	29,67
707,928	29,64
708,158	30,29
708,389	31,87
708,619	31,64
708,849	32,44
709,079	33,57
709,309	32,07
709,539	30,24
709,768	29,51
709,998	30,47
710,228	30,03
710,458	28,28
710,688	25,67
710,918	26
711,148	23,02
711,378	22,33
711,607	20,25
711,837	19,66
712,067	18,99
712,297	18,73
712,526	16,49
712,756	15,5
712,986	12,83
713,215	8,19
713,445	7,83
713,674	7,68
713,904	6,24
714,134	8,14
714,363	5,79
714,593	4,91
714,822	3,49
715,052	3,75
715,281	3,49
715,511	1,38
715,74	0,92
715,969	0,02
716,199	0,42
716,428	-0,35
716,657	-1,04
716,887	-0,65
717,116	-3,48
717,345	-3,26
717,575	-3,26
717,804	-2,89
718,033	-4,89
718,262	-5,3
718,492	-5,07
718,721	-4,4
718,95	-5,55
719,179	-7,4
719,408	-7,87
719,637	-10,05
719,866	-11,6
720,095	-11,02
720,324	-11,19
720,553	-12,8
720,782	-12,97
721,011	-12,53
721,24	-16,15
721,469	-15,9
721,698	-15,93
721,927	-15,39
722,156	-17,81
722,385	-18,6
722,613	-16,99
722,842	-16,84
723,071	-15,46
723,3	-14,92
723,529	-15,49
723,757	-14,07
723,986	-16,16
724,215	-15,64
724,443	-14,42
724,672	-12,43
724,901	-10,36
725,129	-9,22
725,358	-5,6
725,586	-7,85
725,815	-8,6
726,043	-9,3
726,272	-8,85
726,5	-8,75
726,729	-7,91
726,957	-9,45
727,186	-10,83
727,414	-9,69
727,642	-8,18
727,871	-7,74
728,099	-7,38
728,327	-6,73
728,556	-6,44
728,784	-5,97
729,012	-5,82
729,241	-3,63
729,469	-3,86
729,697	-5,3
729,925	-5,81
730,153	-7,07
730,381	-7,57
730,61	-7,53
730,838	-11,08
731,066	-10,38
731,294	-9,82
731,522	-12,66
731,75	-17,42
731,978	-19,9
732,206	-20,44
732,434	-22,6
732,662	-20,39
732,89	-20,33
733,118	-19,96
733,346	-20,93
733,573	-19,57
733,801	-20,4
734,029	-16,01
734,257	-14,37
734,485	-11,25
734,712	-11,11
734,94	-13,35
735,168	-11,95
735,396	-9,99
735,623	-9,98
735,851	-8,76
736,078	-8,35
736,306	-8,39
736,534	-8,01
736,761	-7,36
736,989	-8,52
737,216	-8,32
737,444	-9,67
737,671	-8,84
737,899	-4,61
738,126	-5,69
738,354	-6,14
738,581	-5,48
738,809	-2,71
739,036	-2,82
739,263	-2,23
739,491	-3,11
739,718	-2,93
739,945	0,38
740,173	0,63
740,4	0,51
740,627	-1,93
740,854	-1,68
741,081	-3,86
741,309	-6,06
741,536	-9,71
741,763	-10,12
741,99	-8,67
742,217	-7,93
742,444	-9,42
742,671	-8,38
742,898	-8,56
743,125	-9,97
743,352	-10,81
743,579	-13,46
743,806	-14,46
744,033	-12,53
744,26	-12,01
744,487	-12,88
744,714	-12,27
744,941	-13,16
745,167	-10,42
745,394	-10,62
745,621	-10,34
745,848	-11,27
746,075	-10,43
746,301	-8,66
746,528	-6,07
746,755	-8,23
746,981	-9,18
747,208	-6,85
747,435	-4,39
747,661	-3,31
747,888	-1,12
748,114	-1,58
748,341	1,77
748,567	2,75
748,794	1,89
749,02	2,08
749,247	-0,86
749,473	-2,2
749,7	-3,2
749,926	-3,47
750,152	-1,87
750,379	-1,34
750,605	1,21
750,831	0,71
751,058	0,61
751,284	-0,24
751,51	2,62
751,737	2,27
751,963	1,78
752,189	0,64
752,415	1,14
752,641	1,16
752,867	0,54
753,094	-1,26
753,32	-2,46
753,546	-3,17
753,772	-1,52
753,998	-2,75
754,224	-4,22
754,45	-4,36
754,676	-4,27
754,902	-6,25
755,128	-6,06
755,354	-7,23
755,579	-6,15
755,805	-5,84
756,031	-8,71
756,257	-9,57
756,483	-10,04
756,709	-10,79
756,934	-11,49
757,16	-12,21
757,386	-11,52
757,612	-13,43
757,837	-12,73
758,063	-11,29
758,289	-9,91
758,514	-12,13
758,74	-12,98
758,965	-14,85
759,191	-13,73
759,416	-14
759,642	-14,01
759,868	-12,39
760,093	-9,08
760,318	-9,44
760,544	-9,13
760,769	-8,12
760,995	-8,16
761,22	-7,75
761,445	-6,35
761,671	-5,54
761,896	-3,25
762,121	-3,92
762,347	-3,68
762,572	-5,93
762,797	-5,48
763,022	-4,14
763,248	0,01
763,473	0,35
763,698	-0,83
763,923	-0,95
764,148	-0,1
764,373	-1,29
764,598	0,29
764,823	0,79
765,048	-1,73
765,273	-4,05
765,498	-3,37
765,723	-4,47
765,948	-3,34
766,173	-4,14
766,398	-2,31
766,623	-3,19
766,848	-3,99
767,073	-6,67
767,298	-6,66
767,522	-6,83
767,747	-7,79
767,972	-8,79
768,197	-9,13
768,421	-12,17
768,646	-13,57
768,871	-17,21
769,095	-16,2
769,32	-15,63
769,545	-15,23
769,769	-13,46
769,994	-12,17
770,218	-15,57
770,443	-13,83
770,667	-11,25
770,892	-10,9
771,116	-12,45
771,341	-10,83
771,565	-10,47
771,79	-8,71
772,014	-8,45
772,238	-8,87
772,463	-7,16
772,687	-6,6
772,911	-6,49
773,136	-7,72
773,36	-8,23
773,584	-7,95
773,808	-9,21
774,033	-9,45
774,257	-9,98
774,481	-10,85
774,705	-10,65
774,929	-10,59
775,153	-10,91
775,377	-8,3
775,602	-10,15
775,826	-7,64
776,05	-6,38
776,274	-6,42
776,498	-6,38
776,722	-7,63
776,945	-7,67
777,169	-7,5
777,393	-8,25
777,617	-9,98
777,841	-9
778,065	-7,28
778,289	-9,53
778,512	-10,24
778,736	-11,61
778,96	-12,09
779,184	-10,21
779,407	-10,81
779,631	-10,32
779,855	-11
780,078	-10,76
780,302	-11,7
780,526	-12,98
780,749	-12,57
780,973	-10,22
781,196	-10,59
781,42	-12,44
781,643	-12,27
781,867	-10,54
782,09	-12,98
782,314	-13,48
782,537	-12,15
782,76	-13,85
782,984	-13,99
783,207	-13,81
783,431	-14,03
783,654	-15,65
783,877	-16,18
784,1	-16,85
784,324	-17,01
784,547	-17
784,77	-20,82
784,993	-23,17
785,216	-23,24
785,44	-23,84
785,663	-24,17
785,886	-22,28
786,109	-22,24
786,332	-23,06
786,555	-22,96
786,778	-22,85
787,001	-21,91
787,224	-20,86
787,447	-19,29
787,67	-18,21
787,893	-18,77
788,116	-18,4
788,339	-16,77
788,561	-18,12
788,784	-21,59
789,007	-21,65
789,23	-23,72
789,453	-23,58
789,675	-24,63
789,898	-25,47
790,121	-27,2
790,344	-26,96
790,566	-24,96
790,789	-24,57
791,012	-23,49
791,234	-22,41
791,457	-19,4
791,679	-16,77
791,902	-15,44
792,124	-15,62
792,347	-16,05
792,569	-17,6
792,792	-20,44
793,014	-18,43
793,237	-17,87
793,459	-17,2
793,681	-16,79
793,904	-18,09
794,126	-20,06
794,348	-21,12
794,571	-19,92
794,793	-21,33
795,015	-20,3
795,237	-21,43
795,46	-20,52
795,682	-19,07
795,904	-15,31
796,126	-15,89
796,348	-15,47
796,57	-12,72
796,792	-12,4
797,014	-10,16
797,237	-7,56
797,459	-5,6
797,681	-4,85
797,903	-6,15
798,124	-5,39
798,346	2,85
798,568	3,86
798,79	6,42
799,012	8
799,234	9,16
799,456	11,07
799,678	13,66
799,899	11,02
800,121	8,78
800,343	7,89
800,565	8,45
800,786	9,2
801,008	11,66
801,23	12,71
801,451	13,13
801,673	13,33
801,895	12,66
802,116	15,41
802,338	16,35
802,559	16,22
802,781	13,74
803,002	16,93
803,224	18,67
803,445	17,78
803,667	17,83
803,888	15,69
804,109	14,38
804,331	12,23
804,552	12,7
804,773	14,77
804,995	12,27
805,216	1,4
805,437	-0,76
805,658	-4,06
805,88	-5,04
806,101	-4,9
806,322	-5,07
806,543	-5,69
806,764	-6,46
806,985	-3,73
807,207	-1,98
807,428	-1,91
807,649	-3,91
807,87	-5,71
808,091	-4,48
808,312	-3,66
808,533	0,1
808,754	1,66
808,975	-0,44
809,195	-0,01
809,416	0,65
809,637	0,37
809,858	-1,84
810,079	-3,86
810,3	-3,73
810,52	-3,53
810,741	-5,26
810,962	-6,47
811,183	-6,26
811,403	-6,14
811,624	-7,85
811,845	-6,28
812,065	-5,41
812,286	-4,46
812,506	-3,76
812,727	-3,41
812,948	-2,87
813,168	-2,49
813,389	-5,11
813,609	-4,61
813,83	-6,11
814,05	-8,71
814,27	-8,68
814,491	-4,6
814,711	-6,1
814,931	-8,98
815,152	-10,82
815,372	-13,56
815,592	-14,42
815,813	-15,06
816,033	-16,83
816,253	-16,17
816,473	-16,77
816,694	-16,3
816,914	-15,14
817,134	-15,14
817,354	-17,01
817,574	-14,32
817,794	-14,13
818,014	-15,5
818,234	-16,95
818,454	-17,86
818,674	-19,6
818,894	-21,92
819,114	-20,73
819,334	-19,78
819,554	-18,52
819,774	-16,43
819,994	-16,45
820,214	-15,2
820,433	-15,45
820,653	-15,02
820,873	-13,34
821,093	-13,39
821,312	-16,65
821,532	-14,27
821,752	-11,35
821,972	-12,18
822,191	-11,55
822,411	-12,39
822,63	-12,32
822,85	-10,06
823,07	-12,39
823,289	-11,24
823,509	-11,88
823,728	-12,28
823,948	-13,96
824,167	-14,12
824,387	-15,73
824,606	-13,56
824,825	-14,69
825,045	-14,3
825,264	-12,66
825,483	-10,45
825,703	-8,76
825,922	-9,89
826,141	-11,05
826,361	-11,45
826,58	-15,78
826,799	-17,53
827,018	-17,2
827,237	-16,23
827,456	-14,7
827,676	-13,69
827,895	-14,01
828,114	-11,09
828,333	-11,12
828,552	-12,11
828,771	-11,26
828,99	-12,83
829,209	-12,98
829,428	-9,96
829,647	-12,02
829,866	-11,36
830,084	-11,67
830,303	-11,94
830,522	-12,2
830,741	-10,06
830,96	-9,5
831,179	-9,73
831,397	-12,02
831,616	-10,63
831,835	-10,34
832,053	-11,2
832,272	-11,25
832,491	-10,3
832,709	-11,05
832,928	-10,81
833,147	-10,51
833,365	-9,46
833,584	-7,87
833,802	-5,69
834,021	-5,17
834,239	-5,17
834,458	-6,23
834,676	-8,68
834,894	-11,51
835,113	-12,1
835,331	-12,27
835,55	-13,49
835,768	-12,18
835,986	-10,12
836,204	-13,18
836,423	-11,88
836,641	-12,65
836,859	-12,67
837,077	-11,76
837,296	-10,43
837,514	-13,49
837,732	-13,66
837,95	-12,98
838,168	-10,89
838,386	-12
838,604	-10,37
838,822	-10,15
839,04	-11,14
839,258	-10,47
839,476	-8,56
839,694	-7,95
839,912	-9,36
840,13	-8,48
840,348	-5,69
840,566	-7,98
840,783	-8,13
841,001	-9,2
841,219	-8,28
841,437	-6,34
841,655	-5,45
841,872	-4,18
842,09	-5,43
842,308	-3,26
842,525	-2,65
842,743	-4,02
842,961	-3,47
843,178	-4,81
843,396	-1,12
843,613	-0,99
843,831	-0,36
844,048	-0,85
844,266	1,25
844,483	1,6
844,701	-0,09
844,918	-0,38
845,136	0,98
845,353	-0,5
845,57	0,03
845,788	2,01
846,005	-0,6
846,222	-2,22
846,439	-0,66
846,657	0,37
846,874	0,9
847,091	-0,94
847,308	-0,69
847,526	-1,15
847,743	-2,06
847,96	-3,63
848,177	-2,94
848,394	-2,5
848,611	-3,34
848,828	-3,47
849,045	-4,46
849,262	-4,96
849,479	-3,91
849,696	-5,98
849,913	-6,78
850,13	-11,2
850,347	-9,73
850,564	-10,08
850,78	-11,44
850,997	-12,21
851,214	-12,65
851,431	-11,2
851,647	-12,99
851,864	-13,68
852,081	-13,08
852,298	-15,13
852,514	-16,4
852,731	-14,24
852,948	-13,12
853,164	-13,8
853,381	-15,07
853,597	-17,06
853,814	-19,29
854,03	-19,63
854,247	-18,05
854,463	-16,73
854,68	-16,83
854,896	-16,37
855,113	-16,54
855,329	-17
855,545	-15,58
855,762	-16,44
855,978	-18,66
856,194	-20,2
856,411	-17,48
856,627	-15,65
856,843	-13,96
857,059	-12,21
857,275	-14,08
857,492	-13,29
857,708	-11,07
857,924	-9,39
858,14	-6,97
858,356	-7,37
858,572	-7,38
858,788	-7,05
859,004	-4,49
859,22	-5,97
859,436	-6,61
859,652	-7,65
859,868	-8,33
860,084	-8,02
860,3	-7,52
860,516	-6,73
860,731	-6,8
860,947	-9,85
861,163	-9,14
861,379	-8,94
861,595	-7,8
861,81	-7,56
862,026	-7,46
862,242	-6,86
862,457	-6,92
862,673	-5,75
862,889	-6,25
863,104	-5,17
863,32	-5,37
863,535	-4,88
863,751	-8,81
863,966	-6,21
864,182	-6,08
864,397	-7,69
864,613	-8,95
864,828	-11,03
865,044	-10,03
865,259	-7,96
865,474	-9,33
865,69	-8,99
865,905	-8,88
866,12	-10,04
866,336	-9,43
866,551	-8,15
866,766	-7,78
866,981	-7,14
867,196	-7,05
867,412	-7,16
867,627	-7,04
867,842	-7,76
868,057	-7,88
868,272	-10,31
868,487	-10,54
868,702	-12,87
868,917	-13,13
869,132	-11,71
869,347	-11,79
869,562	-12,36
869,777	-14,04
869,992	-14,67
870,207	-15,04
870,422	-14,37
870,636	-14,76
870,851	-15,33
871,066	-16,67
871,281	-16,71
871,495	-17,56
871,71	-15,35
871,925	-17,57
872,14	-18,29
872,354	-20,49
872,569	-19,75
872,783	-17,89
872,998	-19,52
873,213	-20,99
873,427	-19,29
873,642	-19,25
873,856	-18,92
874,071	-19,72
874,285	-19,19
874,5	-21,34
874,714	-21,79
874,928	-21,13
875,143	-22,08
875,357	-21,09
875,571	-22,97
875,786	-23,32
876	-21,31
876,214	-19,93
876,429	-20,52
876,643	-19,51
876,857	-18,4
877,071	-18,95
877,285	-20,71
877,499	-22,44
877,714	-20,3
877,928	-19,53
878,142	-21,36
878,356	-24,17
878,57	-22,01
878,784	-20,26
878,998	-20,9
879,212	-19,8
879,426	-21,94
879,639	-19,84
879,853	-20,74
880,067	-22,97
880,281	-23,62
880,495	-22,18
880,709	-19,04
880,922	-18,68
881,136	-17,27
881,35	-16,31
881,564	-16,69
881,777	-18,54
881,991	-16,97
882,205	-14,88
882,418	-14,27
882,632	-15,48
882,845	-15,63
883,059	-15,35
883,273	-16,8
883,486	-18,88
883,7	-15,74
883,913	-15,04
884,126	-13,91
884,34	-16,2
884,553	-17,46
884,767	-13,75
884,98	-13,38
885,193	-15,24
885,407	-16,04
885,62	-14,42
885,833	-13,6
886,046	-11,97
886,26	-12,83
886,473	-12,36
886,686	-11,42
886,899	-10,1
887,112	-11,55
887,326	-14,03
887,539	-13,15
887,752	-12,3
887,965	-14,38
888,178	-12,8
888,391	-10,72
888,604	-10,86
888,817	-11,4
889,03	-10,63
889,243	-10,98
889,455	-12,13
889,668	-11,82
889,881	-9,69
890,094	-9,82
890,307	-12,29
890,52	-11,1
890,732	-9,95
890,945	-8,58
891,158	-8,4
891,37	-10,15
891,583	-10,53
891,796	-10,08
892,008	-11,4
892,221	-12,56
892,434	-16,02
892,646	-16,65
892,859	-16,8
893,071	-16,82
893,284	-15,7
893,496	-17,11
893,709	-16,34
893,921	-16,52
894,133	-17,46
894,346	-17,6
894,558	-15,84
894,771	-16,52
894,983	-15,96
895,195	-15,33
895,407	-14,84
895,62	-18,26
895,832	-18
896,044	-16,05
896,256	-16,73
896,468	-16,47
896,681	-14,39
896,893	-13,38
897,105	-14,95
897,317	-15,19
897,529	-14,7
897,741	-13,92
897,953	-11,61
898,165	-11,51
898,377	-12,29
898,589	-11,4
898,801	-11,53
899,013	-10,13
899,224	-8,22
899,436	-7,07
899,648	-7,57
899,86	-7,96
900,072	-5,2
900,283	-5,3
900,495	-3,13
900,707	-2,75
900,919	-5,46
901,13	-4,89
901,342	-5,39
901,554	-5,28
901,765	-4,37
901,977	-6,59
902,188	-5,69
902,4	-6,94
902,611	-8,47
902,823	-9,37
903,034	-13,15
903,246	-14,52
903,457	-15,5
903,669	-14,93
903,88	-15,29
904,091	-15,28
904,303	-14,51
904,514	-15,38
904,725	-14,94
904,936	-14,7
905,148	-13,07
905,359	-10,1
905,57	-10
905,781	-11,82
905,992	-13,48
906,204	-12,61
906,415	-13,44
906,626	-16,61
906,837	-15,33
907,048	-16,01
907,259	-16,86
907,47	-17,35
907,681	-20,2
907,892	-18,71
908,103	-19,12
908,314	-21,47
908,525	-20,23
908,735	-20,8
908,946	-21,83
909,157	-21,98
909,368	-19,55
909,579	-17,17
909,789	-18,42
910	-19,69
910,211	-18,41
910,421	-19,2
910,632	-17,8
910,843	-20,28
911,053	-18,15
911,264	-15,83
911,475	-16,94
911,685	-17,62
911,896	-18,11
912,106	-17,2
912,317	-18,11
912,527	-15,51
912,737	-16,08
912,948	-15,93
913,158	-13,93
913,369	-16,25
913,579	-14,17
913,789	-12,99
914	-9,51
914,21	-6,81
914,42	-7,83
914,63	-8,42
914,841	-7,88
915,051	-6,44
915,261	-5,54
915,471	-2,91
915,681	-2,62
915,891	-3,31
916,101	-4,29
916,311	-3,73
916,521	-3,07
916,731	-2,55
916,941	-1,19
917,151	-3,59
917,361	-0,72
917,571	-4,55
917,781	-6,63
917,991	-7,59
918,201	-7,72
918,411	-10,36
918,621	-10,84
918,83	-9,69
919,04	-11,5
919,25	-10,12
919,46	-9,26
919,669	-11,31
919,879	-11,15
920,089	-13,27
920,298	-13,76
920,508	-14,97
920,717	-14,42
920,927	-15,03
921,136	-15,06
921,346	-17,06
921,555	-19,31
921,765	-18,72
921,974	-20,21
922,184	-22,35
922,393	-22,33
922,603	-22,11
922,812	-19,31
923,021	-19,95
923,23	-21,24
923,44	-23,33
923,649	-23,39
923,858	-24,06
924,067	-23,79
924,277	-25,43
924,486	-22,6
924,695	-23,62
924,904	-21,22
925,113	-22
925,322	-21,24
925,531	-20,14
925,74	-21,41
925,949	-22,47
926,158	-20,91
926,367	-21,83
926,576	-20,57
926,785	-21,87
926,994	-22,44
927,203	-21,75
927,412	-22,39
927,621	-23,04
927,83	-20,65
928,038	-20,17
928,247	-20,37
928,456	-20,33
928,665	-18,04
928,873	-16,84
929,082	-15,65
929,291	-16,65
929,499	-14,28
929,708	-15,49
929,916	-14,46
930,125	-14,59
930,333	-16,57
930,542	-14,25
930,75	-11,34
930,959	-12,1
931,167	-12,7
931,376	-13,89
931,584	-12,83
931,793	-13,49
932,001	-13,83
932,209	-15,38
932,418	-17,55
932,626	-18,43
932,834	-18,15
933,042	-20,8
933,251	-19,49
933,459	-18,88
933,667	-20,82
933,875	-19,84
934,083	-18,81
934,291	-18,24
934,499	-16,83
934,707	-16,85
934,915	-16,78
935,123	-16,01
935,331	-17,3
935,539	-18,68
935,747	-19,09
935,955	-20,29
936,163	-19,97
936,371	-19,19
936,579	-17,64
936,787	-17,03
936,995	-18,68
937,202	-20,47
937,41	-19,79
937,618	-20,49
937,826	-19,45
938,033	-22,68
938,241	-23,85
938,449	-22,26
938,656	-19,24
938,864	-17,04
939,071	-16,14
939,279	-15,27
939,486	-13,48
939,694	-14,92
939,901	-16,27
940,109	-15,35
940,316	-14,98
940,524	-15,46
940,731	-16,59
940,939	-16,8
941,146	-17,43
941,353	-18,49
941,561	-19,07
941,768	-19,08
941,975	-19,03
942,182	-20,21
942,39	-20,05
942,597	-18,64
942,804	-19,25
943,011	-19,53
943,218	-18,47
943,425	-18,9
943,632	-18,82
943,839	-19,66
944,046	-18,43
944,253	-19,08
944,46	-18,09
944,667	-14,7
944,874	-15,46
945,081	-15,07
945,288	-14,44
945,495	-13,18
945,702	-12,18
945,909	-14,55
946,115	-13,13
946,322	-13,17
946,529	-15,39
946,736	-15,33
946,942	-13,44
947,149	-13,93
947,356	-14,97
947,562	-16,27
947,769	-14,81
947,976	-15,31
948,182	-14,7
948,389	-15,36
948,595	-14,68
948,802	-14,61
949,008	-15,44
949,215	-15,03
949,421	-16,3
949,628	-17,71
949,834	-17,21
950,04	-17,48
950,247	-15,1
950,453	-13,87
950,659	-14,59
950,865	-12,2
951,072	-16,68
951,278	-14,95
951,484	-16,79
951,69	-19,9
951,896	-21,25
952,103	-22,84
952,309	-20,26
952,515	-20,91
952,721	-18,52
952,927	-15,71
953,133	-16,68
953,339	-18,02
953,545	-18,39
953,751	-17,21
953,957	-13,75
954,163	-15,33
954,369	-15,72
954,574	-16,99
954,78	-16,01
954,986	-15,42
955,192	-14,33
955,398	-15,19
955,603	-16,27
955,809	-14,98
956,015	-13,42
956,22	-11,92
956,426	-11,19
956,632	-13,9
956,837	-14,59
957,043	-14,19
957,248	-15,11
957,454	-13,87
957,66	-16,3
957,865	-15,83
958,07	-14,22
958,276	-16,08
958,481	-17,03
958,687	-18,17
958,892	-17,79
959,097	-18,47
959,303	-19,74
959,508	-20,55
959,713	-21,24
959,919	-21,38
960,124	-21,78
960,329	-23,72
960,534	-20,35
960,739	-19,43
960,945	-18,03
961,15	-18,54
961,355	-19,1
961,56	-22,17
961,765	-22,98
961,97	-22,69
962,175	-21,12
962,38	-24,31
962,585	-24,45
962,79	-26,08
962,995	-25,66
963,2	-27,35
963,404	-28,14
963,609	-30,11
963,814	-30,87
964,019	-33,49
964,224	-35,02
964,428	-34,46
964,633	-32,33
964,838	-30,77
965,042	-30,56
965,247	-31,66
965,452	-32,53
965,656	-30,96
965,861	-30,4
966,066	-30,71
966,27	-28,46
966,475	-25,58
966,679	-28,01
966,884	-29,21
967,088	-29,56
967,292	-30,04
967,497	-29,35
967,701	-28,85
967,906	-27,27
968,11	-24,68
968,314	-21,99
968,518	-23,77
968,723	-21,66
968,927	-21,04
969,131	-19,23
969,335	-17,65
969,539	-17,47
969,744	-15,79
969,948	-12,99
970,152	-10,83
970,356	-9,04
970,56	-8,75
970,764	-9,47
970,968	-7,9
971,172	-8,21
971,376	-7,88
971,58	-5,58
971,784	-5,07
971,988	-7,07
972,192	-3,99
972,395	-3,63
972,599	-5,06
972,803	-7,91
973,007	-4,86
973,21	-4,86
973,414	-5,59
973,618	-6,61
973,822	-7,61
974,025	-8,43
974,229	-8,15
974,432	-11
974,636	-12,35
974,84	-11,66
975,043	-11,35
975,247	-13,76
975,45	-15,63
975,654	-15,55
975,857	-14,88
976,06	-15,61
976,264	-17,3
976,467	-17,69
976,671	-18,14
976,874	-17,26
977,077	-17,92
977,28	-20
977,484	-20,96
977,687	-21,5
977,89	-22,19
978,093	-21,33
978,297	-20,83
978,5	-23,59
978,703	-23,13
978,906	-23,79
979,109	-24,42
979,312	-24,06
979,515	-24,86
979,718	-24,66
979,921	-24,59
980,124	-25,65
980,327	-26,11
980,53	-25,73
980,733	-23,5
980,936	-22,65
981,138	-24,51
981,341	-23,92
981,544	-22,62
981,747	-21,75
981,949	-22,15
982,152	-20,03
982,355	-20,89
982,558	-18,03
982,76	-20,52
982,963	-19,89
983,165	-19,16
983,368	-17,53
983,571	-17,46
983,773	-15,5
983,976	-14,77
984,178	-14,9
984,381	-15,79
984,583	-16,82
984,785	-16,52
984,988	-14,02
985,19	-10,93
985,392	-11,67
985,595	-13,96
985,797	-12,98
985,999	-11,08
986,202	-9,62
986,404	-9,59
986,606	-6,46
986,808	-7,63
987,01	-7,31
987,212	-8,3
987,415	-8,83
987,617	-8,53
987,819	-8,56
988,021	-8,34
988,223	-10,31
988,425	-12,18
988,627	-12,24
988,829	-15,15
989,031	-12,48
989,232	-13,18
989,434	-13,04
989,636	-14,24
989,838	-15,36
990,04	-14,27
990,242	-15,63
990,443	-15,89
990,645	-14,78
990,847	-13,04
991,048	-12,06
991,25	-14,33
991,452	-16,4
991,653	-16,54
991,855	-16,88
992,057	-17,86
992,258	-18,05
992,46	-17,85
992,661	-17,28
992,863	-18,76
993,064	-18,3
993,265	-19,06
993,467	-19,88
993,668	-17,82
993,87	-19,52
994,071	-20,63
994,272	-19,62
994,473	-18,12
994,675	-16,92
994,876	-16,06
995,077	-16,24
995,278	-15,33
995,48	-14,87
995,681	-15,71
995,882	-15,22
996,083	-14,55
996,284	-17,43
996,485	-17,82
996,686	-18,3
996,887	-18,43
997,088	-20,92
997,289	-23,84
997,49	-23,13
997,691	-23,46
997,892	-23,28
998,092	-19,92
998,293	-20,09
998,494	-21,43
998,695	-22,71
998,896	-20,26
999,096	-20,91
999,297	-20,49
999,498	-21,45
999,698	-22,41
999,899	-23,16
1000,1	-24,29
1000,3	-23,88
1000,501	-25,1
1000,701	-25,78
1000,902	-26,64
1001,102	-26,4
1001,303	-25,54
1001,503	-27,75
1001,704	-27,45
1001,904	-27,78
1002,105	-27
1002,305	-25,6
1002,505	-26,21
1002,706	-25,6
1002,906	-26,15
1003,106	-27,53
1003,306	-26,96
1003,507	-24,24
1003,707	-25,55
1003,907	-23,29
1004,107	-21,32
1004,307	-22,86
1004,507	-20,38
1004,707	-20,57
1004,907	-21,24
1005,107	-22,42
1005,308	-22,79
1005,507	-23,16
1005,707	-22,26
1005,907	-22,95
1006,107	-22,37
1006,307	-21,45
1006,507	-22,18
1006,707	-21,39
1006,907	-20,43
1007,106	-21,3
1007,306	-21,81
1007,506	-21,04
1007,706	-20,63
1007,905	-22,73
1008,105	-23,84
1008,305	-24,32
1008,504	-24,42
1008,704	-20,26
1008,903	-20,58
1009,103	-18,29
1009,303	-18,55
1009,502	-18,2
1009,702	-19,76
1009,901	-19,96
1010,1	-23,7
1010,3	-23,33
1010,499	-23,42
1010,699	-25,25
1010,898	-24,92
1011,097	-24,23
1011,296	-24,14
1011,496	-23,56
1011,695	-24,09
1011,894	-24,37
1012,093	-21,58
1012,293	-20,55
1012,492	-19,58
1012,691	-18,65
1012,89	-18,73
1013,089	-19,32
1013,288	-17,18
1013,487	-16,63
1013,686	-17,48
1013,885	-18,07
1014,084	-16,43
1014,283	-15,45
1014,482	-15,89
1014,681	-16,11
1014,88	-19,6
1015,078	-18,46
1015,277	-21,55
1015,476	-23,07
1015,675	-22,25
1015,873	-21,7
1016,072	-22,99
1016,271	-20,15
1016,47	-22,19
1016,668	-22,37
1016,867	-23,76
1017,065	-25,83
1017,264	-26,15
1017,463	-26,31
1017,661	-27,34
1017,86	-26,67
1018,058	-26,21
1018,256	-26,83
1018,455	-29,17
1018,653	-28,9
1018,852	-28,64
1019,05	-29,85
1019,248	-32,42
1019,447	-33,73
1019,645	-34,51
1019,843	-35,5
1020,041	-34,73
1020,24	-35,69
1020,438	-33,66
1020,636	-34
1020,834	-36,08
1021,032	-34,07
1021,23	-34,95
1021,428	-32,52
1021,626	-28,74
1021,824	-27,8
1022,022	-28,01
1022,22	-24,96
1022,418	-24,41
1022,616	-26,47
1022,814	-26,33
1023,012	-26,98
1023,21	-24,62
1023,408	-25,01
1023,606	-25,06
1023,803	-20,19
1024,001	-21,25
1024,199	-23,79
1024,397	-23,17
1024,594	-22,27
1024,792	-23,42
1024,99	-23,08
1025,187	-21,96
1025,385	-18,2
1025,582	-17,99
1025,78	-17,82
1025,977	-17,01
1026,175	-17,06
1026,372	-15,18
1026,57	-15,8
1026,767	-14,42
1026,965	-12,67
1027,162	-13,3
1027,359	-13,21
1027,557	-12,91
1027,754	-15,72
1027,951	-18,3
1028,148	-16,11
1028,346	-18,92
1028,543	-20,54
1028,74	-18,33
1028,937	-19,62
1029,134	-19,12
1029,331	-19,89
1029,528	-20,13
1029,725	-20,64
1029,923	-24,15
1030,12	-20,32
1030,317	-19,36
1030,513	-18,72
1030,71	-18,6
1030,907	-16,76
1031,104	-17,81
1031,301	-19,47
1031,498	-20,31
1031,695	-21,04
1031,892	-20,9
1032,088	-20,17
1032,285	-21,34
1032,482	-22,55
1032,678	-24,77
1032,875	-26,55
1033,072	-27,16
1033,268	-26,55
1033,465	-26,54
1033,662	-28,49
1033,858	-27,55
1034,055	-25,46
1034,251	-24,83
1034,448	-23,89
1034,644	-23,34
1034,84	-22,16
1035,037	-20,39
1035,233	-19,4
1035,43	-18,69
1035,626	-18,52
1035,822	-17,9
1036,019	-18,12
1036,215	-21,32
1036,411	-19,7
1036,607	-21,74
1036,803	-22,86
1037	-23,39
1037,196	-25,41
1037,392	-26,6
1037,588	-28,53
1037,784	-27,89
1037,98	-28,61
1038,176	-28,62
1038,372	-28,62
1038,568	-27,18
1038,764	-25,41
1038,96	-23,34
1039,156	-24,13
1039,352	-24,43
1039,547	-23,86
1039,743	-23,45
1039,939	-21,76
1040,135	-23,94
1040,331	-25,45
1040,526	-24,23
1040,722	-25,52
1040,918	-26,77
1041,113	-29,19
1041,309	-29,56
1041,505	-31,31
1041,7	-30,04
1041,896	-31
1042,091	-32,26
1042,287	-32,79
1042,482	-33,47
1042,678	-33,29
1042,873	-32,62
1043,069	-33,67
1043,264	-31,51
1043,459	-29,16
1043,655	-27,52
1043,85	-27,67
1044,045	-26,57
1044,24	-27,42
1044,436	-26,18
1044,631	-28,36
1044,826	-30,21
1045,021	-32,14
1045,216	-31,35
