Data from FLMT021711__5__16-29-44-620.txt Node

Date: Tue Nov 05 16:29:44 CET 2024
User: Etudiants TP
Spectrometer: FLMT02171
Trigger mode: 0
Integration Time (sec): 1.000000E-1
Scans to average: 5
Electric dark correction enabled: true
Nonlinearity correction enabled: false
Boxcar width: 15
XAxis mode: Wavelengths
Number of Pixels in Spectrum: 3648
>>>>>Begin Spectral Data<<<<<
194.658	-53.28
194.923	-51.88
195.188	-47.69
195.453	-47.21
195.717	-42.73
195.982	-43.09
196.247	-40.64
196.512	-41.91
196.777	-40.39
197.042	-39.26
197.307	-38.65
197.572	-34.32
197.837	-33.76
198.101	-32.52
198.366	-30.65
198.631	-29.37
198.896	-24.76
199.161	-18.78
199.425	-12.21
199.69	-4.34
199.955	-5.06
200.22	-6.66
200.484	-6.44
200.749	-7.98
201.014	-7.27
201.278	-8.06
201.543	-7.11
201.807	-7.62
202.072	-7.23
202.337	-7.38
202.601	-5.89
202.866	-6.7
203.13	-5.62
203.395	-6.41
203.659	-6.31
203.924	-8.13
204.189	-6.24
204.453	-6.74
204.717	-5.1
204.982	-3.76
205.246	-2.29
205.511	-2.17
205.775	-3.79
206.04	0.3
206.304	1.37
206.568	2.82
206.833	3.05
207.097	4.3
207.361	5.96
207.626	8.99
207.89	9.32
208.154	9.68
208.419	9.89
208.683	8.18
208.947	10.15
209.211	8.14
209.476	8.31
209.74	8.16
210.004	8.83
210.268	9.18
210.532	11.17
210.796	10.23
211.061	9.15
211.325	9.31
211.589	8.59
211.853	8.65
212.117	9.85
212.381	9.18
212.645	10.41
212.909	10.19
213.173	8.29
213.437	7.95
213.701	9.62
213.965	9.74
214.229	5.42
214.493	4.38
214.757	3.37
215.021	3.81
215.285	7.49
215.549	7.82
215.813	5.28
216.077	4.03
216.34	5.63
216.604	5.85
216.868	7.06
217.132	8.76
217.396	10.39
217.659	10.92
217.923	7.14
218.187	7.53
218.451	6.94
218.714	5.47
218.978	5.14
219.242	6.28
219.505	7.94
219.769	10.24
220.033	10.57
220.296	10.41
220.56	12.54
220.824	10.57
221.087	12.29
221.351	12.35
221.614	12.08
221.878	12.1
222.142	11.08
222.405	11.18
222.669	13.41
222.932	10.39
223.196	7.79
223.459	4.28
223.722	6.09
223.986	5.55
224.249	5.51
224.513	6.31
224.776	6.32
225.04	6.42
225.303	5.13
225.566	4.39
225.83	5.46
226.093	9.19
226.356	8.08
226.62	7.37
226.883	8.3
227.146	8.9
227.409	10.1
227.673	7.79
227.936	6.08
228.199	6.5
228.462	4.95
228.725	1.93
228.989	1.46
229.252	1.43
229.515	5.11
229.778	3.84
230.041	4.3
230.304	3.44
230.567	4.09
230.83	1.89
231.093	3.59
231.356	3.84
231.619	8.99
231.882	7.45
232.145	9.52
232.408	8.11
232.671	7.27
232.934	6.92
233.197	5.32
233.46	4.64
233.723	5.41
233.986	2.96
234.249	0.66
234.512	1.77
234.775	4.37
235.037	3.35
235.3	1.39
235.563	0.33
235.826	0.08
236.089	0.98
236.351	1.76
236.614	4.85
236.877	6.68
237.14	8.55
237.402	7.43
237.665	2.49
237.928	3.37
238.19	1.67
238.453	3.59
238.716	2.89
238.978	3.21
239.241	2.62
239.503	4.06
239.766	0.75
240.029	-0.87
240.291	0.51
240.554	1.09
240.816	0.08
241.079	0.97
241.341	1.16
241.604	0.62
241.866	-0.37
242.129	1.03
242.391	1.63
242.653	2.28
242.916	2.35
243.178	2.37
243.441	5.33
243.703	4.81
243.965	4.58
244.228	5.37
244.49	4.7
244.752	4.27
245.015	4.27
245.277	5.5
245.539	5.39
245.801	6.67
246.064	5.55
246.326	5.58
246.588	4.9
246.85	6.58
247.112	7.05
247.374	9.49
247.637	11.69
247.899	10.87
248.161	12.05
248.423	7.98
248.685	7.3
248.947	7.2
249.209	7.03
249.471	7.57
249.733	8.06
249.995	7.11
250.257	6.04
250.519	6.07
250.781	6.73
251.043	4.94
251.305	6.07
251.567	5.67
251.829	6.08
252.091	5.87
252.353	3.46
252.615	3.99
252.876	1.4
253.138	0.19
253.4	-2.27
253.662	-1.47
253.924	0
254.185	1.71
254.447	1.72
254.709	2.09
254.971	2.41
255.232	3.8
255.494	2.57
255.756	-0.04
256.017	0.6
256.279	0.9
256.541	1.08
256.802	2.09
257.064	2.69
257.326	1.18
257.587	2.86
257.849	4.18
258.11	5.54
258.372	5.93
258.633	6.23
258.895	5.25
259.156	4.19
259.418	3.31
259.679	0.29
259.941	-1.09
260.202	1.71
260.464	3.03
260.725	1.87
260.987	3.06
261.248	2.06
261.509	1.29
261.771	0.38
262.032	2.75
262.293	0.98
262.555	0.03
262.816	-1.75
263.077	-2.76
263.338	-4.35
263.6	-3.63
263.861	-2.87
264.122	-3.58
264.383	-2.42
264.645	-1.67
264.906	-2.77
265.167	-1.95
265.428	-1.67
265.689	-1.1
265.95	-2.91
266.211	-2.95
266.473	-2.34
266.734	-4.57
266.995	-7.28
267.256	-6.72
267.517	-5.68
267.778	-1.99
268.039	-0.28
268.3	-2.33
268.561	-4.03
268.822	-2.54
269.083	-4.34
269.344	-3.56
269.604	-3.36
269.865	-2.9
270.126	-7.21
270.387	-5.8
270.648	-5.44
270.909	-4.16
271.17	-4.85
271.43	-7.62
271.691	-10.34
271.952	-11.58
272.213	-10.07
272.473	-11.34
272.734	-9.5
272.995	-7.08
273.256	-7.11
273.516	-5.01
273.777	-7.89
274.038	-6.39
274.298	-7.96
274.559	-8.29
274.82	-4.22
275.08	-1.91
275.341	-0.28
275.601	-1.78
275.862	-2.67
276.122	-2.13
276.383	-1.36
276.643	-0.71
276.904	-1.09
277.164	1.82
277.425	1.01
277.685	4.21
277.946	3.41
278.206	4.21
278.467	5.11
278.727	6.17
278.987	4.86
279.248	3.78
279.508	6.08
279.768	7.71
280.029	9.24
280.289	7.06
280.549	5.11
280.81	4.28
281.07	1.83
281.33	3.49
281.59	1.77
281.851	3.3
282.111	2.63
282.371	2.11
282.631	3.64
282.891	3.65
283.151	3.14
283.412	2.06
283.672	2.52
283.932	2.54
284.192	2.95
284.452	1.03
284.712	0.12
284.972	-1.29
285.232	-2.9
285.492	-1.02
285.752	-2.95
286.012	2.54
286.272	5.56
286.532	3.89
286.792	3.01
287.052	4.17
287.312	5.04
287.571	2.96
287.831	3.43
288.091	0.9
288.351	0.42
288.611	4.81
288.871	4.44
289.13	6
289.39	3.75
289.65	3.72
289.91	2.48
290.17	3.99
290.429	5.22
290.689	3.52
290.949	0.56
291.208	0.82
291.468	3.17
291.728	4.46
291.987	5.88
292.247	4.7
292.506	5.97
292.766	8.33
293.026	8.46
293.285	8.38
293.545	9.87
293.804	9.68
294.064	6.78
294.323	3.91
294.583	4.42
294.842	5.14
295.102	6.24
295.361	6.76
295.621	7.59
295.88	7.74
296.139	7.13
296.399	9.25
296.658	3.78
296.917	4.37
297.177	1.57
297.436	2.34
297.695	2.49
297.955	5.01
298.214	4.24
298.473	7.36
298.732	8.66
298.992	11.84
299.251	11.85
299.51	9.16
299.769	9.87
300.028	7.86
300.287	8.13
300.547	9.01
300.806	7.05
301.065	8.81
301.324	11.24
301.583	9.87
301.842	6.84
302.101	5.28
302.36	6.22
302.619	6.53
302.878	6.3
303.137	4.2
303.396	5.58
303.655	6.99
303.914	4.16
304.173	5.7
304.432	3.67
304.691	6.96
304.95	3.87
305.208	8.09
305.467	8.37
305.726	7.25
305.985	6.75
306.244	7.44
306.503	5.78
306.761	4.36
307.02	0.91
307.279	0.98
307.537	0.49
307.796	-0.9
308.055	-1.33
308.314	-0.31
308.572	-1.39
308.831	-0.05
309.09	0.97
309.348	0.53
309.607	-0.17
309.865	4.13
310.124	4.33
310.382	4.13
310.641	4.94
310.9	5.07
311.158	4.38
311.417	4.65
311.675	5.35
311.933	7.53
312.192	8.95
312.45	10.14
312.709	10.03
312.967	11.69
313.226	9.29
313.484	7.96
313.742	6.9
314.001	4.89
314.259	3.85
314.517	5.3
314.776	6.95
315.034	8.76
315.292	8.3
315.55	6.78
315.809	5.47
316.067	5.79
316.325	4.17
316.583	4.75
316.841	2.57
317.1	0.82
317.358	-1.66
317.616	-2.88
317.874	-4.58
318.132	-5.05
318.39	-5.04
318.648	-6.59
318.906	-7.58
319.164	-6.04
319.422	-7.27
319.68	-8.62
319.938	-9.82
320.196	-9.59
320.454	-9.87
320.712	-10.12
320.97	-11.02
321.228	-10.36
321.486	-8.48
321.744	-7.34
322.002	-4.93
322.26	-5.23
322.517	-6.55
322.775	-8.31
323.033	-8.9
323.291	-7.45
323.549	-5.74
323.806	-4.6
324.064	-4.32
324.322	-3.81
324.58	-5.11
324.837	-2.16
325.095	-3.2
325.353	-2.07
325.61	-0.23
325.868	0.8
326.126	1.82
326.383	1.7
326.641	1.4
326.898	2.58
327.156	2.49
327.413	2.99
327.671	3.77
327.928	6.16
328.186	6.31
328.443	5.68
328.701	8.52
328.958	9.36
329.216	8.49
329.473	6.69
329.731	7.99
329.988	7.18
330.245	7.4
330.503	8.02
330.76	6.9
331.017	7.7
331.275	5.22
331.532	6
331.789	4.24
332.047	3.58
332.304	2.34
332.561	3.09
332.818	1.35
333.076	2.7
333.333	3.26
333.59	3.84
333.847	3.1
334.104	2.24
334.361	0.8
334.618	0.94
334.876	0.06
335.133	-1.09
335.39	-3.03
335.647	-2.13
335.904	-5.81
336.161	-7.36
336.418	-6.92
336.675	-10.73
336.932	-8.71
337.189	-7.92
337.446	-6.8
337.703	-7.44
337.96	-10.8
338.216	-8.75
338.473	-10.63
338.73	-10.53
338.987	-10.56
339.244	-7.29
339.501	-8.76
339.757	-7.36
340.014	-6.49
340.271	-6.85
340.528	-7.03
340.785	-4.16
341.041	-3.77
341.298	-4.06
341.555	-4.91
341.811	-4.45
342.068	-5.86
342.325	-5.99
342.581	-4.25
342.838	-3.45
343.094	-2.68
343.351	-1.82
343.608	-4.61
343.864	-2.78
344.121	-2.52
344.377	-2.56
344.634	-2.16
344.89	-3.23
345.147	-3.74
345.403	-4.93
345.66	-4.79
345.916	-1.24
346.172	-4.07
346.429	-4.17
346.685	-3.22
346.942	-3.34
347.198	-7.5
347.454	-6.09
347.711	-6.44
347.967	-7.99
348.223	-5.64
348.48	-5.09
348.736	-3.46
348.992	-4.84
349.248	-4.66
349.504	-4.93
349.761	-5.87
350.017	-5.18
350.273	-4.86
350.529	-6.2
350.785	-5.87
351.041	-6.26
351.297	-6.32
351.554	-6.13
351.81	-6.73
352.066	-6.65
352.322	-6.33
352.578	-6.18
352.834	-7.32
353.09	-6.48
353.346	-7.04
353.602	-7.07
353.858	-8.06
354.114	-9.01
354.369	-8.28
354.625	-6.74
354.881	-9.58
355.137	-6.73
355.393	-7.51
355.649	-7.29
355.905	-7.59
356.16	-8.57
356.416	-9
356.672	-13.54
356.928	-12.8
357.183	-13.87
357.439	-12.62
357.695	-12.33
357.951	-8.72
358.206	-8.88
358.462	-8.98
358.718	-10.29
358.973	-9.13
359.229	-7.86
359.484	-8.54
359.74	-5.82
359.996	-5.61
360.251	-3.71
360.507	-3.97
360.762	-3.62
361.018	-3.27
361.273	-2.5
361.529	-3.11
361.784	-2.81
362.04	0.34
362.295	0.15
362.55	-0.07
362.806	2.91
363.061	3.13
363.316	3.73
363.572	3.96
363.827	6.86
364.082	4.86
364.338	4.96
364.593	6.04
364.848	6.57
365.104	6.43
365.359	7.62
365.614	7.45
365.869	4.39
366.124	4.9
366.38	3.84
366.635	3.94
366.89	4.25
367.145	3.13
367.4	5.85
367.655	5.84
367.91	6.15
368.165	4.99
368.42	2.92
368.675	3.53
368.93	4.32
369.185	1.07
369.44	1.26
369.695	1.78
369.95	-0.55
370.205	-0.76
370.46	-2.19
370.715	-1.57
370.97	-0.44
371.225	-0.62
371.48	0.63
371.734	0.15
371.989	1.34
372.244	1.98
372.499	2.73
372.754	1.25
373.008	-0.02
373.263	-2.94
373.518	-1.1
373.773	-1.98
374.027	-2.5
374.282	0.25
374.537	0.76
374.791	0.67
375.046	0.07
375.301	-0.66
375.555	-2.87
375.81	-2.3
376.064	-1.35
376.319	1.78
376.573	1.97
376.828	-1.83
377.082	2.82
377.337	1.83
377.591	0.05
377.846	0.49
378.1	2.75
378.355	3.68
378.609	3.92
378.863	0.5
379.118	0.69
379.372	0.64
379.627	-0.67
379.881	-1.34
380.135	-1.75
380.389	-3.31
380.644	-2.79
380.898	-1.7
381.152	-1.15
381.407	-2.07
381.661	-0.36
381.915	1.09
382.169	-0.28
382.423	-1.25
382.677	-2.43
382.932	-1.65
383.186	-0.3
383.44	0.33
383.694	0.85
383.948	-1.15
384.202	-2.28
384.456	-2.35
384.71	0.11
384.964	-1.16
385.218	0.24
385.472	2.32
385.726	2.38
385.98	1.72
386.234	1.06
386.488	-3.13
386.742	-1.87
386.996	-3.56
387.249	-3.59
387.503	-2.38
387.757	-1.16
388.011	0.3
388.265	0.8
388.518	1.77
388.772	2.26
389.026	2.89
389.28	1.72
389.533	1.16
389.787	2.36
390.041	1.84
390.295	2.38
390.548	1.82
390.802	4.6
391.055	3.32
391.309	2.22
391.563	0.64
391.816	1.35
392.07	0.82
392.323	2.55
392.577	2.19
392.83	2.83
393.084	7.29
393.337	7.62
393.591	8.82
393.844	8.76
394.098	11.95
394.351	17.13
394.604	18.74
394.858	20.74
395.111	19.78
395.364	18.18
395.618	18.44
395.871	15.65
396.124	15.04
396.378	14.59
396.631	14.08
396.884	12.35
397.137	12.21
397.391	14.05
397.644	12.35
397.897	11.84
398.15	12.48
398.403	14.59
398.657	11.98
398.91	11.38
399.163	12.63
399.416	13.53
399.669	12.2
399.922	11.45
400.175	10.02
400.428	12.18
400.681	14.68
400.934	13.68
401.187	16.9
401.44	19.69
401.693	20.82
401.946	19.11
402.199	15.91
402.452	15.09
402.704	11.76
402.957	11.14
403.21	11.96
403.463	11.95
403.716	13.05
403.969	15.4
404.221	15.95
404.474	18.78
404.727	22.11
404.98	24.99
405.232	23.2
405.485	23.57
405.738	26.94
405.99	27.17
406.243	28.54
406.496	30.47
406.748	30.67
407.001	29.94
407.253	29.94
407.506	30.97
407.759	32.1
408.011	30.24
408.264	27.42
408.516	24.73
408.769	20.09
409.021	16.86
409.274	13.72
409.526	13.21
409.778	12.79
410.031	14.29
410.283	13.08
410.536	19.13
410.788	19.22
411.04	19.58
411.293	21.57
411.545	20.73
411.797	19.31
412.049	18.19
412.302	18.15
412.554	17.89
412.806	16.34
413.058	15.94
413.311	16.27
413.563	14.54
413.815	13.98
414.067	12.28
414.319	11.68
414.571	12.68
414.823	12.16
415.075	11.67
415.328	12.08
415.58	13.92
415.832	14.24
416.084	17.01
416.336	16.75
416.588	20.04
416.84	19.77
417.091	22.55
417.343	19.64
417.595	19.92
417.847	21.2
418.099	23.15
418.351	21.28
418.603	22.89
418.855	23.95
419.106	22.81
419.358	25.1
419.61	24.87
419.862	25.3
420.114	23.74
420.365	24.65
420.617	24.29
420.869	23.13
421.12	23.41
421.372	24.72
421.624	24.88
421.875	24.66
422.127	22.59
422.379	21.83
422.63	23.7
422.882	22.55
423.133	22.2
423.385	22.96
423.636	23.99
423.888	24.68
424.139	26.2
424.391	23.73
424.642	22.67
424.894	21.73
425.145	22.58
425.396	20.72
425.648	22.49
425.899	21.29
426.151	22.24
426.402	21.51
426.653	20.62
426.905	19.41
427.156	16.64
427.407	17.19
427.658	16.76
427.91	15.99
428.161	13.6
428.412	14.44
428.663	15.78
428.914	16
429.166	16.07
429.417	16.32
429.668	16.15
429.919	14.58
430.17	15
430.421	14.22
430.672	17.15
430.923	17.28
431.174	16.55
431.425	23.37
431.676	31.38
431.927	38.94
432.178	53.36
432.429	66.05
432.68	74.75
432.931	84.82
433.182	93.18
433.433	95.05
433.683	98.58
433.934	99.3
434.185	99.55
434.436	99.38
434.687	102.03
434.937	104.22
435.188	103.44
435.439	103.27
435.69	103.94
435.94	103.85
436.191	105.95
436.442	106.24
436.692	104.95
436.943	102.75
437.194	102.39
437.444	103.92
437.695	107.06
437.945	107.62
438.196	107.74
438.447	106.14
438.697	105.78
438.948	103.66
439.198	95.83
439.449	84.68
439.699	76.03
439.949	62.94
440.2	50.06
440.45	41.39
440.701	31.14
440.951	24.84
441.201	20.64
441.452	17.94
441.702	16.8
441.952	16.16
442.203	16.48
442.453	13.4
442.703	14.54
442.953	14.42
443.204	14.71
443.454	12.82
443.704	13.57
443.954	9.96
444.204	9.68
444.455	11.88
444.705	13.34
444.955	13.13
445.205	12.48
445.455	10.93
445.705	10.83
445.955	10.17
446.205	9.97
446.455	10.59
446.705	11.13
446.955	11.32
447.205	11.43
447.455	12.53
447.705	10.57
447.955	9.59
448.205	8.83
448.454	9.47
448.704	9.7
448.954	8.16
449.204	7.95
449.454	6.49
449.704	6.31
449.953	5.25
450.203	7.45
450.453	4.19
450.703	6.52
450.952	6.25
451.202	8.11
451.452	7.13
451.701	8.56
451.951	10.64
452.201	10.62
452.45	10.03
452.7	12.01
452.949	10.43
453.199	9.93
453.448	10.55
453.698	12.88
453.947	12.81
454.197	12.33
454.446	12.65
454.696	14.53
454.945	14.59
455.195	13.3
455.444	14
455.693	17.5
455.943	15.57
456.192	16.67
456.442	16.87
456.691	16.72
456.94	16.26
457.189	16.58
457.439	17.49
457.688	18.82
457.937	18.8
458.186	20.14
458.436	18.99
458.685	19.74
458.934	18.49
459.183	18.54
459.432	20.35
459.681	20.35
459.93	17.78
460.179	17.98
460.429	15.74
460.678	18.9
460.927	20.98
461.176	21.09
461.425	19.67
461.674	20.18
461.923	20.3
462.172	19.99
462.42	19.05
462.669	20.74
462.918	21.04
463.167	22.08
463.416	19.82
463.665	21.09
463.914	21.07
464.162	19.62
464.411	21.88
464.66	23.1
464.909	22.08
465.158	22.49
465.406	22.5
465.655	24.53
465.904	25.67
466.152	26.84
466.401	27.25
466.65	29.44
466.898	28.48
467.147	27.14
467.395	26.97
467.644	28.42
467.893	27.76
468.141	27.82
468.39	26.14
468.638	25.25
468.887	24.75
469.135	24.44
469.384	24.92
469.632	26.21
469.88	26.39
470.129	28.2
470.377	26.07
470.626	27.01
470.874	27.32
471.122	28.38
471.371	27.66
471.619	27.35
471.867	29.84
472.115	28.8
472.364	28.25
472.612	30.5
472.86	28.68
473.108	29.21
473.356	27.29
473.605	26.5
473.853	23.72
474.101	23.26
474.349	22.23
474.597	24.57
474.845	23.56
475.093	22.63
475.341	20.47
475.589	20.38
475.837	21.58
476.085	22.32
476.333	21.69
476.581	20.81
476.829	20.3
477.077	22.84
477.325	21.3
477.573	22.48
477.821	20.66
478.069	21.08
478.317	21.25
478.564	22.97
478.812	21.23
479.06	19.86
479.308	18.92
479.555	18.74
479.803	18.82
480.051	20.44
480.299	20.3
480.546	23.44
480.794	22.78
481.042	25.28
481.289	27.27
481.537	29.92
481.784	31.29
482.032	35.34
482.28	36.63
482.527	37.23
482.775	40.53
483.022	46.29
483.27	49.46
483.517	53.18
483.765	54.8
484.012	57.95
484.259	59.95
484.507	65.06
484.754	66.45
485.002	69.51
485.249	71.3
485.496	75.84
485.744	77.63
485.991	78.92
486.238	78.87
486.486	82.79
486.733	86.58
486.98	91.4
487.227	90.88
487.474	94.3
487.722	95.32
487.969	94.68
488.216	93.91
488.463	96.73
488.71	94.19
488.957	91.66
489.204	91.62
489.451	90.6
489.699	89.51
489.946	86.63
490.193	85.67
490.44	82.62
490.687	80.86
490.934	77.72
491.18	74.33
491.427	73.27
491.674	72.26
491.921	70.91
492.168	67.91
492.415	63.38
492.662	62.08
492.909	61.79
493.155	58.13
493.402	56.2
493.649	53.35
493.896	52.66
494.142	48.4
494.389	47.32
494.636	44.01
494.883	42.21
495.129	39.19
495.376	36.84
495.623	36.99
495.869	37.3
496.116	34.75
496.362	35.27
496.609	37.14
496.855	40.26
497.102	40.4
497.348	38.42
497.595	38.09
497.841	40.19
498.088	38.02
498.334	35.83
498.581	34.71
498.827	33.72
499.074	34.28
499.32	34.04
499.566	35.11
499.813	33.7
500.059	33.43
500.305	32.18
500.552	30.28
500.798	30.37
501.044	32.52
501.29	30.83
501.537	27.97
501.783	29.82
502.029	30.41
502.275	27.16
502.521	25.98
502.767	25.15
503.013	26.36
503.26	24.5
503.506	21.73
503.752	22.49
503.998	19.4
504.244	19.57
504.49	14.71
504.736	15.26
504.982	14.26
505.228	15.23
505.474	14.39
505.72	14.89
505.966	14.36
506.211	16.63
506.457	17.35
506.703	13.25
506.949	11.67
507.195	9.94
507.441	7
507.686	7.76
507.932	7.7
508.178	8.22
508.424	6.11
508.669	4.12
508.915	5.04
509.161	7.26
509.406	7.36
509.652	7.13
509.898	9.62
510.143	9.32
510.389	9.1
510.634	6.42
510.88	8.31
511.125	9.66
511.371	8.76
511.616	11.29
511.862	8.42
512.107	7.87
512.353	7.6
512.598	8.22
512.844	6.52
513.089	4.43
513.335	5.85
513.58	6.08
513.825	5.12
514.071	3.27
514.316	4.28
514.561	4.78
514.806	4.13
515.052	7.36
515.297	7.18
515.542	8.31
515.787	8.59
516.033	10.39
516.278	10.41
516.523	9.1
516.768	8.49
517.013	6.66
517.258	5.57
517.503	6.2
517.748	7.53
517.993	6.08
518.238	6.32
518.483	5.04
518.728	3.83
518.973	2.74
519.218	1.88
519.463	2.75
519.708	2.29
519.953	0.4
520.198	0.06
520.443	2.01
520.688	4.59
520.933	4.35
521.177	2.95
521.422	0.54
521.667	2.91
521.912	2.92
522.157	1.31
522.401	4.18
522.646	3.07
522.891	4.38
523.135	3.31
523.38	3.15
523.625	2.37
523.869	3.66
524.114	5.35
524.358	4.75
524.603	4.03
524.848	1.82
525.092	0.47
525.337	0.68
525.581	2.35
525.826	4.69
526.07	4.77
526.315	5.01
526.559	4.35
526.803	3.48
527.048	6.48
527.292	6.56
527.537	7.85
527.781	6.01
528.025	4.17
528.269	4.77
528.514	4.78
528.758	4.94
529.002	6.56
529.247	8.45
529.491	7.96
529.735	11.56
529.979	10.62
530.223	12.33
530.467	9.57
530.712	9.32
530.956	8.24
531.2	8.47
531.444	6.5
531.688	9.03
531.932	8.66
532.176	9.86
532.42	11.92
532.664	13.4
532.908	13.05
533.152	12.43
533.396	11.16
533.64	12.08
533.884	12.72
534.128	13.43
534.371	15.99
534.615	18.82
534.859	20.89
535.103	22.64
535.347	26.63
535.59	29.95
535.834	30.5
536.078	34.22
536.322	39.83
536.565	46.8
536.809	51.15
537.053	59.53
537.296	66.35
537.54	75.72
537.784	87.22
538.027	102.22
538.271	115.69
538.514	129.76
538.758	144.09
539.001	158.21
539.245	169.75
539.488	184.41
539.732	199.94
539.975	212.65
540.219	226.34
540.462	239.38
540.706	251.85
540.949	262.68
541.192	273.69
541.436	288.77
541.679	304.61
541.922	318.93
542.166	330.53
542.409	346.99
542.652	363.39
542.895	380.88
543.139	397.32
543.382	412.61
543.625	422.69
543.868	431.77
544.111	437.8
544.354	441.32
544.598	443.12
544.841	444.55
545.084	442.36
545.327	436.67
545.57	430.41
545.813	424.1
546.056	415.02
546.299	406.54
546.542	398.76
546.785	391.3
547.028	382.17
547.271	372.07
547.514	363.47
547.756	352.12
547.999	342.67
548.242	335.4
548.485	325.06
548.728	316.5
548.971	303.16
549.213	292.62
549.456	278.36
549.699	263.56
549.942	246.7
550.184	228.82
550.427	210.76
550.67	194.4
550.912	177.71
551.155	166.34
551.398	153.69
551.64	143.17
551.883	134.05
552.125	125.04
552.368	115.6
552.61	105.82
552.853	100.1
553.095	92.41
553.338	85.3
553.58	80.11
553.823	72.84
554.065	70.2
554.308	62.96
554.55	57.98
554.792	52.46
555.035	47.65
555.277	42.54
555.519	38.41
555.762	32.25
556.004	30.76
556.246	24.78
556.488	23.39
556.731	18.03
556.973	17.23
557.215	15.65
557.457	13.89
557.699	14.29
557.941	10.82
558.183	9.97
558.426	10.38
558.668	5.39
558.91	4.39
559.152	2.28
559.394	0.71
559.636	1.19
559.878	0.55
560.12	0.15
560.362	0.57
560.604	-0.36
560.845	-0.17
561.087	-0.72
561.329	0.75
561.571	-1.59
561.813	-0.38
562.055	-2.17
562.297	-1.07
562.538	-1.23
562.78	2.21
563.022	1.11
563.264	2.83
563.505	2.51
563.747	4.16
563.989	2.66
564.23	2.13
564.472	0.13
564.714	1.28
564.955	3.4
565.197	0.37
565.438	2.58
565.68	3.99
565.921	1.85
566.163	4.11
566.404	4.13
566.646	7.05
566.887	8.41
567.129	8.32
567.37	6.99
567.612	8.21
567.853	5.91
568.094	7.04
568.336	6.59
568.577	7.09
568.818	8.39
569.06	6.02
569.301	3.04
569.542	3.49
569.783	3.66
570.025	3.84
570.266	3.25
570.507	4.89
570.748	4.58
570.989	4.95
571.23	6.36
571.472	6.2
571.713	5.53
571.954	6.53
572.195	4.38
572.436	4.29
572.677	8.12
572.918	8.39
573.159	6.68
573.4	7.38
573.641	9.37
573.882	10.65
574.123	9.78
574.364	6.74
574.604	9.14
574.845	9.6
575.086	10.26
575.327	13.02
575.568	14.06
575.809	15.73
576.049	16.91
576.29	17.06
576.531	23.26
576.771	29.07
577.012	32.09
577.253	34.81
577.494	35.24
577.734	35.74
577.975	36.92
578.215	38.58
578.456	38.5
578.697	39.51
578.937	43.79
579.178	46.1
579.418	47.97
579.659	49.9
579.899	50.12
580.14	50.21
580.38	50.58
580.62	52.19
580.861	55.77
581.101	55.59
581.342	56.16
581.582	54.04
581.822	58.77
582.063	58.91
582.303	61.31
582.543	62.91
582.783	63.57
583.024	65.91
583.264	68.71
583.504	67.89
583.744	70.87
583.984	68.86
584.224	69.23
584.465	69.01
584.705	68.43
584.945	69.89
585.185	70.24
585.425	72.56
585.665	72.13
585.905	72.1
586.145	72.09
586.385	68.77
586.625	69.02
586.865	67.17
587.105	66.49
587.345	66.4
587.585	66.18
587.824	64.78
588.064	62.49
588.304	60.4
588.544	59.89
588.784	57.47
589.024	59.42
589.263	57.83
589.503	56.5
589.743	59.19
589.982	58.51
590.222	58.79
590.462	55.78
590.701	53.36
590.941	54.82
591.181	50.55
591.42	49.48
591.66	49.36
591.899	50.77
592.139	48.95
592.378	48.4
592.618	46.93
592.857	44.79
593.097	44.49
593.336	44.22
593.576	42.86
593.815	43.83
594.055	44.28
594.294	43.88
594.533	43.28
594.773	42.04
595.012	43.15
595.251	44.1
595.491	47.21
595.73	48.79
595.969	49.36
596.208	50.96
596.447	54.68
596.687	55.49
596.926	54.31
597.165	50.25
597.404	50.99
597.643	48.34
597.882	47.47
598.121	47.02
598.36	46.08
598.599	47.46
598.838	46.86
599.077	42.8
599.316	41.57
599.555	39.28
599.794	40
600.033	40.88
600.272	40.92
600.511	38.91
600.75	39.9
600.989	40.42
601.228	39.47
601.466	38.21
601.705	41.16
601.944	41.61
602.183	43.21
602.422	40.33
602.66	39.07
602.899	37.51
603.138	36.7
603.376	35.6
603.615	36.13
603.854	32.68
604.092	32.31
604.331	33.08
604.569	33.3
604.808	32.9
605.047	35.49
605.285	37.05
605.524	36.96
605.762	36.36
606	38.7
606.239	41.72
606.477	45.81
606.716	48.43
606.954	55.97
607.193	63.23
607.431	74.42
607.669	90.54
607.908	109.27
608.146	131.13
608.384	151.05
608.622	170.53
608.861	188.49
609.099	201.24
609.337	214.37
609.575	227.05
609.813	240.57
610.052	250.92
610.29	256.61
610.528	262.66
610.766	267.7
611.004	271.71
611.242	276.02
611.48	280.49
611.718	284.95
611.956	289.75
612.194	292.32
612.432	292.79
612.67	293.86
612.908	297.29
613.146	298.23
613.384	298.13
613.621	297.22
613.859	296.06
614.097	292.29
614.335	287.56
614.573	281.63
614.811	272.17
615.048	255.68
615.286	238.81
615.524	219.19
615.761	197.77
615.999	180.6
616.237	163.24
616.474	150.15
616.712	138.35
616.95	124.81
617.187	113.25
617.425	105.51
617.662	99.32
617.9	92.15
618.137	85.68
618.375	80.47
618.612	74.05
618.85	70.71
619.087	67.72
619.325	64.58
619.562	60.46
619.799	58.3
620.037	56.86
620.274	54.3
620.511	54.2
620.749	50.78
620.986	48.17
621.223	46.9
621.461	47.21
621.698	47.98
621.935	46.01
622.172	43.03
622.409	45.51
622.647	45.79
622.884	44.18
623.121	46.96
623.358	44.24
623.595	44.57
623.832	45.16
624.069	43.7
624.306	44.76
624.543	46.85
624.78	46.38
625.017	45.58
625.254	47.54
625.491	49.03
625.728	50.05
625.965	50.56
626.202	49.14
626.438	46.94
626.675	44.96
626.912	47.91
627.149	48.23
627.386	48.18
627.622	48.55
627.859	48.88
628.096	51.19
628.333	52.58
628.569	52.64
628.806	53.36
629.043	51.98
629.279	52.65
629.516	53.18
629.752	49.74
629.989	49.04
630.225	47.94
630.462	45.94
630.699	46.5
630.935	45.76
631.171	42.68
631.408	41.83
631.644	39.47
631.881	34.97
632.117	32.82
632.354	32.17
632.59	29.33
632.826	28.79
633.063	27.49
633.299	27.13
633.535	24.09
633.771	23.6
634.008	23.53
634.244	21.03
634.48	18.65
634.716	17.6
634.953	14.52
635.189	13.08
635.425	10.44
635.661	10.22
635.897	7.47
636.133	6.05
636.369	5.67
636.605	1.31
636.841	0.67
637.077	0.88
637.313	0.34
637.549	-1.06
637.785	-1.59
638.021	-1.88
638.257	-1.93
638.493	-1.99
638.729	-2.6
638.965	0.38
639.2	2.73
639.436	1.84
639.672	1.52
639.908	1.15
640.144	3.81
640.379	5.85
640.615	4.37
640.851	6.26
641.086	8.09
641.322	7.96
641.558	8
641.793	9.53
642.029	8.69
642.264	8.52
642.5	8.56
642.736	7.16
642.971	7.21
643.207	7.65
643.442	5.96
643.678	4.71
643.913	5.64
644.148	4.02
644.384	5.87
644.619	4.86
644.855	6.84
645.09	7.46
645.325	6.92
645.561	6.16
645.796	5.55
646.031	7.11
646.266	4.79
646.502	3.42
646.737	6.04
646.972	7.72
647.207	7.99
647.442	5.54
647.678	2.62
647.913	4.63
648.148	6.74
648.383	4.97
648.618	4.99
648.853	4.96
649.088	6.06
649.323	8.42
649.558	9.95
649.793	10.89
650.028	12.02
650.263	10.57
650.498	11.15
650.733	12.03
650.968	12.43
651.202	14.31
651.437	14.49
651.672	11.96
651.907	11.95
652.142	11.88
652.376	11.85
652.611	13.68
652.846	13.79
653.081	13.72
653.315	14.25
653.55	12.46
653.785	10.63
654.019	11.07
654.254	9.27
654.488	9.15
654.723	6.84
654.958	6.14
655.192	5.58
655.427	2.18
655.661	3.17
655.896	5.07
656.13	7.05
656.364	3.78
656.599	0.68
656.833	5.8
657.068	6.62
657.302	6.04
657.536	4.7
657.771	6.52
658.005	6.8
658.239	7.09
658.474	5.63
658.708	6.68
658.942	6.54
659.176	6.66
659.41	5.13
659.645	5.21
659.879	3.91
660.113	2.63
660.347	2.56
660.581	-0.75
660.815	0.81
661.049	1.52
661.283	-0.86
661.517	-1.39
661.751	-2.47
661.985	-2.67
662.219	-1.42
662.453	-2.98
662.687	-0.99
662.921	-3.82
663.155	-4.83
663.389	-10.47
663.622	-10.34
663.856	-8.16
664.09	-14.19
664.324	-14.09
664.558	-13.26
664.791	-13.97
665.025	-15.43
665.259	-15.38
665.492	-16.28
665.726	-14.81
665.96	-15.41
666.193	-16.55
666.427	-15.74
666.661	-16.46
666.894	-17.92
667.128	-18.27
667.361	-16.06
667.595	-16.33
667.828	-15.01
668.062	-15.89
668.295	-14.52
668.529	-14.1
668.762	-14.1
668.995	-14.59
669.229	-11.88
669.462	-11.16
669.695	-9.71
669.929	-12.27
670.162	-11.39
670.395	-12.81
670.629	-10.87
670.862	-9.39
671.095	-10.21
671.328	-9.53
671.561	-13.17
671.795	-12.33
672.028	-11.24
672.261	-9.61
672.494	-9.3
672.727	-9.62
672.96	-9.04
673.193	-9.64
673.426	-6.27
673.659	-7.52
673.892	-6.93
674.125	-6.52
674.358	-7.01
674.591	-8.13
674.824	-8.21
675.057	-8.93
675.29	-9.28
675.523	-9.06
675.755	-9.65
675.988	-9.32
676.221	-6.14
676.454	-7.36
676.687	-6.66
676.919	-7.62
677.152	-6.15
677.385	-7.23
677.617	-6.09
677.85	-4.27
678.083	-5.04
678.315	-3.85
678.548	-5.87
678.78	-6.46
679.013	-7.89
679.246	-7.09
679.478	-7.69
679.711	-8.81
679.943	-7.3
680.175	-8.02
680.408	-4.08
680.64	-6.76
680.873	-6.17
681.105	-5.4
681.338	-3.15
681.57	-3.04
681.802	-2.85
682.034	-2.42
682.267	0.05
682.499	1.33
682.731	0.57
682.964	0.85
683.196	0.14
683.428	-2.81
683.66	-3.53
683.892	-1.31
684.124	1.77
684.356	3.5
684.589	5.84
684.821	3.92
685.053	3.87
685.285	4.26
685.517	4.45
685.749	5.29
685.981	7.95
686.213	7.74
686.445	6.75
686.676	5.01
686.908	5.79
687.14	4.21
687.372	4.08
687.604	2.22
687.836	4.02
688.068	6.05
688.299	5.1
688.531	3.33
688.763	7.34
688.995	7.19
689.226	9.31
689.458	6.39
689.69	6.1
689.921	4.72
690.153	4.24
690.384	4.93
690.616	4.8
690.848	5.71
691.079	2.03
691.311	-0.76
691.542	-2.57
691.774	-4.03
692.005	-1.08
692.237	-0.39
692.468	-1.95
692.699	-2.53
692.931	-2.33
693.162	-4.24
693.393	-4.06
693.625	-4.5
693.856	-3.24
694.087	-2.53
694.319	-1.45
694.55	-2.47
694.781	-4.01
695.012	-5.83
695.243	-8.72
695.475	-8.42
695.706	-7.33
695.937	-8.81
696.168	-9.9
696.399	-12.05
696.63	-11.32
696.861	-11.09
697.092	-7.2
697.323	-5.54
697.554	-3.4
697.785	-2.38
698.016	-2.3
698.247	-2.72
698.478	-1.62
698.709	-1.64
698.94	-0.21
699.171	-1.81
699.401	-4.14
699.632	-2.63
699.863	-5.25
700.094	-4.36
700.325	-2.04
700.555	-0.98
700.786	0.51
701.017	-0.66
701.247	-1.61
701.478	-0.02
701.709	0.83
701.939	-0.98
702.17	0.92
702.401	3.42
702.631	4.7
702.862	3.09
703.092	0.33
703.323	3.12
703.553	4.58
703.784	5.16
704.014	4.86
704.244	1.65
704.475	1.23
704.705	-0.75
704.936	-0.14
705.166	1.49
705.396	2.37
705.627	3.04
705.857	4.51
706.087	4.77
706.317	4.38
706.548	4.3
706.778	4.93
707.008	6.51
707.238	6.66
707.468	4.85
707.698	3.95
707.928	4.25
708.158	5.01
708.389	4.86
708.619	3.29
708.849	2.2
709.079	5.58
709.309	3.67
709.539	1.69
709.768	0.58
709.998	3.7
710.228	4.03
710.458	3.18
710.688	2.43
710.918	3.69
711.148	2.91
711.378	2.56
711.607	1.53
711.837	2.35
712.067	2.44
712.297	0.76
712.526	1.48
712.756	0.85
712.986	-2.19
713.215	-3.36
713.445	-2.95
713.674	-2.3
713.904	-2.5
714.134	-1.73
714.363	-2.61
714.593	-2.87
714.822	-3.9
715.052	-4.52
715.281	-3.57
715.511	-4.53
715.74	-4.95
715.969	-5.35
716.199	-7.38
716.428	-6
716.657	-5.43
716.887	-3.11
717.116	-6.76
717.345	-5.94
717.575	-7.01
717.804	-7.52
718.033	-9.97
718.262	-9.54
718.492	-7.68
718.721	-7.2
718.95	-8.2
719.179	-10.37
719.408	-10.22
719.637	-13.44
719.866	-14.76
720.095	-12.83
720.324	-14.06
720.553	-18.02
720.782	-18.97
721.011	-19.46
721.24	-20.55
721.469	-20.52
721.698	-21.11
721.927	-21.16
722.156	-22.76
722.385	-23.42
722.613	-21.67
722.842	-21.02
723.071	-18.19
723.3	-16.66
723.529	-17.72
723.757	-18.03
723.986	-21.18
724.215	-20.21
724.443	-18.91
724.672	-17.15
724.901	-16.93
725.129	-15.73
725.358	-13.73
725.586	-16.01
725.815	-16.24
726.043	-15.68
726.272	-16.62
726.5	-17.06
726.729	-16.68
726.957	-18.68
727.186	-19.56
727.414	-18.61
727.642	-15.95
727.871	-14.69
728.099	-15.39
728.327	-15.18
728.556	-14.75
728.784	-13.97
729.012	-14.91
729.241	-12.79
729.469	-13.2
729.697	-13.79
729.925	-13.27
730.153	-14.34
730.381	-14.51
730.61	-14.6
730.838	-16.65
731.066	-14.56
731.294	-15.01
731.522	-16.93
731.75	-19.82
731.978	-19.63
732.206	-20.77
732.434	-22.52
732.662	-21.09
732.89	-22.11
733.118	-23.93
733.346	-22.43
733.573	-22.08
733.801	-21.19
734.029	-15.89
734.257	-16.54
734.485	-15.08
734.712	-12.98
734.94	-15.05
735.168	-12.33
735.396	-13.29
735.623	-13.92
735.851	-13.06
736.078	-11.91
736.306	-11.23
736.534	-11.4
736.761	-10.29
736.989	-11.77
737.216	-13.05
737.444	-14.25
737.671	-13.41
737.899	-9.11
738.126	-11
738.354	-12.15
738.581	-11.9
738.809	-11.03
739.036	-12.61
739.263	-11.95
739.491	-12.41
739.718	-12.53
739.945	-9.48
740.173	-8.53
740.4	-9.93
740.627	-11.98
740.854	-11.11
741.081	-13.67
741.309	-15.39
741.536	-17.71
741.763	-18.28
741.99	-16.1
742.217	-15.78
742.444	-15.03
742.671	-13.46
742.898	-12.68
743.125	-13.57
743.352	-14.35
743.579	-16.3
743.806	-17.97
744.033	-16.65
744.26	-16.85
744.487	-17.41
744.714	-17.33
744.941	-18.64
745.167	-14.75
745.394	-15.19
745.621	-14.59
745.848	-15.37
746.075	-13.26
746.301	-10.71
746.528	-8.74
746.755	-10.31
746.981	-10.73
747.208	-8.25
747.435	-5.7
747.661	-3.73
747.888	-2.45
748.114	-3.68
748.341	-0.83
748.567	1.19
748.794	-0.99
749.02	-1.85
749.247	-4.54
749.473	-5.26
749.7	-6.64
749.926	-7.29
750.152	-4.18
750.379	-5.61
750.605	-3.76
750.831	-4.52
751.058	-5.54
751.284	-5.92
751.51	-3.97
751.737	-3.04
751.963	-3.42
752.189	-5.27
752.415	-4.46
752.641	-4.63
752.867	-3.75
753.094	-5.35
753.32	-6.59
753.546	-7.59
753.772	-6.7
753.998	-8.11
754.224	-9.23
754.45	-8.89
754.676	-9.5
754.902	-10.97
755.128	-11.02
755.354	-10.04
755.579	-9.8
755.805	-8.09
756.031	-8.76
756.257	-8.73
756.483	-7.62
756.709	-8.78
756.934	-9.73
757.16	-11.11
757.386	-9.85
757.612	-11.58
757.837	-12.54
758.063	-11.09
758.289	-9.09
758.514	-10.36
758.74	-12.27
758.965	-13.49
759.191	-12.17
759.416	-11.47
759.642	-11.4
759.868	-10.64
760.093	-9.24
760.318	-10.21
760.544	-10.88
760.769	-11.58
760.995	-11.78
761.22	-11.9
761.445	-11.22
761.671	-10.22
761.896	-9.08
762.121	-8.42
762.347	-9.45
762.572	-11.21
762.797	-10.56
763.022	-11.68
763.248	-9.51
763.473	-9.32
763.698	-9.13
763.923	-8.21
764.148	-9.01
764.373	-10.13
764.598	-8.19
764.823	-5.22
765.048	-7.58
765.273	-9.54
765.498	-9.45
765.723	-8.53
765.948	-7.73
766.173	-9.31
766.398	-9.42
766.623	-11.25
766.848	-12.15
767.073	-12.98
767.298	-12.95
767.522	-12.41
767.747	-10.5
767.972	-10.45
768.197	-9.85
768.421	-11.57
768.646	-13.56
768.871	-14.73
769.095	-14.88
769.32	-14.48
769.545	-14.56
769.769	-14.64
769.994	-12.5
770.218	-13.67
770.443	-13.31
770.667	-12.14
770.892	-11.75
771.116	-12.51
771.341	-11.94
771.565	-12.33
771.79	-13.41
772.014	-13.07
772.238	-12.45
772.463	-11.26
772.687	-10.73
772.911	-12.6
773.136	-14.13
773.36	-12.44
773.584	-10.22
773.808	-11.78
774.033	-10.92
774.257	-11.4
774.481	-12.26
774.705	-13.04
774.929	-12.42
775.153	-12.57
775.377	-11.06
775.602	-10.64
775.826	-10.1
776.05	-8.98
776.274	-9.91
776.498	-10.07
776.722	-10.98
776.945	-10.57
777.169	-11.78
777.393	-12.84
777.617	-13.41
777.841	-12.94
778.065	-10.81
778.289	-10.63
778.512	-11.3
778.736	-11.13
778.96	-10.64
779.184	-8.85
779.407	-10.39
779.631	-10.59
779.855	-10.1
780.078	-9.73
780.302	-12.17
780.526	-14.77
780.749	-14.76
780.973	-14.15
781.196	-12.83
781.42	-14.09
781.643	-14.98
781.867	-15.31
782.09	-16.93
782.314	-16.91
782.537	-17.03
782.76	-17.45
782.984	-16.47
783.207	-16.46
783.431	-15.88
783.654	-17.02
783.877	-18.75
784.1	-18.81
784.324	-19.12
784.547	-19.48
784.77	-22.14
784.993	-24.68
785.216	-24.94
785.44	-24.43
785.663	-25.34
785.886	-24.73
786.109	-26.73
786.332	-25.45
786.555	-24.37
786.778	-23.43
787.001	-23.23
787.224	-20.95
787.447	-18.45
787.67	-16.46
787.893	-17.19
788.116	-17.4
788.339	-15.25
788.561	-15.79
788.784	-17.89
789.007	-17.87
789.23	-19.3
789.453	-19.26
789.675	-21.16
789.898	-22.73
790.121	-24.34
790.344	-24.48
790.566	-23.88
790.789	-23.94
791.012	-22.6
791.234	-19.69
791.457	-17.79
791.679	-17.09
791.902	-14.99
792.124	-14.76
792.347	-15.46
792.569	-15.63
792.792	-17.45
793.014	-14.18
793.237	-13.96
793.459	-15.42
793.681	-14.74
793.904	-14.94
794.126	-16.59
794.348	-17.87
794.571	-17.13
794.793	-18.64
795.015	-17.92
795.237	-18.37
795.46	-18.04
795.682	-16.37
795.904	-15.48
796.126	-16.41
796.348	-15.38
796.57	-11.92
796.792	-10.1
797.014	-6.64
797.237	-4.96
797.459	-3.1
797.681	-1.3
797.903	-3.53
798.124	-4.24
798.346	5.36
798.568	7.06
798.79	8.9
799.012	9.41
799.234	9.51
799.456	11.14
799.678	13.13
799.899	10.45
800.121	8.23
800.343	8.85
800.565	8.85
800.786	10.53
801.008	12.15
801.23	12.52
801.451	13.45
801.673	13.19
801.895	12.25
802.116	13.38
802.338	15.91
802.559	15.25
802.781	13.49
803.002	14.1
803.224	14.91
803.445	12.62
803.667	11.77
803.888	9.7
804.109	10.49
804.331	9.43
804.552	7.72
804.773	10.12
804.995	6.84
805.216	-5.1
805.437	-7.39
805.658	-9.82
805.88	-11.69
806.101	-11.5
806.322	-12.5
806.543	-12.72
806.764	-13.92
806.985	-11.34
807.207	-11.35
807.428	-11.35
807.649	-14.99
807.87	-16.71
808.091	-16.8
808.312	-17.06
808.533	-14.24
808.754	-12.7
808.975	-14.38
809.195	-13.57
809.416	-12.35
809.637	-11.76
809.858	-12.74
810.079	-14.95
810.3	-12.97
810.52	-12.32
810.741	-12.98
810.962	-15.16
811.183	-14.98
811.403	-14.32
811.624	-14.9
811.845	-13.22
812.065	-12.08
812.286	-11.47
812.506	-10.51
812.727	-8.71
812.948	-8.57
813.168	-6.63
813.389	-7.77
813.609	-6.5
813.83	-7.78
814.05	-8.71
814.27	-7.51
814.491	-3.1
814.711	-2.81
814.931	-5.28
815.152	-6.08
815.372	-7.08
815.592	-6.91
815.813	-7.53
816.033	-9.18
816.253	-9.26
816.473	-10.25
816.694	-8.8
816.914	-7.81
817.134	-8.66
817.354	-9.22
817.574	-8.65
817.794	-8.76
818.014	-9.79
818.234	-9.32
818.454	-10.45
818.674	-12.27
818.894	-13.98
819.114	-10.43
819.334	-10.1
819.554	-9.95
819.774	-7.51
819.994	-9.47
820.214	-9.16
820.433	-8.02
820.653	-9.1
820.873	-7.86
821.093	-8.83
821.312	-11.68
821.532	-10.76
821.752	-8.04
821.972	-8.2
822.191	-7.64
822.411	-10.23
822.63	-8.53
822.85	-8.03
823.07	-9.7
823.289	-7.85
823.509	-8.82
823.728	-8.15
823.948	-8.15
824.167	-10.01
824.387	-9.67
824.606	-8.94
824.825	-9.94
825.045	-10.94
825.264	-11.31
825.483	-8.9
825.703	-7.51
825.922	-10.39
826.141	-11.89
826.361	-13
826.58	-16.46
826.799	-16.84
827.018	-16.22
827.237	-17.27
827.456	-14.07
827.676	-13.54
827.895	-12.03
828.114	-10.48
828.333	-10.48
828.552	-10.16
828.771	-9.18
828.99	-10.61
829.209	-10.35
829.428	-9.56
829.647	-11.5
829.866	-11.12
830.084	-12.21
830.303	-12.27
830.522	-12.94
830.741	-12.89
830.96	-13.02
831.179	-12.19
831.397	-13.72
831.616	-12.61
831.835	-12.1
832.053	-10.71
832.272	-11.38
832.491	-9.41
832.709	-10
832.928	-9.43
833.147	-8.79
833.365	-6.75
833.584	-5.18
833.802	-4.18
834.021	-3.43
834.239	-4.43
834.458	-5.97
834.676	-8.9
834.894	-9.79
835.113	-10.96
835.331	-12.42
835.55	-12.66
835.768	-12.18
835.986	-11.07
836.204	-12.42
836.423	-10.64
836.641	-11
836.859	-11.14
837.077	-10.13
837.296	-10.44
837.514	-12.15
837.732	-12.68
837.95	-13.48
838.168	-11.88
838.386	-11.52
838.604	-9.27
838.822	-9.45
839.04	-10.03
839.258	-11.21
839.476	-10.04
839.694	-9.92
839.912	-9.39
840.13	-10.56
840.348	-8.53
840.566	-11.16
840.783	-11.08
841.001	-13.07
841.219	-12.41
841.437	-11.62
841.655	-11.69
841.872	-10.81
842.09	-11.55
842.308	-11.74
842.525	-10.81
842.743	-10.04
842.961	-10.96
843.178	-12.86
843.396	-10.44
843.613	-10.94
843.831	-10.42
844.048	-9.36
844.266	-7.61
844.483	-6.46
844.701	-9.07
844.918	-8.22
845.136	-9.93
845.353	-10.68
845.57	-9.87
845.788	-7.52
846.005	-8.31
846.222	-9.14
846.439	-8.74
846.657	-10.11
846.874	-9.15
847.091	-11.43
847.308	-9.51
847.526	-9.27
847.743	-8.3
847.96	-9.27
848.177	-9.02
848.394	-8.76
848.611	-10.03
848.828	-10.18
849.045	-11.34
849.262	-12.34
849.479	-12.95
849.696	-13.63
849.913	-14
850.13	-16.53
850.347	-13.2
850.564	-14.32
850.78	-16.29
850.997	-18.35
851.214	-18.77
851.431	-17.78
851.647	-19.77
851.864	-19.31
852.081	-19.77
852.298	-22.62
852.514	-23.69
852.731	-22.65
852.948	-22.02
853.164	-21.29
853.381	-20.86
853.597	-22.05
853.814	-22.18
854.03	-24.08
854.247	-23.94
854.463	-24.11
854.68	-24.62
854.896	-24.33
855.113	-23.59
855.329	-23.47
855.545	-20.32
855.762	-20.38
855.978	-22.81
856.194	-24.17
856.411	-20.6
856.627	-19.42
856.843	-19.31
857.059	-19.01
857.275	-18.8
857.492	-17.59
857.708	-14.73
857.924	-13.65
858.14	-11.39
858.356	-11.48
858.572	-11.65
858.788	-12.83
859.004	-10.97
859.22	-12.07
859.436	-13.35
859.652	-14.77
859.868	-15.89
860.084	-15.99
860.3	-15.9
860.516	-15.68
860.731	-15.04
860.947	-17.13
861.163	-16.17
861.379	-14.79
861.595	-13.54
861.81	-13.99
862.026	-13.32
862.242	-14.83
862.457	-15.7
862.673	-14
862.889	-13.29
863.104	-15.13
863.32	-15.02
863.535	-14.39
863.751	-17.44
863.966	-15.81
864.182	-14.31
864.397	-16.28
864.613	-18.04
864.828	-19.11
865.044	-18.2
865.259	-16.33
865.474	-16.16
865.69	-14.85
865.905	-14.26
866.12	-14.92
866.336	-15.41
866.551	-13.89
866.766	-13.56
866.981	-13.79
867.196	-15.13
867.412	-14.6
867.627	-13.29
867.842	-12.79
868.057	-14.22
868.272	-15.84
868.487	-15.71
868.702	-17.7
868.917	-17.49
869.132	-15.54
869.347	-14.34
869.562	-15.24
869.777	-15.03
869.992	-15.74
870.207	-15.76
870.422	-15.37
870.636	-16.04
870.851	-18.47
871.066	-19.57
871.281	-19.03
871.495	-19.72
871.71	-18.21
871.925	-19.13
872.14	-18.27
872.354	-21.55
872.569	-22.9
872.783	-20.87
872.998	-20.04
873.213	-21.64
873.427	-20.33
873.642	-18.74
873.856	-17.71
874.071	-18.39
874.285	-19.21
874.5	-21.31
874.714	-21.57
874.928	-21.28
875.143	-21.96
875.357	-20.89
875.571	-21.78
875.786	-21.63
876	-20.58
876.214	-19.76
876.429	-20.85
876.643	-19.3
876.857	-19.29
877.071	-19.12
877.285	-21.09
877.499	-22.16
877.714	-20.68
877.928	-18.35
878.142	-19.35
878.356	-21.15
878.57	-21.79
878.784	-20.99
878.998	-20.54
879.212	-18.92
879.426	-21.09
879.639	-19.37
879.853	-20.47
880.067	-20.98
880.281	-22.43
880.495	-21.15
880.709	-19.58
880.922	-18.68
881.136	-16.76
881.35	-15.16
881.564	-15.51
881.777	-16.36
881.991	-14.26
882.205	-12.23
882.418	-12.29
882.632	-13.31
882.845	-14.33
883.059	-13.99
883.273	-15.28
883.486	-15.43
883.7	-12.75
883.913	-12.21
884.126	-10.48
884.34	-11.25
884.553	-12.35
884.767	-9.5
884.98	-8.73
885.193	-8.67
885.407	-10.21
885.62	-8.81
885.833	-8.4
886.046	-7.46
886.26	-9.6
886.473	-9.1
886.686	-9.93
886.899	-8.47
887.112	-9.95
887.326	-11.46
887.539	-11.84
887.752	-11.93
887.965	-14.1
888.178	-12.62
888.391	-11.86
888.604	-13.1
888.817	-14.61
889.03	-13.9
889.243	-15.3
889.455	-15.31
889.668	-15.45
889.881	-13.5
890.094	-14.82
890.307	-17.53
890.52	-16.3
890.732	-16.02
890.945	-17.63
891.158	-18.9
891.37	-20.4
891.583	-21.01
891.796	-19.86
892.008	-20
892.221	-20.42
892.434	-22.83
892.646	-23.86
892.859	-23.53
893.071	-23.59
893.284	-22.24
893.496	-23.63
893.709	-24.79
893.921	-23.46
894.133	-23.72
894.346	-24.23
894.558	-22.85
894.771	-23.72
894.983	-23.5
895.195	-23.96
895.407	-22.77
895.62	-25.52
895.832	-25.22
896.044	-22.92
896.256	-22.59
896.468	-22.62
896.681	-20.7
896.893	-20.42
897.105	-20.42
897.317	-21.99
897.529	-19.09
897.741	-18.39
897.953	-16.08
898.165	-16.7
898.377	-16.55
898.589	-16.03
898.801	-16.3
899.013	-14
899.224	-11.03
899.436	-9.9
899.648	-9.77
899.86	-10.48
900.072	-9.24
900.283	-7.33
900.495	-7.64
900.707	-7.24
900.919	-9.16
901.13	-8.32
901.342	-9.28
901.554	-9.24
901.765	-9.02
901.977	-11.55
902.188	-11.08
902.4	-11.38
902.611	-12.54
902.823	-13.65
903.034	-15.9
903.246	-16.6
903.457	-17.44
903.669	-18.39
903.88	-17.11
904.091	-17.95
904.303	-16.53
904.514	-18.31
904.725	-16.68
904.936	-17.66
905.148	-17.1
905.359	-15.72
905.57	-16.55
905.781	-19.35
905.992	-20.27
906.204	-20.2
906.415	-19.87
906.626	-20.33
906.837	-19.21
907.048	-19.35
907.259	-19.13
907.47	-19.91
907.681	-21.16
907.892	-18.51
908.103	-19.14
908.314	-21.21
908.525	-18.53
908.735	-18.46
908.946	-18.57
909.157	-19.85
909.368	-18.52
909.579	-17.43
909.789	-18.35
910	-18.73
910.211	-17.86
910.421	-19.82
910.632	-18.77
910.843	-21.95
911.053	-20.62
911.264	-20.63
911.475	-20.24
911.685	-21.05
911.896	-21.37
912.106	-20.64
912.317	-20.33
912.527	-18.21
912.737	-18.06
912.948	-18.02
913.158	-18.11
913.369	-20.17
913.579	-18.32
913.789	-19.12
914	-15.38
914.21	-16.08
914.42	-16.42
914.63	-16.47
914.841	-14.69
915.051	-14.06
915.261	-13.98
915.471	-12.62
915.681	-12.19
915.891	-12.46
916.101	-12.8
916.311	-13.13
916.521	-11.78
916.731	-10.91
916.941	-6.93
917.151	-8.21
917.361	-5.3
917.571	-7.11
917.781	-7.12
917.991	-9.67
918.201	-8.23
918.411	-9.39
918.621	-9.21
918.83	-8.81
919.04	-9.62
919.25	-8.27
919.46	-7.76
919.669	-8.57
919.879	-7.75
920.089	-9.23
920.298	-8.68
920.508	-9.28
920.717	-8.47
920.927	-10.79
921.136	-10.44
921.346	-11.65
921.555	-14.69
921.765	-13.79
921.974	-14.9
922.184	-16.68
922.393	-16.77
922.603	-18.99
922.812	-15.93
923.021	-16.12
923.23	-17.76
923.44	-19.57
923.649	-19.37
923.858	-20.29
924.067	-21.29
924.277	-22.92
924.486	-20.55
924.695	-21.73
924.904	-20.06
925.113	-20.78
925.322	-19.37
925.531	-20.06
925.74	-21.35
925.949	-22.58
926.158	-21.92
926.367	-21.82
926.576	-21.72
926.785	-23.25
926.994	-24.26
927.203	-22.57
927.412	-22.58
927.621	-24.42
927.83	-21.2
928.038	-20.03
928.247	-21.15
928.456	-19.9
928.665	-18.09
928.873	-17.16
929.082	-14.41
929.291	-14.52
929.499	-12.94
929.708	-13.95
929.916	-13.89
930.125	-14.47
930.333	-15.05
930.542	-12.97
930.75	-10.52
930.959	-10.42
931.167	-10.73
931.376	-10.92
931.584	-8.94
931.793	-8.98
932.001	-10.25
932.209	-11.71
932.418	-12.64
932.626	-14.16
932.834	-16.63
933.042	-18.21
933.251	-17.72
933.459	-16.9
933.667	-17.49
933.875	-17.31
934.083	-15.38
934.291	-16.11
934.499	-15.73
934.707	-16.29
934.915	-17
935.123	-16.27
935.331	-16.54
935.539	-17.82
935.747	-19.67
935.955	-20.8
936.163	-19.87
936.371	-20.32
936.579	-17.97
936.787	-17.34
936.995	-18.38
937.202	-21.01
937.41	-21.15
937.618	-21.03
937.826	-21.38
938.033	-25.92
938.241	-27.39
938.449	-24.86
938.656	-23.13
938.864	-23
939.071	-22.06
939.279	-19.97
939.486	-19.12
939.694	-19.39
939.901	-20.78
940.109	-20.15
940.316	-20.09
940.524	-20.99
940.731	-20.58
940.939	-20.07
941.146	-19.15
941.353	-20.62
941.561	-20.63
941.768	-21.32
941.975	-20.97
942.182	-21.8
942.39	-21.72
942.597	-18.91
942.804	-19.42
943.011	-21.37
943.218	-22.07
943.425	-22.16
943.632	-21.5
943.839	-21.8
944.046	-22.69
944.253	-24.26
944.46	-22.7
944.667	-20.18
944.874	-21.3
945.081	-20.11
945.288	-18.79
945.495	-17.68
945.702	-18.14
945.909	-18.95
946.115	-18.18
946.322	-18.88
946.529	-20.32
946.736	-19.73
946.942	-17.99
947.149	-20.51
947.356	-21.12
947.562	-21.99
947.769	-20.84
947.976	-21.41
948.182	-20.35
948.389	-20.94
948.595	-19.34
948.802	-19.65
949.008	-21.8
949.215	-21.03
949.421	-21.75
949.628	-22.44
949.834	-22.06
950.04	-21.44
950.247	-18.47
950.453	-17
950.659	-16.19
950.865	-16.38
951.072	-18.91
951.278	-16.79
951.484	-17.35
951.69	-20.32
951.896	-21.04
952.103	-20.78
952.309	-20.29
952.515	-20.78
952.721	-19.93
952.927	-18.64
953.133	-21.06
953.339	-23.07
953.545	-22.27
953.751	-21.63
953.957	-18.92
954.163	-20.09
954.369	-19.86
954.574	-22.09
954.78	-21.2
954.986	-21.47
955.192	-19.51
955.398	-20.77
955.603	-22.62
955.809	-19.98
956.015	-19.01
956.22	-18.18
956.426	-18.04
956.632	-20.77
956.837	-21.98
957.043	-22.85
957.248	-21.11
957.454	-20.62
957.66	-23.42
957.865	-24.25
958.07	-22.51
958.276	-23.81
958.481	-24.06
958.687	-24.95
958.892	-24.11
959.097	-23.72
959.303	-24.83
959.508	-24.74
959.713	-22.64
959.919	-22.64
960.124	-24.06
960.329	-24.77
960.534	-23.21
960.739	-22.01
960.945	-19.57
961.15	-20.75
961.355	-21.03
961.56	-24.34
961.765	-24.4
961.97	-23.2
962.175	-23.02
962.38	-25.89
962.585	-24.59
962.79	-25.54
962.995	-25.81
963.2	-26.05
963.404	-25.12
963.609	-27.66
963.814	-27.83
964.019	-28.45
964.224	-29.79
964.428	-28.95
964.633	-27.12
964.838	-26.79
965.042	-25.32
965.247	-26.43
965.452	-26.73
965.656	-25.8
965.861	-24.8
966.066	-26.87
966.27	-24.68
966.475	-21.78
966.679	-24.03
966.884	-23.11
967.088	-26.43
967.292	-27.13
967.497	-25.16
967.701	-26.38
967.906	-24.75
968.11	-23.48
968.314	-21.2
968.518	-22.23
968.723	-18.92
968.927	-19.7
969.131	-19.49
969.335	-17.94
969.539	-17.8
969.744	-17.35
969.948	-14.09
970.152	-13.21
970.356	-11.59
970.56	-11.03
970.764	-10.63
970.968	-9.18
971.172	-8.78
971.376	-8.71
971.58	-6.67
971.784	-5.73
971.988	-7.12
972.192	-4.08
972.395	-3.17
972.599	-5.73
972.803	-6.86
973.007	-5.49
973.21	-5.72
973.414	-5.21
973.618	-5.64
973.822	-7.15
974.025	-5.26
974.229	-5.77
974.432	-7.61
974.636	-8.49
974.84	-8.82
975.043	-9.43
975.247	-9.6
975.45	-10.22
975.654	-9.82
975.857	-7.45
976.06	-7.68
976.264	-9.68
976.467	-8.42
976.671	-8.41
976.874	-8.58
977.077	-10.13
977.28	-11.71
977.484	-14.32
977.687	-15.81
977.89	-16.84
978.093	-16.99
978.297	-15.08
978.5	-17.72
978.703	-16.27
978.906	-16.29
979.109	-16.19
979.312	-15.98
979.515	-16.27
979.718	-15.1
979.921	-15.39
980.124	-16.1
980.327	-16.93
980.53	-17.24
980.733	-14.69
980.936	-13.63
981.138	-15.02
981.341	-15.07
981.544	-15.74
981.747	-15.93
981.949	-16.67
982.152	-16.98
982.355	-17.59
982.558	-15.78
982.76	-19.25
982.963	-21.14
983.165	-20.01
983.368	-19.39
983.571	-19.2
983.773	-15.97
983.976	-15.15
984.178	-13.97
984.381	-15.33
984.583	-17.67
984.785	-17.93
984.988	-17.67
985.19	-15.01
985.392	-16.66
985.595	-18.22
985.797	-18.26
985.999	-15.84
986.202	-14.17
986.404	-14.9
986.606	-12.4
986.808	-13.64
987.01	-14.07
987.212	-15.63
987.415	-14.74
987.617	-14.24
987.819	-14.53
988.021	-14.17
988.223	-16.17
988.425	-17.19
988.627	-16.39
988.829	-19.7
989.031	-18.44
989.232	-18.13
989.434	-18.12
989.636	-19.46
989.838	-20.06
990.04	-20.13
990.242	-19.59
990.443	-21.36
990.645	-19.13
990.847	-17.24
991.048	-15.6
991.25	-17.06
991.452	-17.83
991.653	-18.86
991.855	-18.66
992.057	-18.8
992.258	-18.96
992.46	-19.87
992.661	-17.69
992.863	-18.21
993.064	-16.62
993.265	-16.71
993.467	-17.66
993.668	-16.3
993.87	-16.62
994.071	-16.48
994.272	-15.12
994.473	-13.33
994.675	-13.36
994.876	-13.28
995.077	-11.88
995.278	-11.3
995.48	-11.06
995.681	-11.33
995.882	-7.86
996.083	-7.75
996.284	-10.48
996.485	-11.59
996.686	-11.02
996.887	-12.62
997.088	-15.82
997.289	-18.27
997.49	-18.2
997.691	-20.11
997.892	-19.48
998.092	-15.89
998.293	-14.85
998.494	-15.8
998.695	-15.98
998.896	-14.96
999.096	-16.34
999.297	-15.86
999.498	-17.24
999.698	-18.74
999.899	-21.44
1000.1	-22.07
1000.3	-21.68
1000.501	-23.01
1000.701	-23.08
1000.902	-23.61
1001.102	-23.64
1001.303	-24.05
1001.503	-23.7
1001.704	-23.12
1001.904	-23.51
1002.105	-25.86
1002.305	-25.52
1002.505	-25.89
1002.706	-25.25
1002.906	-26
1003.106	-25.58
1003.306	-23.31
1003.507	-21.5
1003.707	-21.33
1003.907	-17.94
1004.107	-16.34
1004.307	-18.62
1004.507	-18.89
1004.707	-19.42
1004.907	-20.56
1005.107	-20.13
1005.308	-19.67
1005.507	-21.1
1005.707	-20.35
1005.907	-20.21
1006.107	-18.9
1006.307	-17.63
1006.507	-19.41
1006.707	-18.31
1006.907	-17.78
1007.106	-17.97
1007.306	-19.42
1007.506	-18.13
1007.706	-18.64
1007.905	-19.86
1008.105	-19.95
1008.305	-20.63
1008.504	-19.81
1008.704	-14.9
1008.903	-14.6
1009.103	-13.72
1009.303	-16.19
1009.502	-16.16
1009.702	-17.66
1009.901	-17.74
1010.1	-20.75
1010.3	-19.92
1010.499	-20.71
1010.699	-21.87
1010.898	-22.49
1011.097	-21.39
1011.296	-21.81
1011.496	-22.71
1011.695	-22.05
1011.894	-22.1
1012.093	-19.3
1012.293	-18.57
1012.492	-19.84
1012.691	-18.65
1012.89	-19.32
1013.089	-21.31
1013.288	-20.18
1013.487	-18.9
1013.686	-17.88
1013.885	-18.4
1014.084	-17.54
1014.283	-17.74
1014.482	-18.08
1014.681	-18.63
1014.88	-22.04
1015.078	-21.83
1015.277	-22.99
1015.476	-21.87
1015.675	-21.81
1015.873	-19.69
1016.072	-20.89
1016.271	-18.81
1016.47	-21.14
1016.668	-20.11
1016.867	-21.1
1017.065	-22.71
1017.264	-24.26
1017.463	-25.28
1017.661	-25.57
1017.86	-26.43
1018.058	-24.95
1018.256	-25.91
1018.455	-27.34
1018.653	-25.48
1018.852	-25.54
1019.05	-27
1019.248	-27.18
1019.447	-28.52
1019.645	-28.85
1019.843	-30.61
1020.041	-30.33
1020.24	-30.7
1020.438	-28.02
1020.636	-26.54
1020.834	-28
1021.032	-26.29
1021.23	-26.32
1021.428	-24.93
1021.626	-21.81
1021.824	-21.91
1022.022	-23.99
1022.22	-22.6
1022.418	-22.71
1022.616	-23.68
1022.814	-22.94
1023.012	-23.2
1023.21	-20.73
1023.408	-19.74
1023.606	-20.07
1023.803	-15.86
1024.001	-14.7
1024.199	-17.85
1024.397	-15.85
1024.594	-15.05
1024.792	-17.4
1024.99	-17.03
1025.187	-16.11
1025.385	-13.23
1025.582	-12.49
1025.78	-12.8
1025.977	-12.41
1026.175	-12.59
1026.372	-11.63
1026.57	-12.63
1026.767	-11.6
1026.965	-10.96
1027.162	-11.34
1027.359	-12.31
1027.557	-12.29
1027.754	-15.86
1027.951	-15.68
1028.148	-14.03
1028.346	-15.77
1028.543	-17.45
1028.74	-17.17
1028.937	-20.86
1029.134	-20.21
1029.331	-22.01
1029.528	-22.49
1029.725	-23.2
1029.923	-26.48
1030.12	-24.56
1030.317	-22.67
1030.513	-22.31
1030.71	-21.5
1030.907	-19.29
1031.104	-20.95
1031.301	-21.63
1031.498	-22.88
1031.695	-23.52
1031.892	-23.04
1032.088	-22.22
1032.285	-22.07
1032.482	-23.73
1032.678	-26.5
1032.875	-28.91
1033.072	-29.11
1033.268	-28.95
1033.465	-29.31
1033.662	-30.74
1033.858	-28.86
1034.055	-28.97
1034.251	-26.49
1034.448	-26.88
1034.644	-25.36
1034.84	-22.26
1035.037	-19.65
1035.233	-19.91
1035.43	-17.84
1035.626	-17.89
1035.822	-17.54
1036.019	-17.01
1036.215	-19.48
1036.411	-20.7
1036.607	-22.73
1036.803	-24.12
1037	-24.89
1037.196	-24.03
1037.392	-24.43
1037.588	-25.85
1037.784	-25.36
1037.98	-26.66
1038.176	-27.46
1038.372	-28.41
1038.568	-26.88
1038.764	-25
1038.96	-21.63
1039.156	-21.91
1039.352	-22.42
1039.547	-19.56
1039.743	-19.59
1039.939	-19.16
1040.135	-19.37
1040.331	-21.76
1040.526	-19.42
1040.722	-20.38
1040.918	-23.42
1041.113	-25.83
1041.309	-25.28
1041.505	-27.44
1041.7	-25.87
1041.896	-25.27
1042.091	-26.05
1042.287	-25.44
1042.482	-24.31
1042.678	-24.52
1042.873	-24.02
1043.069	-24.44
1043.264	-24.06
1043.459	-22.66
1043.655	-21.38
1043.85	-21.12
1044.045	-19.13
1044.24	-19
1044.436	-17.62
1044.631	-17.82
1044.826	-18.15
1045.021	-21.92
1045.216	-20.77
