Data from FLMT021711__10__16-30-30-766.txt Node

Date: Tue Nov 05 16:30:30 CET 2024
User: Etudiants TP
Spectrometer: FLMT02171
Trigger mode: 0
Integration Time (sec): 1.000000E-1
Scans to average: 5
Electric dark correction enabled: true
Nonlinearity correction enabled: false
Boxcar width: 15
XAxis mode: Wavelengths
Number of Pixels in Spectrum: 3648
>>>>>Begin Spectral Data<<<<<
194.658	-44.18
194.923	-43.01
195.188	-37.35
195.453	-37.87
195.717	-34.65
195.982	-33.49
196.247	-32.34
196.512	-35.05
196.777	-34.3
197.042	-32.29
197.307	-32.35
197.572	-28.41
197.837	-28.09
198.101	-26.57
198.366	-25.29
198.631	-24
198.896	-19.78
199.161	-14.16
199.425	-9.16
199.69	-2.89
199.955	-3.82
200.22	-6.36
200.484	-7.39
200.749	-7.97
201.014	-6.86
201.278	-6.98
201.543	-5.03
201.807	-5.1
202.072	-3.22
202.337	-3.34
202.601	-3.09
202.866	-4.18
203.13	-3.41
203.395	-5.4
203.659	-5.88
203.924	-7.34
204.189	-7.03
204.453	-6.77
204.717	-3.58
204.982	-1.43
205.246	-1.19
205.511	0.29
205.775	-1.4
206.04	3.05
206.304	4.22
206.568	6.42
206.833	6.64
207.097	7.81
207.361	9.01
207.626	12.61
207.89	13.3
208.154	14.98
208.419	17.22
208.683	18.05
208.947	19.72
209.211	18.16
209.476	18.65
209.74	17.96
210.004	17.14
210.268	17.31
210.532	18.25
210.796	18.8
211.061	19.09
211.325	21.12
211.589	20.18
211.853	22.33
212.117	22.9
212.381	24.21
212.645	24.96
212.909	24.4
213.173	20.86
213.437	21.41
213.701	21.58
213.965	21.88
214.229	17.53
214.493	16.39
214.757	15.56
215.021	15.23
215.285	18.08
215.549	19.52
215.813	16.57
216.077	16.54
216.34	18.66
216.604	17.74
216.868	17.48
217.132	18.16
217.396	18.88
217.659	18
217.923	15.07
218.187	16.37
218.451	15.78
218.714	14.66
218.978	13.97
219.242	14.93
219.505	13.82
219.769	15.73
220.033	15.04
220.296	15.56
220.56	15.62
220.824	14.42
221.087	14.8
221.351	15.83
221.614	14.91
221.878	16.37
222.142	15.64
222.405	15.5
222.669	19.14
222.932	16.36
223.196	16.11
223.459	13.38
223.722	14.14
223.986	14.26
224.249	12.82
224.513	11.34
224.776	12.11
225.04	13.26
225.303	12.72
225.566	12.97
225.83	15.19
226.093	17.36
226.356	14.49
226.62	14.84
226.883	16.07
227.146	17.07
227.409	17.08
227.673	15.63
227.936	13.7
228.199	14.67
228.462	13.12
228.725	11.72
228.989	11.53
229.252	12.71
229.515	16.14
229.778	14.89
230.041	13.29
230.304	12.49
230.567	13.58
230.83	10.54
231.093	11.86
231.356	9.33
231.619	13.85
231.882	12.11
232.145	13.49
232.408	13.01
232.671	14.15
232.934	13.2
233.197	11.19
233.46	10.16
233.723	11.48
233.986	10.27
234.249	8.97
234.512	10.65
234.775	13.02
235.037	13.18
235.3	12.31
235.563	12.58
235.826	14.32
236.089	16.67
236.351	15.36
236.614	17.49
236.877	17.83
237.14	18.99
237.402	18.81
237.665	14.42
237.928	15.71
238.19	14.33
238.453	15.92
238.716	16.1
238.978	15.5
239.241	15.5
239.503	18.83
239.766	14.34
240.029	12.31
240.291	13.91
240.554	13.85
240.816	11.37
241.079	11.96
241.341	11.9
241.604	10.54
241.866	8.18
242.129	8.9
242.391	10.71
242.653	10.44
242.916	9.68
243.178	7.78
243.441	9.55
243.703	7.75
243.965	4.65
244.228	4.01
244.49	4.28
244.752	5.77
245.015	6.45
245.277	7.79
245.539	7.2
245.801	8.7
246.064	8.28
246.326	7.77
246.588	8.19
246.85	8.69
247.112	9.38
247.374	10.61
247.637	11.62
247.899	12.53
248.161	12.94
248.423	9.83
248.685	11.06
248.947	12.56
249.209	11.85
249.471	12.13
249.733	14.52
249.995	12.8
250.257	12.02
250.519	10.95
250.781	12.96
251.043	10.64
251.305	12.62
251.567	13.73
251.829	13.98
252.091	15.46
252.353	12.92
252.615	14.01
252.876	11.96
253.138	11.16
253.4	8.28
253.662	8.87
253.924	9.58
254.185	9.49
254.447	9.53
254.709	9.96
254.971	10.31
255.232	11.53
255.494	9.92
255.756	9.24
256.017	9.43
256.279	10.78
256.541	10.42
256.802	9.51
257.064	8.95
257.326	8.04
257.587	9.48
257.849	9.12
258.11	11.23
258.372	11.79
258.633	11.89
258.895	11.74
259.156	12.24
259.418	10.5
259.679	6.43
259.941	4.91
260.202	5.63
260.464	8.9
260.725	7.12
260.987	6.98
261.248	6.66
261.509	7.08
261.771	5.45
262.032	7.25
262.293	7.66
262.555	8.71
262.816	6.46
263.077	5.23
263.338	3.68
263.6	4
263.861	2.66
264.122	2.23
264.383	3.23
264.645	3.87
264.906	3.9
265.167	4.07
265.428	4.39
265.689	5.05
265.95	3.51
266.211	5.71
266.473	5.17
266.734	1.63
266.995	-1.76
267.256	-1.96
267.517	0.52
267.778	3.42
268.039	5.63
268.3	5.17
268.561	3.33
268.822	6.52
269.083	5.05
269.344	3.96
269.604	4.08
269.865	4.88
270.126	2.66
270.387	3.1
270.648	3.31
270.909	2.59
271.17	0.71
271.43	-2.66
271.691	-4.17
271.952	-4.01
272.213	-2.32
272.473	-5.43
272.734	-3.98
272.995	-3.34
273.256	-2.05
273.516	-0.31
273.777	-3.15
274.038	-2.2
274.298	-4.86
274.559	-5.64
274.82	0.01
275.08	2.28
275.341	3.58
275.601	2.44
275.862	0.79
276.122	1.35
276.383	1.44
276.643	1.52
276.904	0.43
277.164	3.85
277.425	4.16
277.685	5.83
277.946	6.03
278.206	6.55
278.467	7.26
278.727	8.18
278.987	8.41
279.248	9.1
279.508	11.38
279.768	12.71
280.029	13.83
280.289	10.17
280.549	10.65
280.81	10.54
281.07	11.45
281.33	11.08
281.59	10.1
281.851	13.1
282.111	12.88
282.371	12.53
282.631	13.56
282.891	12.99
283.151	12.67
283.412	11.28
283.672	10.82
283.932	10.43
284.192	11.07
284.452	10.1
284.712	8.39
284.972	7.28
285.232	4.57
285.492	6.46
285.752	5.73
286.012	10.95
286.272	12.59
286.532	11.79
286.792	11.24
287.052	13.2
287.312	15.36
287.571	14.74
287.831	15.7
288.091	14.23
288.351	15.29
288.611	18.42
288.871	18.59
289.13	17.05
289.39	14.82
289.65	15.67
289.91	13.04
290.17	15.15
290.429	17.7
290.689	16.42
290.949	12.6
291.208	13.05
291.468	14.55
291.728	15.1
291.987	18.11
292.247	16.9
292.506	18.72
292.766	21.21
293.026	19.63
293.285	20.41
293.545	21.7
293.804	22.73
294.064	18.42
294.323	16.12
294.583	16.52
294.842	17.01
295.102	16.89
295.361	15.12
295.621	15.28
295.88	15.54
296.139	14.22
296.399	14.52
296.658	9.95
296.917	9.43
297.177	7.02
297.436	8.3
297.695	6.26
297.955	7.66
298.214	6.66
298.473	5.91
298.732	7.21
298.992	11.63
299.251	11.29
299.51	8.67
299.769	9.01
300.028	7.69
300.287	7.28
300.547	6.23
300.806	4.56
301.065	7.31
301.324	8.03
301.583	4
301.842	1
302.101	0.61
302.36	0.48
302.619	-0.8
302.878	-0.39
303.137	-3.45
303.396	-2.07
303.655	-0.08
303.914	-1.97
304.173	-1.16
304.432	-0.8
304.691	2.35
304.95	-0
305.208	3.64
305.467	3.39
305.726	2.7
305.985	3.05
306.244	3.45
306.503	3.96
306.761	3.38
307.02	0.04
307.279	0.9
307.537	2.62
307.796	1
308.055	-0.03
308.314	0.9
308.572	-0.13
308.831	1.7
309.09	1.58
309.348	2.26
309.607	3.32
309.865	6.02
310.124	4.48
310.382	6.23
310.641	7.57
310.9	5.3
311.158	7.14
311.417	6.78
311.675	7.05
311.933	6.11
312.192	6.81
312.45	6.17
312.709	6.67
312.967	7.72
313.226	7.33
313.484	6.94
313.742	7.77
314.001	6.95
314.259	5.69
314.517	6.58
314.776	7.9
315.034	9
315.292	6.69
315.55	5.42
315.809	3.74
316.067	3.44
316.325	2.42
316.583	4.27
316.841	1.86
317.1	0.49
317.358	-2.01
317.616	-2.58
317.874	-4.02
318.132	-4.37
318.39	-4.41
318.648	-5.37
318.906	-4.29
319.164	-4.07
319.422	-5.4
319.68	-7.34
319.938	-5.25
320.196	-4.91
320.454	-3.84
320.712	-4.69
320.97	-5.85
321.228	-6.85
321.486	-4.85
321.744	-5.58
322.002	-4.82
322.26	-5.25
322.517	-6.43
322.775	-9.47
323.033	-11.3
323.291	-9.33
323.549	-7.61
323.806	-4.71
324.064	-3.9
324.322	-3.31
324.58	-4.48
324.837	-2.12
325.095	-3.15
325.353	-0.93
325.61	1.17
325.868	1.01
326.126	2.49
326.383	0.69
326.641	0.11
326.898	0.55
327.156	-0.4
327.413	0.8
327.671	1.24
327.928	2.11
328.186	2.76
328.443	1.31
328.701	3.54
328.958	4.8
329.216	3.84
329.473	1.27
329.731	2.32
329.988	2.56
330.245	4.65
330.503	6.11
330.76	7.18
331.017	11.39
331.275	9.91
331.532	9.06
331.789	8.02
332.047	7.26
332.304	5.17
332.561	5.47
332.818	3.45
333.076	6.26
333.333	6.81
333.59	5.23
333.847	6.42
334.104	6.82
334.361	7.84
334.618	7.49
334.876	6.25
335.133	6.14
335.39	4.13
335.647	5.29
335.904	3.22
336.161	0.29
336.418	1.95
336.675	-0.58
336.932	0.57
337.189	0.78
337.446	2.25
337.703	1.48
337.96	-0.76
338.216	-1.41
338.473	-4.1
338.73	-3.1
338.987	-4.25
339.244	-2.64
339.501	-4.7
339.757	-5.28
340.014	-5.76
340.271	-3.36
340.528	-3.88
340.785	0.01
341.041	-1.7
341.298	-4.82
341.555	-4
341.811	-4.48
342.068	-5.68
342.325	-6.51
342.581	-5.66
342.838	-4.09
343.094	-3.25
343.351	-1.37
343.608	-3.77
343.864	-2.74
344.121	-1.79
344.377	-3.87
344.634	-5.21
344.89	-7.09
345.147	-7.11
345.403	-9.08
345.66	-9.29
345.916	-7.44
346.172	-8.17
346.429	-7.23
346.685	-9.67
346.942	-10.3
347.198	-12.33
347.454	-10.06
347.711	-9.29
347.967	-10.51
348.223	-10.74
348.48	-10.14
348.736	-7.32
348.992	-6.5
349.248	-4.95
349.504	-4.01
349.761	-4.51
350.017	-5.86
350.273	-6.96
350.529	-7.12
350.785	-6.8
351.041	-7.51
351.297	-7.43
351.554	-6.57
351.81	-7.39
352.066	-7.91
352.322	-6.34
352.578	-4.81
352.834	-4.34
353.09	-4.28
353.346	-3.31
353.602	-3.21
353.858	-4.93
354.114	-5.89
354.369	-5.99
354.625	-3.51
354.881	-4.62
355.137	-2.56
355.393	-3.34
355.649	-2.9
355.905	-1.7
356.16	-2.29
356.416	-1.88
356.672	-7.55
356.928	-8.44
357.183	-7.77
357.439	-9.16
357.695	-9.24
357.951	-5.26
358.206	-4.88
358.462	-3.86
358.718	-6.03
358.973	-4.71
359.229	-3.88
359.484	-4.28
359.74	-3.16
359.996	-1.85
360.251	-0.61
360.507	-0.51
360.762	-0.77
361.018	0.72
361.273	-0.11
361.529	1.03
361.784	2.01
362.04	3.97
362.295	4.25
362.55	4.56
362.806	6.43
363.061	7.07
363.316	7.93
363.572	8.26
363.827	9.24
364.082	8.32
364.338	8.11
364.593	7.8
364.848	8.99
365.104	7.4
365.359	10
365.614	9.4
365.869	8.33
366.124	10.3
366.38	8.75
366.635	10.12
366.89	9.96
367.145	8.57
367.4	10.76
367.655	11.59
367.91	10.22
368.165	9.05
368.42	5.76
368.675	6.02
368.93	6.52
369.185	5.25
369.44	5.33
369.695	6.65
369.95	4.68
370.205	3.59
370.46	2.89
370.715	2.33
370.97	1.55
371.225	1.57
371.48	2.28
371.734	3.01
371.989	3.75
372.244	3.67
372.499	5.21
372.754	4.19
373.008	3.29
373.263	-0.13
373.518	1.52
373.773	0.83
374.027	-0.54
374.282	0.82
374.537	0.15
374.791	1.38
375.046	0.18
375.301	-0.75
375.555	-1.92
375.81	1.04
376.064	2.72
376.319	7.52
376.573	6.72
376.828	4.18
377.082	8.09
377.337	6.58
377.591	5.11
377.846	6.78
378.1	9.05
378.355	9.07
378.609	8.86
378.863	8.11
379.118	8.15
379.372	6.81
379.627	5.78
379.881	4.6
380.135	4.76
380.389	4.77
380.644	4.82
380.898	4.44
381.152	5.5
381.407	5.46
381.661	6.13
381.915	6.3
382.169	7.14
382.423	6.35
382.677	3.81
382.932	6
383.186	6.64
383.44	6.45
383.694	7
383.948	4.06
384.202	1.65
384.456	3.71
384.71	5.02
384.964	3.14
385.218	4.87
385.472	3.97
385.726	2.62
385.98	1.81
386.234	1.33
386.488	-1.55
386.742	-2.39
386.996	-3.44
387.249	-2.83
387.503	-0.86
387.757	-0.35
388.011	-0.22
388.265	-0.08
388.518	1.41
388.772	3.03
389.026	3.21
389.28	2.16
389.533	1.91
389.787	3.92
390.041	1.01
390.295	1.65
390.548	2.29
390.802	4.48
391.055	3.35
391.309	3.33
391.563	1.42
391.816	2.42
392.07	2.03
392.323	2.53
392.577	3.47
392.83	5.02
393.084	8.23
393.337	10.81
393.591	11.17
393.844	12.99
394.098	15.92
394.351	19.86
394.604	21.72
394.858	23.7
395.111	23.78
395.364	19.55
395.618	21.22
395.871	20.38
396.124	19.26
396.378	18.65
396.631	19.69
396.884	17.95
397.137	18.2
397.391	18.22
397.644	16.27
397.897	17.27
398.15	17.87
398.403	19.38
398.657	18.13
398.91	17.71
399.163	18.25
399.416	19.04
399.669	17.9
399.922	17.23
400.175	16.57
400.428	17.73
400.681	18.29
400.934	16.62
401.187	18.69
401.44	21.01
401.693	19.46
401.946	17.62
402.199	14.18
402.452	13.06
402.704	10.17
402.957	9.62
403.21	13.05
403.463	12.57
403.716	14.25
403.969	15.66
404.221	14.44
404.474	15.06
404.727	18.27
404.98	19.04
405.232	19.22
405.485	20.15
405.738	21.8
405.99	23.71
406.243	23.22
406.496	23.63
406.748	23.62
407.001	22.48
407.253	22.53
407.506	23.84
407.759	23.87
408.011	22.13
408.264	21.02
408.516	21.02
408.769	16.88
409.021	15.42
409.274	13.62
409.526	13.2
409.778	12.25
410.031	15.36
410.283	15.41
410.536	19.67
410.788	19.4
411.04	18.36
411.293	19.38
411.545	18.69
411.797	17.45
412.049	17.09
412.302	15.8
412.554	15.24
412.806	13.82
413.058	13.19
413.311	13.8
413.563	13.09
413.815	11.13
414.067	10.08
414.319	9.33
414.571	10.25
414.823	8.83
415.075	8.21
415.328	9.06
415.58	12.88
415.832	13.96
416.084	13.09
416.336	11.4
416.588	15.72
416.84	13.86
417.091	15.25
417.343	13.27
417.595	14.56
417.847	12.89
418.099	14.9
418.351	13.23
418.603	14.18
418.855	14.3
419.106	15.32
419.358	14.47
419.61	15.16
419.862	16.84
420.114	17.05
420.365	17.27
420.617	17.99
420.869	16.61
421.12	15.19
421.372	14.83
421.624	15.87
421.875	16.83
422.127	14.49
422.379	14.76
422.63	17.18
422.882	16.2
423.133	15.64
423.385	15.37
423.636	15.51
423.888	17.47
424.139	18.13
424.391	16.02
424.642	15.83
424.894	15.07
425.145	16.25
425.396	15.11
425.648	17.95
425.899	15.52
426.151	15.23
426.402	15.13
426.653	16.89
426.905	14.66
427.156	13.85
427.407	14.05
427.658	11.91
427.91	10.96
428.161	9.61
428.412	10.43
428.663	10.58
428.914	12.25
429.166	13.69
429.417	12.71
429.668	11.91
429.919	10.9
430.17	9.09
430.421	8.62
430.672	11.08
430.923	10.45
431.174	10.22
431.425	13.03
431.676	16.48
431.927	21.74
432.178	29.37
432.429	35.78
432.68	42.53
432.931	47.2
433.182	52.86
433.433	52.09
433.683	55.97
433.934	55.75
434.185	55.76
434.436	54.1
434.687	55.49
434.937	57.13
435.188	55.63
435.439	57.17
435.69	58.34
435.94	57.11
436.191	58.19
436.442	58.23
436.692	56.99
436.943	54.34
437.194	54.69
437.444	56.58
437.695	60.34
437.945	62.82
438.196	62.77
438.447	61.85
438.697	62.66
438.948	60.75
439.198	56.16
439.449	48.89
439.699	43.81
439.949	37.33
440.2	30.21
440.45	24.73
440.701	20.5
440.951	16.71
441.201	16.27
441.452	12.06
441.702	12.29
441.952	12.68
442.203	12.58
442.453	11.44
442.703	12.37
442.953	13.13
443.204	14.63
443.454	12.24
443.704	14.89
443.954	12.29
444.204	12.44
444.455	12.88
444.705	14.5
444.955	13.08
445.205	12.36
445.455	9.35
445.705	8.19
445.955	7.54
446.205	7.05
446.455	7.94
446.705	8.56
446.955	9.22
447.205	11.34
447.455	11.4
447.705	9.06
447.955	8.9
448.205	8.01
448.454	7.71
448.704	6.95
448.954	5.01
449.204	6.26
449.454	6.23
449.704	4.8
449.953	5.63
450.203	6.04
450.453	4.15
450.703	5.33
450.952	3.75
451.202	5.98
451.452	4.92
451.701	7
451.951	9.44
452.201	9.33
452.45	8.65
452.7	10.38
452.949	8.98
453.199	9.22
453.448	10.55
453.698	11.91
453.947	10.31
454.197	8.61
454.446	7.46
454.696	10.89
454.945	10.26
455.195	9.62
455.444	11.03
455.693	13.08
455.943	12.48
456.192	12.89
456.442	13.13
456.691	13.63
456.94	12.7
457.189	11.31
457.439	11.98
457.688	12.18
457.937	11.28
458.186	11.76
458.436	12.06
458.685	12.14
458.934	10.36
459.183	10.25
459.432	11.56
459.681	11.89
459.93	11.22
460.179	11.79
460.429	9.47
460.678	12.01
460.927	14.69
461.176	13.87
461.425	12.57
461.674	15.34
461.923	15.5
462.172	15.64
462.42	11.83
462.669	13.28
462.918	13
463.167	12.66
463.416	10.79
463.665	11.15
463.914	12.1
464.162	10.96
464.411	12.11
464.66	13.95
464.909	13.53
465.158	14.73
465.406	14.47
465.655	16.41
465.904	18.5
466.152	17.95
466.401	19.34
466.65	22.51
466.898	21.67
467.147	19.21
467.395	19.88
467.644	20.87
467.893	19.83
468.141	20.87
468.39	19.33
468.638	18.62
468.887	18.11
469.135	18.57
469.384	19.23
469.632	20.05
469.88	20.29
470.129	23.82
470.377	22.38
470.626	23.53
470.874	24.88
471.122	25.25
471.371	23.71
471.619	22.03
471.867	24.28
472.115	23.39
472.364	21.31
472.612	21.8
472.86	20.45
473.108	21.36
473.356	21.56
473.605	20.31
473.853	18.54
474.101	17.87
474.349	16.37
474.597	19.68
474.845	17.82
475.093	15.63
475.341	14.47
475.589	14.26
475.837	14.22
476.085	14.94
476.333	12.17
476.581	12.68
476.829	11.71
477.077	12.57
477.325	11.77
477.573	11.71
477.821	10.59
478.069	11.29
478.317	11.84
478.564	13.2
478.812	13.08
479.06	13.98
479.308	14.75
479.555	14.56
479.803	14.15
480.051	16.83
480.299	19.23
480.546	20.16
480.794	18.82
481.042	19.6
481.289	19.91
481.537	22.41
481.784	23.19
482.032	26.57
482.28	26.35
482.527	29.07
482.775	30.44
483.022	35.1
483.27	38.99
483.517	44.39
483.765	46.35
484.012	49.21
484.259	50.29
484.507	55.01
484.754	57.16
485.002	59.26
485.249	61.18
485.496	64.95
485.744	67.18
485.991	67.52
486.238	67.46
486.486	71.82
486.733	74.25
486.98	76.66
487.227	77.73
487.474	81.1
487.722	83.35
487.969	83.01
488.216	84.5
488.463	85.79
488.71	85.66
488.957	85.76
489.204	85.93
489.451	86.72
489.699	86.01
489.946	83.13
490.193	83.58
490.44	83.86
490.687	81.52
490.934	79.29
491.18	75.95
491.427	74.84
491.674	75.41
491.921	74.3
492.168	71.37
492.415	68.58
492.662	68.69
492.909	69.62
493.155	67.2
493.402	64.33
493.649	62.68
493.896	61.99
494.142	58.28
494.389	57.31
494.636	55
494.883	52.46
495.129	49.34
495.376	46.27
495.623	45.79
495.869	45.67
496.116	45.39
496.362	45.21
496.609	46.25
496.855	48.12
497.102	46.82
497.348	45.06
497.595	46.86
497.841	46.45
498.088	43.77
498.334	42.62
498.581	41.3
498.827	39.98
499.074	41.1
499.32	41.11
499.566	43.24
499.813	43.21
500.059	40.6
500.305	40.17
500.552	37.24
500.798	35.05
501.044	37.37
501.29	35.42
501.537	33
501.783	34.03
502.029	34.82
502.275	32.97
502.521	31.33
502.767	32.38
503.013	34.14
503.26	31.85
503.506	28.88
503.752	30.09
503.998	27.87
504.244	26.02
504.49	23.7
504.736	22.78
504.982	22.25
505.228	21.93
505.474	23.87
505.72	24.44
505.966	23.64
506.211	25.45
506.457	25.83
506.703	22.31
506.949	20.11
507.195	18.76
507.441	17.92
507.686	19.77
507.932	20.02
508.178	20.71
508.424	19.45
508.669	17.75
508.915	19.19
509.161	21.12
509.406	21.65
509.652	20.63
509.898	23.1
510.143	23.36
510.389	23.24
510.634	20.31
510.88	22.79
511.125	25.02
511.371	23.87
511.616	25.35
511.862	24.57
512.107	23.41
512.353	23.88
512.598	24.34
512.844	23.09
513.089	20.1
513.335	20.35
513.58	19.84
513.825	19.77
514.071	19.21
514.316	19.12
514.561	22.46
514.806	21.88
515.052	22.82
515.297	21.83
515.542	20.63
515.787	22
516.033	24.55
516.278	24.54
516.523	23.68
516.768	22.53
517.013	19.42
517.258	18.29
517.503	17.96
517.748	19.2
517.993	18.79
518.238	18.95
518.483	18.02
518.728	16.54
518.973	16.36
519.218	14.7
519.463	16.31
519.708	15.73
519.953	15.72
520.198	16.39
520.443	17.71
520.688	19.14
520.933	18.79
521.177	18.93
521.422	17.64
521.667	19.52
521.912	19.67
522.157	15.26
522.401	16.84
522.646	16.68
522.891	18.07
523.135	18.4
523.38	18.61
523.625	17.47
523.869	20.15
524.114	22.99
524.358	23.24
524.603	24.62
524.848	23.95
525.092	23.42
525.337	24.27
525.581	25.61
525.826	27.22
526.07	27.77
526.315	29.9
526.559	28.92
526.803	28.4
527.048	30.09
527.292	31.24
527.537	31.39
527.781	30.23
528.025	28.52
528.269	30.69
528.514	31.94
528.758	32.23
529.002	33.69
529.247	36.51
529.491	37.72
529.735	42.39
529.979	42.33
530.223	44.17
530.467	43.09
530.712	43.53
530.956	42.83
531.2	43.68
531.444	41.62
531.688	42.36
531.932	41.62
532.176	43.6
532.42	46.79
532.664	50.01
532.908	50.87
533.152	52.23
533.396	55.09
533.64	58.05
533.884	58.92
534.128	63.07
534.371	69.13
534.615	75.88
534.859	81.19
535.103	88.61
535.347	97.82
535.59	108.26
535.834	115.87
536.078	128.79
536.322	144.58
536.565	162.1
536.809	179.53
537.053	203.64
537.296	230.53
537.54	263.94
537.784	302.33
538.027	348.14
538.271	395.31
538.514	445.87
538.758	496.81
539.001	545.67
539.245	593.89
539.488	643.27
539.732	688.84
539.975	731.65
540.219	772.86
540.462	812.22
540.706	851.74
540.949	888.81
541.192	926.64
541.436	969.14
541.679	1013.48
541.922	1063.08
542.166	1114.55
542.409	1173.01
542.652	1234.38
542.895	1294.3
543.139	1348.45
543.382	1398.25
543.625	1438.8
543.868	1471.79
544.111	1497.31
544.354	1516.82
544.598	1528.76
544.841	1533.27
545.084	1527.31
545.327	1514.89
545.57	1495.12
545.813	1471.14
546.056	1442.18
546.299	1412.15
546.542	1381.84
546.785	1350.99
547.028	1320.88
547.271	1290.9
547.514	1261.24
547.756	1231.62
547.999	1204.33
548.242	1174.99
548.485	1143.12
548.728	1113.15
548.971	1077.42
549.213	1040.06
549.456	993.33
549.699	941
549.942	882.74
550.184	820.45
550.427	756.93
550.67	699.6
550.912	643.39
551.155	596.35
551.398	551.24
551.64	511.16
551.883	473.81
552.125	441.06
552.368	410.89
552.61	383.41
552.853	359.83
553.095	335.92
553.338	314.4
553.58	294.69
553.823	274.25
554.065	259.28
554.308	240.62
554.55	223.23
554.792	207.24
555.035	193.65
555.277	179.61
555.519	168.16
555.762	156.27
556.004	147.92
556.246	136.06
556.488	127.84
556.731	118.06
556.973	112.28
557.215	104.97
557.457	100.82
557.699	94.87
557.941	88.12
558.183	83.37
558.426	80.84
558.668	75.21
558.91	72.68
559.152	69.9
559.394	67.33
559.636	65.6
559.878	63.67
560.12	60.71
560.362	59.35
560.604	57.54
560.845	54.77
561.087	51.51
561.329	52.2
561.571	47.54
561.813	46.93
562.055	44.91
562.297	43.75
562.538	41.97
562.78	44
563.022	41.63
563.264	41.84
563.505	41.01
563.747	40.11
563.989	37.31
564.23	37.42
564.472	36.32
564.714	37.08
564.955	35.9
565.197	34.67
565.438	36.34
565.68	37.64
565.921	35.04
566.163	34.8
566.404	34.32
566.646	34.34
566.887	34.48
567.129	34.87
567.37	32.86
567.612	34.73
567.853	31.46
568.094	32.88
568.336	32.85
568.577	34.04
568.818	33.91
569.06	32.13
569.301	31.14
569.542	31.72
569.783	32.51
570.025	32.03
570.266	30.5
570.507	29.82
570.748	28.59
570.989	28.7
571.23	29.49
571.472	30.49
571.713	29.19
571.954	29.83
572.195	29.2
572.436	31.53
572.677	34.02
572.918	38.3
573.159	41.43
573.4	47.02
573.641	52.21
573.882	58.93
574.123	63.67
574.364	65.9
574.604	71.02
574.845	75.33
575.086	80.43
575.327	87.65
575.568	92.29
575.809	98.92
576.049	104.62
576.29	109.23
576.531	121.58
576.771	130.73
577.012	139.21
577.253	147.03
577.494	153.32
577.734	159.26
577.975	166.03
578.215	172.62
578.456	176.59
578.697	184.28
578.937	192.87
579.178	200.03
579.418	207.11
579.659	214.57
579.899	219.66
580.14	227.47
580.38	232.25
580.62	236.82
580.861	243.53
581.101	246.25
581.342	249.56
581.582	250.11
581.822	254.8
582.063	256.5
582.303	260.31
582.543	262.13
582.783	264.9
583.024	267.66
583.264	271.91
583.504	274.04
583.744	279.72
583.984	281.95
584.224	285.88
584.465	288.46
584.705	290.93
584.945	294.27
585.185	297.02
585.425	299.63
585.665	299.48
585.905	299.27
586.145	298.51
586.385	295.24
586.625	295.43
586.865	291.26
587.105	286.88
587.345	282.62
587.585	278.22
587.824	273.7
588.064	268.29
588.304	262.34
588.544	259.73
588.784	253.61
589.024	253.9
589.263	253.26
589.503	252.75
589.743	255.64
589.982	256.96
590.222	256.78
590.462	256.33
590.701	252.62
590.941	251.37
591.181	245.93
591.42	239.68
591.66	235.01
591.899	232
592.139	226.26
592.378	221.92
592.618	215.41
592.857	211.53
593.097	209.74
593.336	207.94
593.576	205.1
593.815	203.95
594.055	200.77
594.294	198.89
594.533	197.85
594.773	196.52
595.012	196.22
595.251	196.57
595.491	199.66
595.73	201.93
595.969	201.64
596.208	202.53
596.447	203.53
596.687	202.51
596.926	200.34
597.165	193.88
597.404	190.29
597.643	185.44
597.882	178.68
598.121	175.97
598.36	172.82
598.599	170.58
598.838	166.33
599.077	160.63
599.316	156.3
599.555	152.58
599.794	150.98
600.033	152.21
600.272	149.99
600.511	146.56
600.75	147.37
600.989	146.38
601.228	144.85
601.466	142.39
601.705	143.08
601.944	143.19
602.183	144.13
602.422	140.77
602.66	137.36
602.899	133.21
603.138	129
603.376	125.96
603.615	124.34
603.854	120.89
604.092	118.02
604.331	117.59
604.569	117.86
604.808	117.82
605.047	118.82
605.285	122.36
605.524	125.54
605.762	129.29
606	137.93
606.239	148.58
606.477	161.9
606.716	177.71
606.954	203.1
607.193	237.3
607.431	282.82
607.669	344.82
607.908	415.14
608.146	492.31
608.384	567.06
608.622	639.5
608.861	705.87
609.099	766.18
609.337	820.03
609.575	869.32
609.813	914.66
610.052	952.82
610.29	984.01
610.528	1013.66
610.766	1039.48
611.004	1064.13
611.242	1085.73
611.48	1106.48
611.718	1121.27
611.956	1137.01
612.194	1150.4
612.432	1163.1
612.67	1172.15
612.908	1180.01
613.146	1182.04
613.384	1181.8
613.621	1178.38
613.859	1173.84
614.097	1161.57
614.335	1141.98
614.573	1112.05
614.811	1068.28
615.048	1009.87
615.286	944.47
615.524	870.17
615.761	797.13
615.999	727.71
616.237	664.12
616.474	608.13
616.712	557.29
616.95	509.63
617.187	468.35
617.425	434.22
617.662	404.62
617.9	376.48
618.137	351.08
618.375	328.06
618.612	306.68
618.85	289.02
619.087	275.39
619.325	260.76
619.562	246.99
619.799	234.27
620.037	224.98
620.274	216.04
620.511	212.93
620.749	206.3
620.986	202.86
621.223	197.08
621.461	195.75
621.698	196.65
621.935	195.01
622.172	194.25
622.409	196.58
622.647	196.96
622.884	197.45
623.121	201.58
623.358	202.29
623.595	204.22
623.832	204.79
624.069	205.22
624.306	206.91
624.543	208.09
624.78	208.27
625.017	208.44
625.254	210.5
625.491	212.57
625.728	213.62
625.965	213.63
626.202	214.27
626.438	212.98
626.675	213.61
626.912	217.19
627.149	219.34
627.386	221.09
627.622	223.72
627.859	226
628.096	228.98
628.333	232.04
628.569	235.04
628.806	236.98
629.043	235.15
629.279	235.06
629.516	234.62
629.752	228.69
629.989	224.89
630.225	219.22
630.462	213.7
630.699	209.66
630.935	205.59
631.171	198.07
631.408	191.58
631.644	185.44
631.881	178.75
632.117	173.14
632.354	168.86
632.59	162.9
632.826	158.83
633.063	152.51
633.299	147.87
633.535	141.44
633.771	135.54
634.008	130.68
634.244	122.69
634.48	114.69
634.716	108.9
634.953	99.88
635.189	90.67
635.425	82.12
635.661	74.47
635.897	65.2
636.133	57.7
636.369	51.1
636.605	43.09
636.841	38.26
637.077	35.64
637.313	34.54
637.549	33.31
637.785	30.79
638.021	28.83
638.257	27.24
638.493	27.84
638.729	25.39
638.965	27.43
639.2	28.84
639.436	27.04
639.672	25.02
639.908	23.73
640.144	25.03
640.379	27.22
640.615	26.09
640.851	27.25
641.086	28.92
641.322	27.91
641.558	28.89
641.793	30.56
642.029	28.27
642.264	27.31
642.5	27.57
642.736	25.33
642.971	26.37
643.207	25.95
643.442	25.49
643.678	26.79
643.913	28.11
644.148	28.46
644.384	30.38
644.619	29.33
644.855	30.16
645.09	31.18
645.325	31.09
645.561	30.1
645.796	29.97
646.031	33.36
646.266	32.19
646.502	32.04
646.737	34.96
646.972	37.83
647.207	39.92
647.442	40.65
647.678	40.88
647.913	44.72
648.148	45.73
648.383	45.5
648.618	46.69
648.853	48.2
649.088	49.69
649.323	52.56
649.558	54.31
649.793	55.76
650.028	58.34
650.263	55.98
650.498	58.47
650.733	58.85
650.968	57.29
651.202	59.31
651.437	58.23
651.672	57
651.907	57.43
652.142	58.92
652.376	58.76
652.611	61.43
652.846	62.43
653.081	62.03
653.315	61.27
653.55	60.21
653.785	58.98
654.019	59.59
654.254	56.65
654.488	55.07
654.723	50.38
654.958	47.9
655.192	44.69
655.427	41.12
655.661	40.66
655.896	40.09
656.13	39.59
656.364	36.17
656.599	33.24
656.833	38.52
657.068	39.47
657.302	38.33
657.536	36.8
657.771	36.71
658.005	36.39
658.239	37.72
658.474	36.26
658.708	37.14
658.942	36.55
659.176	34.3
659.41	32.69
659.645	32.56
659.879	31.57
660.113	29.75
660.347	29.65
660.581	28.95
660.815	29.58
661.049	29.54
661.283	27.52
661.517	27.9
661.751	28.38
661.985	27.95
662.219	28.38
662.453	27.98
662.687	28.75
662.921	26.96
663.155	27.33
663.389	22.01
663.622	21.07
663.856	23.45
664.09	16.72
664.324	14.61
664.558	15.56
664.791	15
665.025	15.29
665.259	14.04
665.492	13.42
665.726	14.44
665.96	14.52
666.193	13.31
666.427	14.74
666.661	13.23
666.894	12.11
667.128	11.1
667.361	13.73
667.595	12.23
667.828	10.76
668.062	9.96
668.295	9.75
668.529	9.55
668.762	8.27
668.995	6.4
669.229	8.56
669.462	9.34
669.695	10.27
669.929	9.76
670.162	10.51
670.395	9.55
670.629	12.25
670.862	13.53
671.095	9.41
671.328	10.18
671.561	8.92
671.795	9.72
672.028	10.89
672.261	11.05
672.494	13.52
672.727	12.88
672.96	13.13
673.193	10.59
673.426	13.48
673.659	13.69
673.892	13.7
674.125	12.77
674.358	12.78
674.591	10.88
674.824	9.78
675.057	9.99
675.29	8.78
675.523	9.22
675.755	9.49
675.988	10.18
676.221	12.59
676.454	10.9
676.687	10.25
676.919	9.75
677.152	10.16
677.385	9.74
677.617	8.45
677.85	8.58
678.083	8.24
678.315	10.88
678.548	10.86
678.78	10.02
679.013	8.96
679.246	10.29
679.478	11.07
679.711	8.93
679.943	9.44
680.175	8.03
680.408	12.09
680.64	9.6
680.873	9.76
681.105	12.23
681.338	14.01
681.57	13.48
681.802	13.86
682.034	14.93
682.267	18
682.499	19.86
682.731	18.89
682.964	17.33
683.196	16.16
683.428	15.79
683.66	16.33
683.892	19.8
684.124	20.87
684.356	23.13
684.589	24.5
684.821	25.19
685.053	26.54
685.285	28.24
685.517	29.59
685.749	29.09
685.981	30.79
686.213	31.3
686.445	31.21
686.676	28.49
686.908	30.22
687.14	29.44
687.372	29.26
687.604	26.9
687.836	27.89
688.068	28.15
688.299	25.32
688.531	23.77
688.763	26.64
688.995	26.11
689.226	27.97
689.458	25.97
689.69	24.51
689.921	22.79
690.153	22.85
690.384	24.99
690.616	23.98
690.848	24.8
691.079	20.98
691.311	19.19
691.542	16.39
691.774	14.35
692.005	16.37
692.237	17.17
692.468	14.38
692.699	13.39
692.931	13.64
693.162	10.58
693.393	9.56
693.625	8.18
693.856	9.09
694.087	9.42
694.319	9.34
694.55	9.52
694.781	8.91
695.012	8.82
695.243	6.48
695.475	7.79
695.706	7.4
695.937	6.55
696.168	4.22
696.399	2.81
696.63	2.01
696.861	1.91
697.092	7.08
697.323	9.03
697.554	7.9
697.785	6.99
698.016	6.84
698.247	5.12
698.478	5.16
698.709	5.4
698.94	7.64
699.171	5.73
699.401	2.53
699.632	4.15
699.863	1.85
700.094	1.73
700.325	5.52
700.555	5.4
700.786	7.11
701.017	7.45
701.247	6.71
701.478	7.69
701.709	8.53
701.939	7.48
702.17	9.3
702.401	11.64
702.631	12.07
702.862	13.18
703.092	12.28
703.323	16.93
703.553	21.64
703.784	24.44
704.014	27.74
704.244	25.59
704.475	27.34
704.705	30.82
704.936	34.28
705.166	36.13
705.396	40.68
705.627	44.38
705.857	47.75
706.087	49.17
706.317	52.36
706.548	53.56
706.778	56.3
707.008	58.32
707.238	58.71
707.468	57.79
707.698	58.75
707.928	58.45
708.158	58.83
708.389	58.21
708.619	58.62
708.849	59.5
709.079	62.25
709.309	61.93
709.539	62.02
709.768	62.92
709.998	65.07
710.228	65.94
710.458	65.36
710.688	59.76
710.918	58.29
711.148	55.7
711.378	53.78
711.607	51.63
711.837	49.61
712.067	47.27
712.297	45.32
712.526	42.5
712.756	40.76
712.986	35.03
713.215	31.42
713.445	28.07
713.674	27.85
713.904	24.77
714.134	25.79
714.363	24.14
714.593	22.78
714.822	20.88
715.052	19.73
715.281	19.29
715.511	17.84
715.74	17.13
715.969	14.08
716.199	11.98
716.428	9.69
716.657	7.41
716.887	6.89
717.116	3.18
717.345	1.41
717.575	-0.22
717.804	0.95
718.033	-1.26
718.262	-3.32
718.492	-2.73
718.721	-2.57
718.95	-3.04
719.179	-5.86
719.408	-7.05
719.637	-8.21
719.866	-10.13
720.095	-6.74
720.324	-7.43
720.553	-10.1
720.782	-12.01
721.011	-12.69
721.24	-15.24
721.469	-14.92
721.698	-14.16
721.927	-13.34
722.156	-14.38
722.385	-16.01
722.613	-13.46
722.842	-12.79
723.071	-10.74
723.3	-9.77
723.529	-8.85
723.757	-7.32
723.986	-9.37
724.215	-9.42
724.443	-9.2
724.672	-7.04
724.901	-6.95
725.129	-4.86
725.358	-1.43
725.586	-4.08
725.815	-6.19
726.043	-7.06
726.272	-6.59
726.5	-5.77
726.729	-6.15
726.957	-8.55
727.186	-11.93
727.414	-11.08
727.642	-8.91
727.871	-7.27
728.099	-7.05
728.327	-6.37
728.556	-5.31
728.784	-5.45
729.012	-7.02
729.241	-4.5
729.469	-4.84
729.697	-8.52
729.925	-9.04
730.153	-10.4
730.381	-10.38
730.61	-11.62
730.838	-14.16
731.066	-12.91
731.294	-11.96
731.522	-13.72
731.75	-17.47
731.978	-18.56
732.206	-19.23
732.434	-20.81
732.662	-18.55
732.89	-18.86
733.118	-19.75
733.346	-19.39
733.573	-19.33
733.801	-18.12
734.029	-12.43
734.257	-10.56
734.485	-8.09
734.712	-6.68
734.94	-8.39
735.168	-6.74
735.396	-6.74
735.623	-7.1
735.851	-6.35
736.078	-5.49
736.306	-6.08
736.534	-5.8
736.761	-3.69
736.989	-5.25
737.216	-5.37
737.444	-6.18
737.671	-5.16
737.899	-1.33
738.126	-3.36
738.354	-4.63
738.581	-4.28
738.809	-3.27
739.036	-3.87
739.263	-4.05
739.491	-6.19
739.718	-6.26
739.945	-2.5
740.173	0.51
740.4	0.97
740.627	0.94
740.854	-0.99
741.081	-3.68
741.309	-4.16
741.536	-6.63
741.763	-8.2
741.99	-7.34
742.217	-6.87
742.444	-7.14
742.671	-6.85
742.898	-7.58
743.125	-8.44
743.352	-9.87
743.579	-10.01
743.806	-9.93
744.033	-8.26
744.26	-8.3
744.487	-8.59
744.714	-8.65
744.941	-9.69
745.167	-6.67
745.394	-5.73
745.621	-5.65
745.848	-5.17
746.075	-4.01
746.301	-0.92
746.528	2.42
746.755	0.43
746.981	-0.05
747.208	0.34
747.435	0.65
747.661	-0.34
747.888	1.6
748.114	0.58
748.341	2.03
748.567	3.47
748.794	2.49
749.02	1.32
749.247	-1.54
749.473	-2.28
749.7	-2.71
749.926	-2.49
750.152	1.75
750.379	1.52
750.605	2.33
750.831	2.13
751.058	1.89
751.284	2.04
751.51	3.32
751.737	3.97
751.963	3.35
752.189	3.09
752.415	2.34
752.641	1.48
752.867	1.05
753.094	-0.33
753.32	-2.07
753.546	-3.26
753.772	-0.78
753.998	-2.09
754.224	-3.4
754.45	-3.49
754.676	-3.84
754.902	-4.7
755.128	-4.59
755.354	-5.49
755.579	-4.95
755.805	-3.77
756.031	-4.34
756.257	-5.1
756.483	-5.98
756.709	-6.78
756.934	-7.09
757.16	-10.35
757.386	-8.37
757.612	-10.25
757.837	-11.31
758.063	-10.2
758.289	-9.09
758.514	-9.53
758.74	-11.22
758.965	-13.47
759.191	-13.19
759.416	-12
759.642	-10.3
759.868	-10.8
760.093	-8.81
760.318	-8.95
760.544	-7.75
760.769	-7.91
760.995	-8.95
761.22	-8.06
761.445	-6.48
761.671	-3.84
761.896	-1.46
762.121	-0.51
762.347	-0.08
762.572	-2.62
762.797	-2.79
763.022	-1.42
763.248	3.03
763.473	5.45
763.698	4.99
763.923	6.74
764.148	7.17
764.373	6.04
764.598	8.11
764.823	9.68
765.048	7.66
765.273	6.11
765.498	4.57
765.723	4.32
765.948	5.55
766.173	4.59
766.398	5.11
766.623	3.51
766.848	3.96
767.073	2.92
767.298	2.32
767.522	0.75
767.747	0.88
767.972	0.21
768.197	-0.84
768.421	-2.03
768.646	-4.84
768.871	-7.17
769.095	-7.26
769.32	-6.79
769.545	-5.84
769.769	-5.24
769.994	-4.05
770.218	-6.27
770.443	-6.85
770.667	-5.55
770.892	-7.54
771.116	-8.43
771.341	-7.48
771.565	-8.21
771.79	-8.09
772.014	-8.03
772.238	-9.27
772.463	-6.39
772.687	-5.85
772.911	-5.99
773.136	-6.7
773.36	-7.11
773.584	-5.24
773.808	-6.75
774.033	-7.01
774.257	-7.54
774.481	-7.47
774.705	-7.84
774.929	-6.42
775.153	-6.8
775.377	-5.4
775.602	-5.97
775.826	-5.31
776.05	-4.02
776.274	-5.5
776.498	-5.82
776.722	-6.33
776.945	-5.49
777.169	-6.06
777.393	-6.27
777.617	-5.65
777.841	-3.59
778.065	-2.01
778.289	-2.83
778.512	-2.75
778.736	-2.03
778.96	-2.67
779.184	-1.04
779.407	-2.93
779.631	-2.28
779.855	-3.44
780.078	-3.28
780.302	-3.86
780.526	-5.83
780.749	-5.17
780.973	-3.52
781.196	-2.49
781.42	-3.47
781.643	-4.34
781.867	-4.44
782.09	-5.43
782.314	-7.18
782.537	-6.51
782.76	-6.26
782.984	-5.25
783.207	-6.11
783.431	-5.97
783.654	-6.26
783.877	-8.41
784.1	-9.87
784.324	-9.9
784.547	-12.74
784.77	-17.05
784.993	-19.85
785.216	-21.11
785.44	-21.98
785.663	-23.67
785.886	-22.58
786.109	-22.81
786.332	-22.13
786.555	-21.85
786.778	-18.93
787.001	-17.96
787.224	-17.43
787.447	-16.57
787.67	-15.3
787.893	-16.33
788.116	-16.32
788.339	-15.56
788.561	-14.35
788.784	-16.61
789.007	-17.02
789.23	-18.32
789.453	-17.7
789.675	-20.23
789.898	-22.32
790.121	-21.82
790.344	-22.11
790.566	-21.56
790.789	-21.49
791.012	-20.74
791.234	-20.04
791.457	-16.24
791.679	-15.26
791.902	-13.4
792.124	-13.29
792.347	-13.56
792.569	-13.26
792.792	-14.46
793.014	-12.28
793.237	-11.63
793.459	-11.54
793.681	-13.48
793.904	-13.49
794.126	-13.92
794.348	-14.16
794.571	-14.38
794.793	-15.26
795.015	-15.31
795.237	-15.9
795.46	-16.75
795.682	-15.59
795.904	-14.06
796.126	-13.05
796.348	-13.48
796.57	-9.17
796.792	-9.15
797.014	-7.34
797.237	-5.67
797.459	-4.43
797.681	-3.77
797.903	-3.76
798.124	-2.55
798.346	5.55
798.568	7.57
798.79	10.12
799.012	11.8
799.234	13.15
799.456	14.18
799.678	15.44
799.899	13.49
800.121	11.37
800.343	10.78
800.565	11.54
800.786	10.88
801.008	11.42
801.23	11.27
801.451	13.43
801.673	12.58
801.895	11.67
802.116	12.87
802.338	13.51
802.559	13.66
802.781	11.97
803.002	12.02
803.224	12.95
803.445	10.59
803.667	12.16
803.888	10.98
804.109	10.12
804.331	7.96
804.552	7.63
804.773	8.54
804.995	6.9
805.216	-4.13
805.437	-5.14
805.658	-9.15
805.88	-9.26
806.101	-8.64
806.322	-9.62
806.543	-9.7
806.764	-11.17
806.985	-9.94
807.207	-9.32
807.428	-8.52
807.649	-9.65
807.87	-9.44
808.091	-8.2
808.312	-8.43
808.533	-3.41
808.754	-1.12
808.975	-1.9
809.195	-0.14
809.416	0.21
809.637	1.46
809.858	0.41
810.079	-0.63
810.3	-0.52
810.52	-1.33
810.741	-2.92
810.962	-3.51
811.183	-2.69
811.403	-2.67
811.624	-2.07
811.845	-1.67
812.065	-0.24
812.286	-0.35
812.506	1.51
812.727	-0.05
812.948	-0.16
813.168	1.12
813.389	-0.39
813.609	1.33
813.83	1.24
814.05	-0.48
814.27	-0.24
814.491	1.31
814.711	-0.59
814.931	-3.79
815.152	-5.25
815.372	-7.46
815.592	-9.03
815.813	-9.63
816.033	-10.65
816.253	-10.04
816.473	-11.91
816.694	-10.61
816.914	-9.82
817.134	-9.11
817.354	-10.62
817.574	-8.99
817.794	-10.05
818.014	-11.93
818.234	-11.53
818.454	-12.57
818.674	-13.56
818.894	-14.77
819.114	-12.9
819.334	-13
819.554	-11.17
819.774	-9.13
819.994	-10.63
820.214	-10.91
820.433	-10.32
820.653	-11.68
820.873	-9.29
821.093	-10.03
821.312	-10.91
821.532	-8.75
821.752	-5.05
821.972	-5.5
822.191	-4.82
822.411	-6.62
822.63	-6.77
822.85	-7.17
823.07	-8.49
823.289	-8.22
823.509	-9.41
823.728	-7.73
823.948	-8.83
824.167	-10.16
824.387	-11.24
824.606	-9.67
824.825	-9.38
825.045	-9.24
825.264	-9.51
825.483	-9.33
825.703	-8.53
825.922	-10.88
826.141	-12.37
826.361	-12.69
826.58	-15.97
826.799	-17.62
827.018	-16.34
827.237	-16.55
827.456	-13.77
827.676	-13.69
827.895	-13.22
828.114	-12.64
828.333	-13.37
828.552	-14.51
828.771	-13.71
828.99	-15.98
829.209	-14.86
829.428	-12.78
829.647	-12.92
829.866	-11.95
830.084	-11.69
830.303	-11.18
830.522	-12.66
830.741	-12.99
830.96	-11.86
831.179	-10.91
831.397	-11.06
831.616	-10.33
831.835	-10.91
832.053	-12.02
832.272	-10.49
832.491	-8.64
832.709	-9.5
832.928	-8.16
833.147	-7.63
833.365	-5.92
833.584	-2.5
833.802	-1.41
834.021	-1.54
834.239	-1.08
834.458	-3.09
834.676	-5.75
834.894	-6.28
835.113	-6.6
835.331	-6.7
835.55	-7.52
835.768	-6.42
835.986	-5.71
836.204	-7.43
836.423	-7.56
836.641	-8.91
836.859	-8.17
837.077	-8.95
837.296	-8.35
837.514	-8.47
837.732	-8.61
837.95	-9.58
838.168	-8.32
838.386	-8.8
838.604	-6.8
838.822	-5.59
839.04	-7.87
839.258	-8.17
839.476	-5.4
839.694	-5.45
839.912	-6.12
840.13	-8.48
840.348	-6.79
840.566	-9.16
840.783	-7.98
841.001	-10.13
841.219	-7.97
841.437	-7.79
841.655	-7.21
841.872	-6.45
842.09	-6.93
842.308	-5.49
842.525	-5.47
842.743	-5.2
842.961	-6.2
843.178	-7.44
843.396	-4.08
843.613	-3.81
843.831	-1.55
844.048	-2.15
844.266	-1.97
844.483	-3.02
844.701	-3.53
844.918	-5.13
845.136	-4.53
845.353	-7.08
845.57	-7.28
845.788	-3.24
846.005	-6
846.222	-7.7
846.439	-6.44
846.657	-6.96
846.874	-4.61
847.091	-6.28
847.308	-3.94
847.526	-5.12
847.743	-4.28
847.96	-5.08
848.177	-3.17
848.394	-4.41
848.611	-5.97
848.828	-6.8
849.045	-7.75
849.262	-7.75
849.479	-7.98
849.696	-8.4
849.913	-8.72
850.13	-12.09
850.347	-10.76
850.564	-11.47
850.78	-12.63
850.997	-13.2
851.214	-11.48
851.431	-11.23
851.647	-11.23
851.864	-11.42
852.081	-10.19
852.298	-12.22
852.514	-15.23
852.731	-13.38
852.948	-11.58
853.164	-12.81
853.381	-12.01
853.597	-13.83
853.814	-15.99
854.03	-19.11
854.247	-17.78
854.463	-18.51
854.68	-20.69
854.896	-20.51
855.113	-18.76
855.329	-18.33
855.545	-15.83
855.762	-16.59
855.978	-19.53
856.194	-19.86
856.411	-17.03
856.627	-15.19
856.843	-15.49
857.059	-14.81
857.275	-16.05
857.492	-14.41
857.708	-12.06
857.924	-12.26
858.14	-10.14
858.356	-12.43
858.572	-11.75
858.788	-12.76
859.004	-10.62
859.22	-12.27
859.436	-11.16
859.652	-11.91
859.868	-11.78
860.084	-13.71
860.3	-12.81
860.516	-12.98
860.731	-10.63
860.947	-12.44
861.163	-11.75
861.379	-10.67
861.595	-10.36
861.81	-9.97
862.026	-9.27
862.242	-10.63
862.457	-9.89
862.673	-8.2
862.889	-9.01
863.104	-9.27
863.32	-10.16
863.535	-9.42
863.751	-12.37
863.966	-10.11
864.182	-10.37
864.397	-11.67
864.613	-12.29
864.828	-13.74
865.044	-11.44
865.259	-10.06
865.474	-10.74
865.69	-9.94
865.905	-8.67
866.12	-11.51
866.336	-12.03
866.551	-10.41
866.766	-9.9
866.981	-11.24
867.196	-10.01
867.412	-11.07
867.627	-10.46
867.842	-11.39
868.057	-11.49
868.272	-11.74
868.487	-13.57
868.702	-15.32
868.917	-15.99
869.132	-15.97
869.347	-14.87
869.562	-15.38
869.777	-16.87
869.992	-16.48
870.207	-16.73
870.422	-17.09
870.636	-17.68
870.851	-18.73
871.066	-20.51
871.281	-20.45
871.495	-21.06
871.71	-19.41
871.925	-22.12
872.14	-22.43
872.354	-23.79
872.569	-24.97
872.783	-22.32
872.998	-22.45
873.213	-23.99
873.427	-20.82
873.642	-20.58
873.856	-21.01
874.071	-21.76
874.285	-23.07
874.5	-23.44
874.714	-24.21
874.928	-25.08
875.143	-25.05
875.357	-24.43
875.571	-23.56
875.786	-23.55
876	-21.68
876.214	-21.49
876.429	-22.27
876.643	-21.78
876.857	-20.51
877.071	-19.03
877.285	-21.08
877.499	-23.01
877.714	-19.79
877.928	-19.31
878.142	-20.74
878.356	-22.68
878.57	-21.14
878.784	-20.48
878.998	-21.15
879.212	-18.59
879.426	-21.51
879.639	-19.53
879.853	-20.57
880.067	-22.06
880.281	-21.51
880.495	-21.09
880.709	-18.88
880.922	-18.06
881.136	-16.55
881.35	-15.48
881.564	-15.91
881.777	-16.17
881.991	-15.29
882.205	-13.72
882.418	-13.33
882.632	-15.8
882.845	-14.75
883.059	-13.31
883.273	-13.55
883.486	-15.71
883.7	-13.35
883.913	-13.35
884.126	-12.61
884.34	-15.78
884.553	-17.27
884.767	-13.28
884.98	-13.26
885.193	-13.86
885.407	-12.83
885.62	-11.3
885.833	-11.49
886.046	-8.93
886.26	-10.9
886.473	-10.46
886.686	-11.02
886.899	-10.2
887.112	-10.64
887.326	-12.43
887.539	-12.61
887.752	-12.78
887.965	-15.07
888.178	-14.17
888.391	-12.87
888.604	-13.6
888.817	-14.75
889.03	-13.98
889.243	-14.25
889.455	-15.5
889.668	-15.95
889.881	-13.99
890.094	-12.88
890.307	-14.79
890.52	-13.16
890.732	-10.64
890.945	-10.59
891.158	-8.87
891.37	-11.09
891.583	-11.37
891.796	-11.24
892.008	-12.53
892.221	-14.15
892.434	-16.79
892.646	-18.1
892.859	-18.8
893.071	-17.08
893.284	-15.67
893.496	-15.91
893.709	-16.85
893.921	-15.14
894.133	-14.35
894.346	-13.93
894.558	-12.56
894.771	-11.96
894.983	-10.9
895.195	-11.41
895.407	-10.9
895.62	-13.45
895.832	-13.94
896.044	-12.78
896.256	-14.37
896.468	-15.5
896.681	-14.67
896.893	-14.71
897.105	-15.98
897.317	-17.98
897.529	-16.16
897.741	-16.41
897.953	-14.59
898.165	-15.41
898.377	-16.53
898.589	-14.94
898.801	-14.36
899.013	-12.69
899.224	-10.51
899.436	-7.9
899.648	-8.61
899.86	-10.79
900.072	-9.11
900.283	-7.45
900.495	-7.03
900.707	-7.66
900.919	-9.79
901.13	-8.91
901.342	-9.96
901.554	-10.88
901.765	-10.18
901.977	-11.84
902.188	-11.01
902.4	-10.36
902.611	-11.01
902.823	-11.08
903.034	-12.7
903.246	-14.44
903.457	-15.3
903.669	-14.23
903.88	-14.37
904.091	-14.53
904.303	-13.32
904.514	-14.34
904.725	-11.95
904.936	-11.2
905.148	-12.21
905.359	-10.08
905.57	-9.89
905.781	-12.1
905.992	-13.06
906.204	-13.43
906.415	-12.94
906.626	-14.72
906.837	-12.44
907.048	-13.8
907.259	-13.72
907.47	-14.23
907.681	-14.69
907.892	-12.52
908.103	-13.63
908.314	-14.17
908.525	-13.23
908.735	-13.52
908.946	-14.7
909.157	-15.71
909.368	-13.32
909.579	-12.63
909.789	-13.68
910	-15.37
910.211	-13.55
910.421	-13.64
910.632	-13.15
910.843	-14.28
911.053	-12.39
911.264	-10.71
911.475	-11.58
911.685	-10.65
911.896	-11.48
912.106	-9.72
912.317	-10.64
912.527	-9.47
912.737	-9.94
912.948	-8.21
913.158	-8.69
913.369	-11.97
913.579	-9.92
913.789	-10.03
914	-7.75
914.21	-7.81
914.42	-8.6
914.63	-9.92
914.841	-9.39
915.051	-7.94
915.261	-7.46
915.471	-4.53
915.681	-2.75
915.891	-3.45
916.101	-5.28
916.311	-3.95
916.521	-2.21
916.731	-1.85
916.941	0.22
917.151	-1.23
917.361	0.83
917.571	-2.11
917.781	-3.92
917.991	-5.51
918.201	-5.59
918.411	-6.53
918.621	-8.35
918.83	-6.94
919.04	-8.57
919.25	-6.14
919.46	-6.96
919.669	-8.4
919.879	-8.92
920.089	-11.06
920.298	-10.63
920.508	-10.49
920.717	-10.49
920.927	-11.78
921.136	-9.77
921.346	-10.12
921.555	-13.22
921.765	-13.63
921.974	-15.44
922.184	-18.39
922.393	-18.5
922.603	-17.95
922.812	-17.67
923.021	-18.4
923.23	-20.37
923.44	-22.9
923.649	-22.8
923.858	-24.14
924.067	-23.37
924.277	-24.87
924.486	-22.55
924.695	-23.28
924.904	-21.82
925.113	-22.34
925.322	-22.15
925.531	-21.92
925.74	-23.48
925.949	-23.61
926.158	-21.07
926.367	-21
926.576	-20.77
926.785	-21.89
926.994	-22.97
927.203	-21.22
927.412	-21.6
927.621	-23.45
927.83	-21.58
928.038	-21
928.247	-20.48
928.456	-21.09
928.665	-19.42
928.873	-18.6
929.082	-16.94
929.291	-15.76
929.499	-14.25
929.708	-14.64
929.916	-13.48
930.125	-13.49
930.333	-14.89
930.542	-13.94
930.75	-12.09
930.959	-11.79
931.167	-11.97
931.376	-12.82
931.584	-11.6
931.793	-12.39
932.001	-13.11
932.209	-15.54
932.418	-17.35
932.626	-19.51
932.834	-19
933.042	-20.39
933.251	-20.52
933.459	-19.18
933.667	-20.91
933.875	-19.89
934.083	-17.99
934.291	-18.29
934.499	-17.21
934.707	-16.75
934.915	-16.08
935.123	-13.78
935.331	-14
935.539	-16.99
935.747	-17.51
935.955	-17.7
936.163	-17.45
936.371	-17.7
936.579	-16.52
936.787	-15.65
936.995	-16.06
937.202	-18
937.41	-17.26
937.618	-17.65
937.826	-17.54
938.033	-20.13
938.241	-20.54
938.449	-18.6
938.656	-16.27
938.864	-17.05
939.071	-17.41
939.279	-15.49
939.486	-12.61
939.694	-12.29
939.901	-13.72
940.109	-13.95
940.316	-14.78
940.524	-16.21
940.731	-16.73
940.939	-16.88
941.146	-18.96
941.353	-20.19
941.561	-21.66
941.768	-21.55
941.975	-19.29
942.182	-20.14
942.39	-20.53
942.597	-19.45
942.804	-18.31
943.011	-18.66
943.218	-19.06
943.425	-19.77
943.632	-19.27
943.839	-20.21
944.046	-20.14
944.253	-20.54
944.46	-20.14
944.667	-17.43
944.874	-17.98
945.081	-17.78
945.288	-15.66
945.495	-13.68
945.702	-14.06
945.909	-16.96
946.115	-16.56
946.322	-18.27
946.529	-18.24
946.736	-18.23
946.942	-15.81
947.149	-16.29
947.356	-17.48
947.562	-17.25
947.769	-16.75
947.976	-17.09
948.182	-16.31
948.389	-17.17
948.595	-17.41
948.802	-17.46
949.008	-17.78
949.215	-18.32
949.421	-19.54
949.628	-19.71
949.834	-18.93
950.04	-20.25
950.247	-16.82
950.453	-15.93
950.659	-15.33
950.865	-13.86
951.072	-16.59
951.278	-15.15
951.484	-16.64
951.69	-17.84
951.896	-18.75
952.103	-19.37
952.309	-17.07
952.515	-17.54
952.721	-14.44
952.927	-13.04
953.133	-13.39
953.339	-14.27
953.545	-15.27
953.751	-14.06
953.957	-12.01
954.163	-13.88
954.369	-14.02
954.574	-15.99
954.78	-15.13
954.986	-13.72
955.192	-12.12
955.398	-13.24
955.603	-14.52
955.809	-12.91
956.015	-11.82
956.22	-11.62
956.426	-9.75
956.632	-12.12
956.837	-12.57
957.043	-13.42
957.248	-12.94
957.454	-12.55
957.66	-14.06
957.865	-13.2
958.07	-12.13
958.276	-12.49
958.481	-14.25
958.687	-16.27
958.892	-15.66
959.097	-17.17
959.303	-17.16
959.508	-16.93
959.713	-17.37
959.919	-17.11
960.124	-18.04
960.329	-18.34
960.534	-15.06
960.739	-13.28
960.945	-11.53
961.15	-11.5
961.355	-12.33
961.56	-16.16
961.765	-16.47
961.97	-15.58
962.175	-14.77
962.38	-17.27
962.585	-17.95
962.79	-20.4
962.995	-23.4
963.2	-24.09
963.404	-24.86
963.609	-27.49
963.814	-28.26
964.019	-30.36
964.224	-31.99
964.428	-31.47
964.633	-30.02
964.838	-28.55
965.042	-26.77
965.247	-28.47
965.452	-27.8
965.656	-27.72
965.861	-27.42
966.066	-28.43
966.27	-27.29
966.475	-24.91
966.679	-27.05
966.884	-25.96
967.088	-27
967.292	-28.48
967.497	-27.78
967.701	-27.7
967.906	-25.56
968.11	-24.04
968.314	-22.1
968.518	-21.96
968.723	-19.45
968.927	-17.53
969.131	-14.79
969.335	-10.61
969.539	-10.73
969.744	-9.1
969.948	-6.33
970.152	-5.67
970.356	-3.53
970.56	-3.31
970.764	-4.13
970.968	-3.36
971.172	-3.48
971.376	-4.25
971.58	-2.9
971.784	-3.04
971.988	-3.1
972.192	-1.55
972.395	-0.6
972.599	-2.2
972.803	-1.7
973.007	-0.22
973.21	-1.86
973.414	-2.75
973.618	-2.23
973.822	-2.96
974.025	-2.97
974.229	-2.29
974.432	-4
974.636	-5.96
974.84	-5.38
975.043	-5.91
975.247	-8.41
975.45	-9.62
975.654	-9.6
975.857	-7.32
976.06	-7.83
976.264	-9.73
976.467	-9.46
976.671	-10.96
976.874	-10.46
977.077	-12.19
977.28	-12.95
977.484	-14.61
977.687	-15.36
977.89	-13.85
978.093	-13.57
978.297	-14.15
978.5	-16.02
978.703	-16.3
978.906	-16.15
979.109	-17.48
979.312	-16.88
979.515	-17.36
979.718	-17.27
979.921	-17.5
980.124	-19.36
980.327	-19.68
980.53	-20.27
980.733	-19.66
980.936	-17.38
981.138	-19.34
981.341	-20.27
981.544	-19.28
981.747	-19.25
981.949	-20.14
982.152	-20.31
982.355	-22.17
982.558	-19.66
982.76	-21.34
982.963	-20.81
983.165	-20.23
983.368	-19.67
983.571	-20.39
983.773	-17.64
983.976	-16.82
984.178	-16.45
984.381	-16.67
984.583	-18.11
984.785	-17.61
984.988	-15.64
985.19	-14.18
985.392	-14.74
985.595	-16.72
985.797	-16.22
985.999	-14.72
986.202	-13.46
986.404	-12.68
986.606	-11.34
986.808	-11.71
987.01	-10.78
987.212	-11.57
987.415	-12.66
987.617	-11.61
987.819	-12.14
988.021	-11.48
988.223	-12.36
988.425	-12.8
988.627	-10.76
988.829	-13.64
989.031	-11.96
989.232	-12.44
989.434	-11.3
989.636	-10.12
989.838	-9.34
990.04	-8.81
990.242	-9
990.443	-11.2
990.645	-9.45
990.847	-7.47
991.048	-7.06
991.25	-8.66
991.452	-8.18
991.653	-8.91
991.855	-9.47
992.057	-10.11
992.258	-9.1
992.46	-9.1
992.661	-8.23
992.863	-8.12
993.064	-7.4
993.265	-7.9
993.467	-8.82
993.668	-6.58
993.87	-6.88
994.071	-6.34
994.272	-5.38
994.473	-5.56
994.675	-5.14
994.876	-4.3
995.077	-3.49
995.278	-2.36
995.48	-2.69
995.681	-3.18
995.882	-1.72
996.083	-1.32
996.284	-3.77
996.485	-4.56
996.686	-4.6
996.887	-5.91
997.088	-8.27
997.289	-10.01
997.49	-10.22
997.691	-11.91
997.892	-12.12
998.092	-8.06
998.293	-7.32
998.494	-8.44
998.695	-9.5
998.896	-8.47
999.096	-8.52
999.297	-8.81
999.498	-9.62
999.698	-10.51
999.899	-12.92
1000.1	-14.55
1000.3	-14.57
1000.501	-15.5
1000.701	-15.24
1000.902	-15.78
1001.102	-17.28
1001.303	-16.61
1001.503	-17.67
1001.704	-17.71
1001.904	-19.65
1002.105	-21.41
1002.305	-22.29
1002.505	-23.79
1002.706	-23.09
1002.906	-22.79
1003.106	-24.17
1003.306	-22.54
1003.507	-21.05
1003.707	-21.5
1003.907	-18.57
1004.107	-17.3
1004.307	-18.23
1004.507	-17.71
1004.707	-17.76
1004.907	-18.77
1005.107	-20.82
1005.308	-22
1005.507	-22.7
1005.707	-20.89
1005.907	-21.23
1006.107	-18.12
1006.307	-16.4
1006.507	-18.85
1006.707	-18.22
1006.907	-18.66
1007.106	-19.79
1007.306	-20.4
1007.506	-19.97
1007.706	-20.83
1007.905	-20.9
1008.105	-18.62
1008.305	-18.22
1008.504	-17.81
1008.704	-13.47
1008.903	-13.57
1009.103	-11.99
1009.303	-12.26
1009.502	-11.52
1009.702	-11.84
1009.901	-10.64
1010.1	-14.93
1010.3	-14.14
1010.499	-16.09
1010.699	-17.68
1010.898	-19.52
1011.097	-17.95
1011.296	-17.08
1011.496	-17.54
1011.695	-19.13
1011.894	-21.11
1012.093	-19.02
1012.293	-20.95
1012.492	-20.79
1012.691	-18.74
1012.89	-19.51
1013.089	-20.71
1013.288	-19.51
1013.487	-17.52
1013.686	-17.63
1013.885	-18.2
1014.084	-18.31
1014.283	-20.69
1014.482	-20.19
1014.681	-19.83
1014.88	-23.14
1015.078	-21.73
1015.277	-24.34
1015.476	-24
1015.675	-24.53
1015.873	-23.76
1016.072	-25.81
1016.271	-21.33
1016.47	-24.65
1016.668	-23.61
1016.867	-23.53
1017.065	-24.28
1017.264	-24.67
1017.463	-23.63
1017.661	-23.46
1017.86	-22.42
1018.058	-20.83
1018.256	-22.33
1018.455	-23.46
1018.653	-22.94
1018.852	-23.14
1019.05	-24.39
1019.248	-24.8
1019.447	-26.2
1019.645	-27.45
1019.843	-27.83
1020.041	-26.54
1020.24	-26.25
1020.438	-22.82
1020.636	-23.72
1020.834	-25.83
1021.032	-23.11
1021.23	-25
1021.428	-23.53
1021.626	-21.9
1021.824	-22.11
1022.022	-23.79
1022.22	-21.3
1022.418	-22
1022.616	-21.72
1022.814	-22.49
1023.012	-22.28
1023.21	-19.84
1023.408	-20.65
1023.606	-21.57
1023.803	-16.65
1024.001	-15.26
1024.199	-18.45
1024.397	-17.26
1024.594	-15.92
1024.792	-17.73
1024.99	-18.13
1025.187	-16.84
1025.385	-14.06
1025.582	-13.51
1025.78	-12.44
1025.977	-12.63
1026.175	-13.04
1026.372	-12.54
1026.57	-13.4
1026.767	-11.99
1026.965	-10.96
1027.162	-12.13
1027.359	-11.93
1027.557	-11.37
1027.754	-13.43
1027.951	-14.31
1028.148	-12.08
1028.346	-14.76
1028.543	-16.19
1028.74	-15.47
1028.937	-15.41
1029.134	-15.39
1029.331	-17.36
1029.528	-17.36
1029.725	-18.13
1029.923	-21.15
1030.12	-18.99
1030.317	-17.08
1030.513	-15.83
1030.71	-15.69
1030.907	-13.66
1031.104	-13.42
1031.301	-13.8
1031.498	-14
1031.695	-13.78
1031.892	-14.53
1032.088	-14.33
1032.285	-14.7
1032.482	-15.56
1032.678	-18.47
1032.875	-19.24
1033.072	-19.41
1033.268	-19.18
1033.465	-19.44
1033.662	-20.94
1033.858	-20.31
1034.055	-20.09
1034.251	-18.74
1034.448	-18.07
1034.644	-18.85
1034.84	-17.42
1035.037	-16.47
1035.233	-16.15
1035.43	-13.85
1035.626	-14.4
1035.822	-13.37
1036.019	-13.77
1036.215	-17.72
1036.411	-19.01
1036.607	-20.08
1036.803	-22.68
1037	-23.39
1037.196	-23.06
1037.392	-23.21
1037.588	-25.03
1037.784	-24
1037.98	-24.74
1038.176	-25.16
1038.372	-25.62
1038.568	-23.71
1038.764	-21.4
1038.96	-20.6
1039.156	-21.66
1039.352	-22.49
1039.547	-21.09
1039.743	-19.87
1039.939	-18.76
1040.135	-19.39
1040.331	-21.23
1040.526	-19.52
1040.722	-19.85
1040.918	-21.52
1041.113	-23.62
1041.309	-23.63
1041.505	-26.06
1041.7	-23.76
1041.896	-23.97
1042.091	-24.9
1042.287	-23.39
1042.482	-21.93
1042.678	-23
1042.873	-20.8
1043.069	-21.33
1043.264	-21.47
1043.459	-21.44
1043.655	-20.15
1043.85	-21.5
1044.045	-20.64
1044.24	-20.16
1044.436	-18.29
1044.631	-19.96
1044.826	-21.28
1045.021	-23.53
1045.216	-21.4
