Data from FLMT021711__25__16-32-59-796.txt Node

Date: Tue Nov 05 16:32:59 CET 2024
User: Etudiants TP
Spectrometer: FLMT02171
Trigger mode: 0
Integration Time (sec): 1.000000E-1
Scans to average: 5
Electric dark correction enabled: true
Nonlinearity correction enabled: false
Boxcar width: 15
XAxis mode: Wavelengths
Number of Pixels in Spectrum: 3648
>>>>>Begin Spectral Data<<<<<
194.658	-52.19
194.923	-51.22
195.188	-45.22
195.453	-43.06
195.717	-38.71
195.982	-37.57
196.247	-36.37
196.512	-39.15
196.777	-38.09
197.042	-35.16
197.307	-34.51
197.572	-30.64
197.837	-29.53
198.101	-26.66
198.366	-24.66
198.631	-23.57
198.896	-19.65
199.161	-13.55
199.425	-6.7
199.69	0.8
199.955	1.39
200.22	-1.52
200.484	-2.88
200.749	-3.5
201.014	-4.49
201.278	-4.73
201.543	-3.18
201.807	-3.86
202.072	-1.74
202.337	-2.39
202.601	-2.46
202.866	-3.42
203.13	-0.65
203.395	-3.53
203.659	-4.64
203.924	-5.94
204.189	-5.68
204.453	-4.55
204.717	-2.2
204.982	-1.85
205.246	-1.39
205.511	-0.32
205.775	-1.09
206.04	1.87
206.304	0.93
206.568	1.76
206.833	2.48
207.097	4.84
207.361	5.72
207.626	7.97
207.89	9.71
208.154	9.64
208.419	10.72
208.683	11.8
208.947	13.87
209.211	14.67
209.476	14.52
209.74	14.82
210.004	13.93
210.268	14.14
210.532	16.98
210.796	18.27
211.061	19.48
211.325	18.94
211.589	18.68
211.853	20.18
212.117	21.23
212.381	22.65
212.645	23.8
212.909	24.38
213.173	23.39
213.437	23.59
213.701	23.31
213.965	23.35
214.229	20.55
214.493	20.81
214.757	20.07
215.021	19.35
215.285	22.39
215.549	24.34
215.813	22.3
216.077	22.19
216.34	23.4
216.604	22.93
216.868	23.87
217.132	23.72
217.396	23.69
217.659	24.12
217.923	21.75
218.187	22.79
218.451	21.74
218.714	18.64
218.978	18.53
219.242	20.44
219.505	21.04
219.769	22.38
220.033	21.9
220.296	22.14
220.56	20.38
220.824	18.44
221.087	18.86
221.351	19.21
221.614	18.98
221.878	19.26
222.142	18.97
222.405	17.96
222.669	20.04
222.932	17.89
223.196	16.48
223.459	14.34
223.722	14.88
223.986	12.18
224.249	10.63
224.513	11.3
224.776	11.95
225.04	10.78
225.303	9.86
225.566	9.43
225.83	10.39
226.093	12.14
226.356	11.04
226.62	9.02
226.883	10.86
227.146	11.11
227.409	9.52
227.673	7.6
227.936	6.91
228.199	7.53
228.462	5.28
228.725	5.62
228.989	5.39
229.252	5.7
229.515	10.13
229.778	6.9
230.041	7.8
230.304	5.48
230.567	6.83
230.83	4.03
231.093	6.27
231.356	6.18
231.619	10.65
231.882	7.99
232.145	10.86
232.408	9.53
232.671	8.7
232.934	8.37
233.197	7.44
233.46	6.87
233.723	7.9
233.986	7.8
234.249	6.57
234.512	7.8
234.775	11.34
235.037	11.55
235.3	11.77
235.563	11.91
235.826	13.6
236.089	15.87
236.351	14.79
236.614	16.71
236.877	17.44
237.14	18.79
237.402	17.84
237.665	12.28
237.928	14.17
238.19	10.85
238.453	13.14
238.716	12.76
238.978	14.78
239.241	13.06
239.503	15.01
239.766	11.08
240.029	10.51
240.291	13.29
240.554	13.2
240.816	12.1
241.079	12.34
241.341	11.26
241.604	9.58
241.866	7.85
242.129	8.52
242.391	9.08
242.653	8.27
242.916	8.79
243.178	7.82
243.441	8.16
243.703	7.62
243.965	4.88
244.228	4.54
244.49	6
244.752	6.87
245.015	7.77
245.277	8.97
245.539	9.15
245.801	11.24
246.064	11.11
246.326	11.8
246.588	12.45
246.85	14.25
247.112	13.43
247.374	15.12
247.637	16.25
247.899	15.62
248.161	16.67
248.423	13.15
248.685	13.57
248.947	14.81
249.209	15.42
249.471	17.11
249.733	18.32
249.995	17.17
250.257	15.12
250.519	14.95
250.781	17.2
251.043	14.59
251.305	14.6
251.567	15.71
251.829	16.89
252.091	17.69
252.353	14.76
252.615	14.41
252.876	13.05
253.138	10.61
253.4	7.25
253.662	8.89
253.924	9.76
254.185	10.56
254.447	11.52
254.709	9.62
254.971	10.45
255.232	9.87
255.494	8.7
255.756	6.48
256.017	6.17
256.279	6.13
256.541	5.84
256.802	7.38
257.064	7.5
257.326	5.81
257.587	8.38
257.849	10.37
258.11	12.21
258.372	14.06
258.633	14.95
258.895	13.74
259.156	13.27
259.418	13.96
259.679	10.39
259.941	8.09
260.202	10.1
260.464	11.29
260.725	10.79
260.987	10.52
261.248	11.29
261.509	12.66
261.771	11.68
262.032	12.18
262.293	11.26
262.555	10.33
262.816	10.26
263.077	7.45
263.338	6.22
263.6	7.06
263.861	6.81
264.122	7.28
264.383	9.35
264.645	9.58
264.906	6.42
265.167	6.31
265.428	6.58
265.689	5.86
265.95	4.06
266.211	5.14
266.473	4.03
266.734	1.21
266.995	-0.62
267.256	1.16
267.517	2.38
267.778	5.21
268.039	7.29
268.3	4.63
268.561	3.89
268.822	4.55
269.083	2.93
269.344	1.16
269.604	0.03
269.865	0.56
270.126	-2.14
270.387	-1.46
270.648	-0
270.909	-0.24
271.17	-0.22
271.43	-1.68
271.691	-3.23
271.952	-2.96
272.213	-1.53
272.473	-3.56
272.734	-1.44
272.995	0.65
273.256	1.44
273.516	3.45
273.777	1.78
274.038	3.29
274.298	0.82
274.559	1.53
274.82	6.05
275.08	8.13
275.341	10.07
275.601	8.22
275.862	7.08
276.122	8.12
276.383	9.11
276.643	10.74
276.904	10.29
277.164	11.99
277.425	12.83
277.685	15.56
277.946	14.47
278.206	15.94
278.467	16.29
278.727	15.48
278.987	14.41
279.248	14
279.508	15.93
279.768	17.09
280.029	18.75
280.289	17.08
280.549	15.52
280.81	14.25
281.07	12.74
281.33	13.96
281.59	11.43
281.851	13.84
282.111	13.33
282.371	13.78
282.631	14.5
282.891	13.12
283.151	10.4
283.412	7.89
283.672	8.18
283.932	8.54
284.192	7.94
284.452	8.53
284.712	7.93
284.972	7.46
285.232	5.96
285.492	7.75
285.752	5.09
286.012	10.72
286.272	11.71
286.532	11.2
286.792	12.24
287.052	13.96
287.312	13.24
287.571	11.31
287.831	12.29
288.091	9.47
288.351	8.91
288.611	13.29
288.871	14.03
289.13	15.11
289.39	11.55
289.65	13.18
289.91	10.92
290.17	12.43
290.429	14.14
290.689	11.06
290.949	7.88
291.208	10.88
291.468	12.64
291.728	14.04
291.987	15.07
292.247	14.03
292.506	14.5
292.766	15.85
293.026	14.53
293.285	17.03
293.545	18.2
293.804	18.71
294.064	15.79
294.323	13.64
294.583	14.53
294.842	14.41
295.102	15.59
295.361	16.41
295.621	19.14
295.88	19.98
296.139	20.71
296.399	20.59
296.658	16.2
296.917	14.73
297.177	12.24
297.436	14.14
297.695	12.71
297.955	13.69
298.214	11.25
298.473	11.41
298.732	14.19
298.992	17.26
299.251	16.22
299.51	13.49
299.769	13.73
300.028	13.86
300.287	13.88
300.547	13.5
300.806	11.67
301.065	14.07
301.324	14.16
301.583	11.69
301.842	11.02
302.101	8.35
302.36	8.91
302.619	7.97
302.878	8.5
303.137	5.68
303.396	7.69
303.655	7.92
303.914	4.15
304.173	4.22
304.432	5.35
304.691	7.75
304.95	6.75
305.208	10.25
305.467	10.5
305.726	10.26
305.985	10.92
306.244	13.14
306.503	13.13
306.761	10.94
307.02	7.94
307.279	8.03
307.537	8.3
307.796	6.74
308.055	3.89
308.314	4.53
308.572	3.28
308.831	4.25
309.09	4.71
309.348	4.57
309.607	5.17
309.865	6.52
310.124	6.23
310.382	8.16
310.641	8.91
310.9	7.43
311.158	8.29
311.417	7.53
311.675	7.28
311.933	8.1
312.192	9.88
312.45	7.81
312.709	7.78
312.967	9.37
313.226	8.83
313.484	7.62
313.742	6.11
314.001	4.26
314.259	2.96
314.517	3.05
314.776	5.77
315.034	7.37
315.292	5.98
315.55	4.77
315.809	3.51
316.067	4.8
316.325	3.11
316.583	3.64
316.841	2.04
317.1	1.33
317.358	-0.15
317.616	-0.83
317.874	-1.25
318.132	-0.38
318.39	-1.61
318.648	-3.14
318.906	-3.85
319.164	-3.67
319.422	-4.59
319.68	-5.98
319.938	-5.32
320.196	-7.09
320.454	-4.81
320.712	-5.44
320.97	-6.28
321.228	-7.04
321.486	-5.08
321.744	-3.6
322.002	-2.23
322.26	-4.13
322.517	-3.01
322.775	-5.15
323.033	-6.9
323.291	-5.1
323.549	-3.22
323.806	-1.11
324.064	-0.83
324.322	1.73
324.58	1.59
324.837	3.39
325.095	0.72
325.353	1.4
325.61	2.24
325.868	1.84
326.126	2.25
326.383	2.53
326.641	3.29
326.898	5.19
327.156	6.16
327.413	6.64
327.671	7.09
327.928	8.89
328.186	10.54
328.443	9.3
328.701	12.42
328.958	13.46
329.216	14.83
329.473	13.09
329.731	14.13
329.988	15.05
330.245	17.75
330.503	17.88
330.76	17.86
331.017	21.64
331.275	20.09
331.532	19.72
331.789	17.34
332.047	15.95
332.304	12.15
332.561	12.37
332.818	12.02
333.076	14.41
333.333	15.16
333.59	15.58
333.847	16.48
334.104	14.78
334.361	13.12
334.618	12.31
334.876	10.46
335.133	9.92
335.39	8.61
335.647	11.54
335.904	8.35
336.161	6.63
336.418	6.31
336.675	3.07
336.932	3.63
337.189	2.15
337.446	2.69
337.703	2.26
337.96	-1.71
338.216	-1.19
338.473	-4.54
338.73	-3.47
338.987	-4.24
339.244	-1.61
339.501	-1.76
339.757	-0.31
340.014	1.61
340.271	3.29
340.528	4.29
340.785	5.51
341.041	5.37
341.298	3.27
341.555	2.18
341.811	1.98
342.068	1.53
342.325	1.49
342.581	3.81
342.838	6.15
343.094	5
343.351	4.22
343.608	1.14
343.864	1.64
344.121	2.61
344.377	2.5
344.634	0.93
344.89	0.37
345.147	0.01
345.403	-0.85
345.66	-1.24
345.916	1.51
346.172	-0.29
346.429	0.88
346.685	-0.3
346.942	-1.03
347.198	-5.48
347.454	-4.92
347.711	-4.54
347.967	-6.76
348.223	-5.91
348.48	-6.97
348.736	-2.47
348.992	-2.43
349.248	0.17
349.504	1.12
349.761	0.83
350.017	1.04
350.273	2.24
350.529	0.56
350.785	-1.23
351.041	-1.07
351.297	0.97
351.554	0.66
351.81	1.42
352.066	0.84
352.322	2.05
352.578	3.19
352.834	2.24
353.09	3.28
353.346	3
353.602	1.36
353.858	-0.07
354.114	-1.15
354.369	-0.49
354.625	0.29
354.881	-1.53
355.137	2.36
355.393	1.62
355.649	1.14
355.905	1.73
356.16	1.83
356.416	1.38
356.672	-5.14
356.928	-4.26
357.183	-5.9
357.439	-7.09
357.695	-7.6
357.951	-4.2
358.206	-4.6
358.462	-5.2
358.718	-5.37
358.973	-4.1
359.229	-2.91
359.484	-3.01
359.74	-1.4
359.996	-2.09
360.251	-0.14
360.507	-0.68
360.762	-0.3
361.018	1.19
361.273	1.33
361.529	2.64
361.784	3.96
362.04	5.78
362.295	5.91
362.55	6.13
362.806	7.72
363.061	7.12
363.316	7.16
363.572	8.01
363.827	9.02
364.082	5.97
364.338	6.37
364.593	7.69
364.848	7.46
365.104	7.21
365.359	11.05
365.614	11.23
365.869	9.48
366.124	8.94
366.38	8.96
366.635	9.88
366.89	10.74
367.145	9.05
367.4	11.78
367.655	11.19
367.91	12.29
368.165	9.93
368.42	8.57
368.675	9.13
368.93	9.6
369.185	7.5
369.44	8.21
369.695	7.7
369.95	6.86
370.205	5.11
370.46	5.25
370.715	5.46
370.97	6.34
371.225	7
371.48	8.75
371.734	8.98
371.989	11.46
372.244	12.37
372.499	12.36
372.754	11.04
373.008	9.14
373.263	4.78
373.518	6.5
373.773	4.63
374.027	4.42
374.282	5.79
374.537	6.43
374.791	6.89
375.046	6.03
375.301	3.1
375.555	1.62
375.81	2.44
376.064	4.69
376.319	8.12
376.573	7.13
376.828	4.13
377.082	8.79
377.337	7.88
377.591	6.51
377.846	6.35
378.1	9.01
378.355	9.78
378.609	9.88
378.863	6.31
379.118	7.23
379.372	5.2
379.627	4.02
379.881	2.79
380.135	1.88
380.389	1.58
380.644	2.65
380.898	3.56
381.152	4.24
381.407	3.27
381.661	5.78
381.915	7.62
382.169	7.29
382.423	5.79
382.677	3.27
382.932	4.09
383.186	6.25
383.44	8.52
383.694	10
383.948	6.91
384.202	5.31
384.456	7.54
384.71	8.75
384.964	5.86
385.218	6.81
385.472	7.69
385.726	7.13
385.98	6.01
386.234	4.27
386.488	1.99
386.742	3.33
386.996	1.87
387.249	2.05
387.503	3.04
387.757	3.98
388.011	4.1
388.265	4.33
388.518	4.4
388.772	6.03
389.026	7.35
389.28	6.06
389.533	4.79
389.787	5.12
390.041	3.49
390.295	4.28
390.548	4.05
390.802	6.43
391.055	4.82
391.309	2.45
391.563	0.24
391.816	1.19
392.07	-0.13
392.323	-0.15
392.577	0.58
392.83	2.69
393.084	6.53
393.337	8.14
393.591	10.44
393.844	11.38
394.098	15.08
394.351	18.26
394.604	20.98
394.858	21.91
395.111	22.5
395.364	21.16
395.618	21.91
395.871	21.14
396.124	20.46
396.378	20.36
396.631	20.28
396.884	17.77
397.137	17.7
397.391	18.55
397.644	17.31
397.897	18.63
398.15	19.7
398.403	21.87
398.657	21.39
398.91	20.77
399.163	22.3
399.416	22.67
399.669	21.21
399.922	20.96
400.175	19.83
400.428	20.54
400.681	21.21
400.934	18.8
401.187	20.77
401.44	20.95
401.693	20.2
401.946	17.7
402.199	15.09
402.452	13.21
402.704	12.23
402.957	11.3
403.21	13.63
403.463	13.19
403.716	12.55
403.969	14.53
404.221	13.93
404.474	14.64
404.727	17.76
404.98	19.08
405.232	18.25
405.485	19.05
405.738	20.62
405.99	19.35
406.243	18.89
406.496	19.54
406.748	20.16
407.001	19.29
407.253	19.43
407.506	20.35
407.759	21.79
408.011	19.73
408.264	17.71
408.516	17.07
408.769	14.85
409.021	14.01
409.274	12.05
409.526	13.35
409.778	12.08
410.031	14.41
410.283	15.05
410.536	18.43
410.788	17.54
411.04	16.24
411.293	18.3
411.545	20.07
411.797	18.73
412.049	18.44
412.302	19.33
412.554	19.58
412.806	18.43
413.058	18.13
413.311	17.79
413.563	15.99
413.815	16.41
414.067	15.71
414.319	15.01
414.571	15.6
414.823	13.71
415.075	13.38
415.328	14.74
415.58	17.29
415.832	18.13
416.084	18.4
416.336	16.34
416.588	19.47
416.84	18.04
417.091	20.89
417.343	17.22
417.595	18.98
417.847	18.25
418.099	18.58
418.351	16.59
418.603	18.62
418.855	20.45
419.106	19.4
419.358	19.25
419.61	20.02
419.862	21.14
420.114	19.27
420.365	19.33
420.617	19.46
420.869	18.37
421.12	18.11
421.372	18.87
421.624	17.26
421.875	18.1
422.127	15.38
422.379	15.29
422.63	18.44
422.882	18.27
423.133	17.29
423.385	16.29
423.636	17.07
423.888	19.13
424.139	21.37
424.391	19.67
424.642	16.67
424.894	15.31
425.145	16.06
425.396	14.48
425.648	16.67
425.899	14.65
426.151	15.55
426.402	14.7
426.653	14.5
426.905	14.25
427.156	13.12
427.407	11.75
427.658	11.83
427.91	11.6
428.161	10.04
428.412	12.59
428.663	13.22
428.914	13.03
429.166	13.37
429.417	14.77
429.668	13.24
429.919	12.53
430.17	13.33
430.421	13.47
430.672	15.12
430.923	16.24
431.174	15.93
431.425	18.22
431.676	21.14
431.927	24.16
432.178	31.28
432.429	39.13
432.68	42.24
432.931	49.02
433.182	54.3
433.433	52.72
433.683	55.45
433.934	54.7
434.185	55.22
434.436	53.2
434.687	53.41
434.937	55.27
435.188	54.38
435.439	51.57
435.69	51.58
435.94	51.86
436.191	52.17
436.442	52.12
436.692	52.39
436.943	50.23
437.194	49.65
437.444	52.74
437.695	54.82
437.945	54.06
438.196	52.95
438.447	51.75
438.697	50.49
438.948	50.07
439.198	45.48
439.449	39.38
439.699	34.49
439.949	28.27
440.2	22.22
440.45	19.86
440.701	14.51
440.951	10.51
441.201	10.86
441.452	8.81
441.702	9.35
441.952	10.04
442.203	10.42
442.453	9.31
442.703	9.86
442.953	11.5
443.204	14.43
443.454	12.95
443.704	12.85
443.954	10.43
444.204	10.51
444.455	10.59
444.705	12.51
444.955	12.62
445.205	10.21
445.455	8.02
445.705	8.63
445.955	7.59
446.205	6.44
446.455	7.99
446.705	8.03
446.955	9.34
447.205	9.73
447.455	11.33
447.705	9.82
447.955	8.87
448.205	8.1
448.454	8.05
448.704	9.65
448.954	6.89
449.204	8.61
449.454	7.46
449.704	4.61
449.953	4.25
450.203	5.47
450.453	3.22
450.703	4.8
450.952	3.81
451.202	5.39
451.452	5.52
451.701	7.07
451.951	9.64
452.201	9.28
452.45	8.55
452.7	9.47
452.949	9.59
453.199	10.09
453.448	10.72
453.698	12.01
453.947	11.78
454.197	10.62
454.446	9.1
454.696	11.39
454.945	10.53
455.195	9.67
455.444	9.51
455.693	12.12
455.943	11.37
456.192	11.68
456.442	10.35
456.691	11.49
456.94	10.14
457.189	9.25
457.439	11.57
457.688	13.63
457.937	13.31
458.186	13.27
458.436	13.2
458.685	13.12
458.934	13.13
459.183	12.96
459.432	14.05
459.681	14.24
459.93	13.88
460.179	13.99
460.429	12.62
460.678	14.73
460.927	17.89
461.176	17.68
461.425	16.31
461.674	17.94
461.923	17.39
462.172	17.63
462.42	16.17
462.669	19.35
462.918	18.18
463.167	17.67
463.416	16.21
463.665	17.4
463.914	18.57
464.162	17.39
464.411	18.17
464.66	18.45
464.909	16.81
465.158	18.08
465.406	17.27
465.655	18.2
465.904	20.51
466.152	19.72
466.401	19.87
466.65	20.76
466.898	19.3
467.147	16.58
467.395	16.94
467.644	18.61
467.893	18.12
468.141	18.39
468.39	17.71
468.638	15.56
468.887	13.03
469.135	13.38
469.384	12.85
469.632	13.19
469.88	14.39
470.129	15.96
470.377	13.09
470.626	14.16
470.874	15.79
471.122	16.64
471.371	14.47
471.619	12.42
471.867	15.38
472.115	14.82
472.364	13.36
472.612	15.98
472.86	14.76
473.108	15.76
473.356	16.27
473.605	15.04
473.853	13.74
474.101	13.23
474.349	12.51
474.597	14.47
474.845	12.87
475.093	11.38
475.341	10.14
475.589	10.1
475.837	11.23
476.085	10.27
476.333	9.26
476.581	12.03
476.829	11.03
477.077	14.39
477.325	15.03
477.573	14.94
477.821	12.7
478.069	13.97
478.317	14.69
478.564	15.97
478.812	14.29
479.06	14.78
479.308	14.25
479.555	13.41
479.803	13.73
480.051	15.29
480.299	16.38
480.546	16.97
480.794	15.29
481.042	15.8
481.289	15.85
481.537	17.86
481.784	17.71
482.032	20.89
482.28	22.14
482.527	24.6
482.775	26.57
483.022	29.23
483.27	31.21
483.517	34.93
483.765	36.18
484.012	38.57
484.259	37.58
484.507	41.7
484.754	41.88
485.002	42.14
485.249	41.51
485.496	46.52
485.744	46.97
485.991	48.94
486.238	48.4
486.486	51.87
486.733	52.01
486.98	55.83
487.227	55.9
487.474	57.99
487.722	61.27
487.969	59.66
488.216	59.26
488.463	60.24
488.71	58.67
488.957	58.41
489.204	57.29
489.451	58.76
489.699	56.45
489.946	53.31
490.193	52.46
490.44	50.29
490.687	48.73
490.934	47.15
491.18	43.18
491.427	43.68
491.674	43.58
491.921	43.11
492.168	41.01
492.415	37.98
492.662	38.44
492.909	40.42
493.155	38.23
493.402	35.84
493.649	33.37
493.896	32.95
494.142	28.86
494.389	30.01
494.636	27.48
494.883	25.43
495.129	23.16
495.376	20.04
495.623	20.69
495.869	19.83
496.116	19.33
496.362	19.94
496.609	21.36
496.855	24.73
497.102	22.87
497.348	23.19
497.595	24.8
497.841	27.32
498.088	24.81
498.334	23.76
498.581	22.58
498.827	21.65
499.074	21.53
499.32	22.13
499.566	23.27
499.813	23.04
500.059	20.93
500.305	19.22
500.552	17.92
500.798	16.71
501.044	19.11
501.29	17.28
501.537	15.98
501.783	17.53
502.029	17.45
502.275	15.21
502.521	13.02
502.767	13.48
503.013	14.7
503.26	12.23
503.506	10.85
503.752	12.35
503.998	9.47
504.244	10.48
504.49	7.52
504.736	9.5
504.982	8.74
505.228	9.66
505.474	10.38
505.72	13.37
505.966	13.76
506.211	16.03
506.457	16.36
506.703	15.11
506.949	13.23
507.195	12.38
507.441	9.83
507.686	12.98
507.932	12.88
508.178	13.36
508.424	11.84
508.669	10.04
508.915	10.44
509.161	10.9
509.406	12.26
509.652	12.31
509.898	14.78
510.143	16.34
510.389	14.39
510.634	11.75
510.88	14.48
511.125	16.64
511.371	16.01
511.616	18.65
511.862	15.81
512.107	13.79
512.353	13.61
512.598	14.49
512.844	12.25
513.089	8.19
513.335	8.03
513.58	7.12
513.825	7.72
514.071	7.25
514.316	5.22
514.561	6.46
514.806	5.45
515.052	7.56
515.297	5.94
515.542	7.43
515.787	7.37
516.033	8.35
516.278	8.81
516.523	9.51
516.768	9.02
517.013	5.64
517.258	5.37
517.503	5.18
517.748	5.43
517.993	4.58
518.238	5
518.483	4.31
518.728	3.65
518.973	2.02
519.218	1.02
519.463	1.39
519.708	0.99
519.953	0.2
520.198	-0.38
520.443	1.43
520.688	4.45
520.933	4.6
521.177	4.62
521.422	1.32
521.667	2.8
521.912	3.56
522.157	-0.14
522.401	2.17
522.646	1.44
522.891	3.03
523.135	2.54
523.38	3.28
523.625	2.71
523.869	5.53
524.114	6.87
524.358	5.53
524.603	7.15
524.848	6.13
525.092	4.17
525.337	4.78
525.581	7.69
525.826	9.94
526.07	10.31
526.315	11.33
526.559	11.2
526.803	9.62
527.048	11.73
527.292	12.85
527.537	11.64
527.781	10.77
528.025	9.31
528.269	10.31
528.514	9.06
528.758	8.68
529.002	8.53
529.247	11.4
529.491	12.08
529.735	17.36
529.979	16.91
530.223	18.73
530.467	16.17
530.712	15.67
530.956	15.63
531.2	16.08
531.444	13.86
531.688	13.82
531.932	14.94
532.176	15.39
532.42	15.67
532.664	18.05
532.908	17.31
533.152	16.12
533.396	15.58
533.64	14.78
533.884	13.58
534.128	13.76
534.371	15.81
534.615	17.05
534.859	17.58
535.103	19.49
535.347	20.6
535.59	23.08
535.834	22.48
536.078	27.04
536.322	30.14
536.565	35.73
536.809	36.72
537.053	41.04
537.296	43.95
537.54	49.67
537.784	56.33
538.027	65.47
538.271	71.54
538.514	78.86
538.758	87.96
539.001	95.18
539.245	102.62
539.488	111.33
539.732	120.32
539.975	128.55
540.219	136.37
540.462	143.27
540.706	151.43
540.949	157.42
541.192	164.1
541.436	174.13
541.679	185.17
541.922	193.37
542.166	199.99
542.409	208.88
542.652	219.6
542.895	231.24
543.139	239.98
543.382	251.65
543.625	256.71
543.868	262.18
544.111	266.45
544.354	269.01
544.598	269.89
544.841	270.58
545.084	269.77
545.327	266.86
545.57	263.83
545.813	262.94
546.056	256.81
546.299	251.48
546.542	247.41
546.785	243.47
547.028	238.91
547.271	231.77
547.514	225.48
547.756	219.31
547.999	214.99
548.242	209.63
548.485	202.71
548.728	198.03
548.971	188.32
549.213	182.13
549.456	173.74
549.699	165.26
549.942	155.96
550.184	145.98
550.427	134.46
550.67	124.7
550.912	110.94
551.155	103.93
551.398	95.69
551.64	87.77
551.883	81.49
552.125	75.5
552.368	70.83
552.61	63.85
552.853	60.39
553.095	55.3
553.338	51.03
553.58	49.11
553.823	45.15
554.065	44
554.308	39.24
554.55	34.15
554.792	31.35
555.035	29.07
555.277	25.6
555.519	24.51
555.762	21.57
556.004	21.03
556.246	16.14
556.488	15.84
556.731	11.58
556.973	11.99
557.215	10.51
557.457	10.55
557.699	10.19
557.941	7.75
558.183	6.25
558.426	8.04
558.668	4.78
558.91	4.06
559.152	2.54
559.394	1.24
559.636	1.38
559.878	1.31
560.12	1.72
560.362	2.27
560.604	2.44
560.845	1.85
561.087	0.75
561.329	1.99
561.571	-0.59
561.813	0.12
562.055	-0.29
562.297	-0.24
562.538	0.53
562.78	2.45
563.022	-0.33
563.264	0.65
563.505	0.52
563.747	2.1
563.989	-0.1
564.23	-0.84
564.472	-1.63
564.714	-0.9
564.955	-1.74
565.197	-4.52
565.438	-2.95
565.68	-0.24
565.921	-2.09
566.163	-0.32
566.404	0.11
566.646	3.34
566.887	5.97
567.129	7.51
567.37	5.87
567.612	7.11
567.853	5.2
568.094	5.29
568.336	4.5
568.577	5.01
568.818	5.3
569.06	4.85
569.301	2.78
569.542	2.48
569.783	4.11
570.025	3.63
570.266	3.74
570.507	5.89
570.748	5.75
570.989	6.63
571.23	8.49
571.472	9.25
571.713	8.99
571.954	9.18
572.195	7.69
572.436	10.02
572.677	13.2
572.918	15.69
573.159	15.25
573.4	14.44
573.641	14.29
573.882	16.57
574.123	15.35
574.364	11.73
574.604	13.29
574.845	12.7
575.086	12.9
575.327	14.56
575.568	16.07
575.809	17.11
576.049	17.92
576.29	16.75
576.531	21.63
576.771	25.28
577.012	29.47
577.253	30.33
577.494	30.5
577.734	30.92
577.975	32.25
578.215	33.16
578.456	32.94
578.697	33.89
578.937	37.06
579.178	38.77
579.418	39.32
579.659	41.5
579.899	41.75
580.14	42.51
580.38	41.45
580.62	42.4
580.861	46.57
581.101	48.6
581.342	49.02
581.582	47.61
581.822	50.6
582.063	50.65
582.303	53.44
582.543	54.77
582.783	55.63
583.024	57.72
583.264	61.23
583.504	60.43
583.744	62.89
583.984	61.99
584.224	63.86
584.465	63.55
584.705	64.8
584.945	67.18
585.185	68.55
585.425	69.22
585.665	69.17
585.905	69.47
586.145	68.85
586.385	67.5
586.625	68.62
586.865	67.27
587.105	66.54
587.345	65.55
587.585	64.46
587.824	62.81
588.064	61.79
588.304	59.51
588.544	59.11
588.784	56.97
589.024	58.39
589.263	58.3
589.503	58.22
589.743	60.46
589.982	60.45
590.222	61.65
590.462	58.15
590.701	55.62
590.941	57.97
591.181	57.01
591.42	55.44
591.66	55.59
591.899	56.28
592.139	53.9
592.378	52.51
592.618	50.92
592.857	49.6
593.097	50.15
593.336	48.85
593.576	47.9
593.815	48.64
594.055	46.68
594.294	46.85
594.533	46.47
594.773	45.77
595.012	45.67
595.251	46.45
595.491	47.78
595.73	49.82
595.969	49.31
596.208	49.54
596.447	52.96
596.687	53.81
596.926	52.31
597.165	48.31
597.404	49.08
597.643	45.97
597.882	44.82
598.121	44.57
598.36	44.55
598.599	44.4
598.838	42.97
599.077	38.92
599.316	37.85
599.555	38.2
599.794	37.8
600.033	38.67
600.272	38.8
600.511	36.77
600.75	38.05
600.989	40.1
601.228	39.11
601.466	39.01
601.705	40.56
601.944	41.46
602.183	42.39
602.422	42.03
602.66	40.86
602.899	39.95
603.138	39.66
603.376	39.17
603.615	39.36
603.854	36.26
604.092	34.59
604.331	35.61
604.569	35.47
604.808	33.9
605.047	35.62
605.285	36.31
605.524	38.05
605.762	36.76
606	39.67
606.239	43.95
606.477	48.39
606.716	49.29
606.954	54.53
607.193	61.66
607.431	71.13
607.669	85.15
607.908	102.24
608.146	121.83
608.384	140.06
608.622	157.38
608.861	174.17
609.099	186.78
609.337	198.7
609.575	210.77
609.813	223.07
610.052	232.47
610.29	238.72
610.528	242.72
610.766	248.05
611.004	254.39
611.242	259.54
611.48	265.5
611.718	267.81
611.956	272.47
612.194	275.94
612.432	277.5
612.67	280.43
612.908	281.45
613.146	281.55
613.384	280.78
613.621	278.63
613.859	277.3
614.097	275.73
614.335	271.06
614.573	265.02
614.811	255.37
615.048	242.07
615.286	226.02
615.524	208.04
615.761	187.58
615.999	171.8
616.237	157.14
616.474	146.06
616.712	135.61
616.95	123.23
617.187	112.15
617.425	105.66
617.662	98.08
617.9	92.5
618.137	86.02
618.375	80.37
618.612	74.79
618.85	71.38
619.087	69.6
619.325	67.46
619.562	62.8
619.799	60.83
620.037	58.57
620.274	56.92
620.511	57.85
620.749	54.32
620.986	53.15
621.223	50.41
621.461	49.13
621.698	50.2
621.935	49.2
622.172	47.78
622.409	48.64
622.647	48.66
622.884	47.07
623.121	49.09
623.358	47.18
623.595	47.32
623.832	47.66
624.069	45.71
624.306	46.27
624.543	47.47
624.78	47.27
625.017	48.7
625.254	50.19
625.491	51.88
625.728	52.15
625.965	52.52
626.202	51.4
626.438	50.94
626.675	49.53
626.912	52.39
627.149	52.64
627.386	52.83
627.622	52.58
627.859	51.91
628.096	53.83
628.333	54.71
628.569	56.4
628.806	59.67
629.043	58.97
629.279	61.34
629.516	63.23
629.752	59.7
629.989	60.19
630.225	57.28
630.462	56.86
630.699	57.34
630.935	54.72
631.171	51.41
631.408	50.9
631.644	49.07
631.881	45.59
632.117	42.4
632.354	41.61
632.59	39.66
632.826	37.75
633.063	37.05
633.299	36.38
633.535	33.44
633.771	32.28
634.008	32.35
634.244	29.87
634.48	28.16
634.716	27.64
634.953	25.71
635.189	23.94
635.425	23.01
635.661	23.11
635.897	20.25
636.133	18.48
636.369	17.65
636.605	13.02
636.841	10.88
637.077	11.2
637.313	10.28
637.549	12.14
637.785	10
638.021	9.74
638.257	8.92
638.493	10.61
638.729	9.28
638.965	11.76
639.2	13.66
639.436	13.75
639.672	12.83
639.908	12.38
640.144	15.62
640.379	16.87
640.615	15.33
640.851	17.22
641.086	18.14
641.322	16.9
641.558	15.69
641.793	16.59
642.029	14.75
642.264	14.21
642.5	14.39
642.736	11.21
642.971	10.88
643.207	9.14
643.442	6.81
643.678	7.26
643.913	7.46
644.148	6.03
644.384	8.32
644.619	8.49
644.855	9.79
645.09	10.26
645.325	9.6
645.561	10.28
645.796	7.87
646.031	10.76
646.266	8.52
646.502	7.56
646.737	10.39
646.972	10.17
647.207	9.73
647.442	7.63
647.678	6.18
647.913	9.13
648.148	11.54
648.383	9.18
648.618	10.28
648.853	12.1
649.088	14.84
649.323	17.11
649.558	19.03
649.793	20.1
650.028	22.11
650.263	19.69
650.498	22.4
650.733	23.09
650.968	20.51
651.202	23.01
651.437	24.12
651.672	22.54
651.907	22.22
652.142	22.78
652.376	24.08
652.611	25.34
652.846	25.77
653.081	27.68
653.315	26.53
653.55	27.12
653.785	26.4
654.019	26.06
654.254	25.59
654.488	26.04
654.723	23.48
654.958	22.5
655.192	20.63
655.427	16.96
655.661	18.56
655.896	18.78
656.13	20.13
656.364	15.54
656.599	14.56
656.833	19.7
657.068	20.45
657.302	21.95
657.536	21.83
657.771	22.24
658.005	22.49
658.239	24.8
658.474	22.95
658.708	23.22
658.942	21.82
659.176	19.83
659.41	17.05
659.645	16.83
659.879	15.88
660.113	13.74
660.347	12.31
660.581	10.19
660.815	9.68
661.049	9.21
661.283	7.02
661.517	6.57
661.751	5.55
661.985	5.43
662.219	5.68
662.453	5.48
662.687	6.49
662.921	3.41
663.155	3.68
663.389	-1.52
663.622	-2.08
663.856	-1.33
664.09	-7.03
664.324	-7.81
664.558	-8.74
664.791	-9.25
665.025	-9.63
665.259	-9.78
665.492	-10.82
665.726	-10.04
665.96	-10.58
666.193	-11.36
666.427	-9.46
666.661	-9.36
666.894	-11.29
667.128	-11.4
667.361	-8.66
667.595	-9.17
667.828	-8.4
668.062	-8.67
668.295	-8.09
668.529	-7.36
668.762	-7.98
668.995	-8.68
669.229	-6.19
669.462	-4.72
669.695	-5.02
669.929	-6.84
670.162	-5.22
670.395	-6.61
670.629	-4.07
670.862	-2.36
671.095	-5.02
671.328	-5.01
671.561	-7.21
671.795	-6.68
672.028	-5.99
672.261	-5.45
672.494	-4.82
672.727	-7.1
672.96	-4.41
673.193	-5.65
673.426	-1.71
673.659	-1.88
673.892	-1.17
674.125	-1.66
674.358	-1.71
674.591	-2.97
674.824	-5.01
675.057	-5.15
675.29	-6.43
675.523	-5.15
675.755	-5.97
675.988	-5.65
676.221	-3.27
676.454	-3.98
676.687	-3.73
676.919	-4.11
677.152	-2.8
677.385	-2.83
677.617	-2.09
677.85	-2.02
678.083	-3.15
678.315	-0.54
678.548	-0.93
678.78	-0.65
679.013	-1.09
679.246	-0.26
679.478	1
679.711	-0.08
679.943	3.28
680.175	-0.3
680.408	2.69
680.64	-0.65
680.873	0.72
681.105	0.69
681.338	4.39
681.57	4.05
681.802	4.09
682.034	6.29
682.267	8.41
682.499	10.91
682.731	9.62
682.964	8.9
683.196	6.74
683.428	5.8
683.66	4.34
683.892	5.6
684.124	8.45
684.356	10.3
684.589	11.11
684.821	9.08
685.053	9.65
685.285	10.01
685.517	10.01
685.749	9.94
685.981	10.27
686.213	10.64
686.445	11.32
686.676	8.64
686.908	10.1
687.14	7.46
687.372	8.48
687.604	7.09
687.836	8.92
688.068	7.27
688.299	6.82
688.531	4.72
688.763	8.22
688.995	7.88
689.226	10.7
689.458	8.67
689.69	6.64
689.921	5.25
690.153	5.86
690.384	9.44
690.616	8.87
690.848	9.95
691.079	7.9
691.311	5.97
691.542	2.87
691.774	1.08
692.005	3.82
692.237	6.16
692.468	5.27
692.699	5.27
692.931	5.46
693.162	4.13
693.393	2.46
693.625	0.71
693.856	1.92
694.087	0.33
694.319	2.19
694.55	1.44
694.781	0.88
695.012	0.31
695.243	-0.38
695.475	-0.41
695.706	-0.84
695.937	-1.95
696.168	-1.95
696.399	-4.55
696.63	-4.03
696.861	-3.5
697.092	0.06
697.323	2.47
697.554	2.64
697.785	3.19
698.016	4.5
698.247	2.54
698.478	2.69
698.709	5.7
698.94	7.59
699.171	7.26
699.401	3.94
699.632	5.68
699.863	2.73
700.094	1.22
700.325	3.88
700.555	4.41
700.786	5.92
701.017	6.21
701.247	7.15
701.478	7.42
701.709	7.82
701.939	7.02
702.17	8.37
702.401	9.67
702.631	11.32
702.862	11.78
703.092	8.56
703.323	11.39
703.553	13.78
703.784	15.07
704.014	16.2
704.244	13.87
704.475	13.7
704.705	14.08
704.936	14.43
705.166	13.86
705.396	16.12
705.627	16.9
705.857	16.65
706.087	17.89
706.317	17.6
706.548	16.33
706.778	16.19
707.008	18.11
707.238	19.21
707.468	18.72
707.698	18.17
707.928	17.74
708.158	17.58
708.389	17.58
708.619	15.65
708.849	15.53
709.079	16.84
709.309	15.84
709.539	15.71
709.768	15.46
709.998	17.87
710.228	19
710.458	17.26
710.688	14.39
710.918	14.26
711.148	13.88
711.378	12.76
711.607	11.81
711.837	11.84
712.067	11.5
712.297	11.35
712.526	11.76
712.756	12
712.986	8.89
713.215	6.77
713.445	6.85
713.674	7.62
713.904	6.64
714.134	8.81
714.363	7.49
714.593	5.36
714.822	5
715.052	4.25
715.281	4.31
715.511	2.2
715.74	3.71
715.969	2.13
716.199	0.87
716.428	-0.14
716.657	-1.08
716.887	-0.21
717.116	-3.89
717.345	-2.56
717.575	-3.59
717.804	-3.15
718.033	-5.62
718.262	-7.23
718.492	-6.13
718.721	-5.91
718.95	-7.52
719.179	-10.09
719.408	-10.96
719.637	-15.22
719.866	-16.51
720.095	-14.42
720.324	-14.79
720.553	-18.55
720.782	-20.51
721.011	-20.39
721.24	-23.74
721.469	-24.06
721.698	-23.72
721.927	-23.91
722.156	-25.86
722.385	-26.94
722.613	-24.12
722.842	-24.39
723.071	-21.16
723.3	-19.71
723.529	-20
723.757	-19.06
723.986	-20.56
724.215	-20.82
724.443	-20.73
724.672	-17.87
724.901	-17.23
725.129	-15.17
725.358	-12.2
725.586	-14.03
725.815	-14.4
726.043	-14.18
726.272	-14.2
726.5	-13.31
726.729	-10.23
726.957	-12.6
727.186	-14.7
727.414	-14.16
727.642	-11.84
727.871	-9.62
728.099	-10.36
728.327	-9.75
728.556	-8.69
728.784	-7.61
729.012	-8.18
729.241	-4.25
729.469	-2.63
729.697	-4.26
729.925	-3.63
730.153	-6.16
730.381	-6.26
730.61	-4.87
730.838	-7.09
731.066	-7.85
731.294	-6.87
731.522	-9.87
731.75	-13.32
731.978	-14.65
732.206	-15.4
732.434	-17.64
732.662	-16.24
732.89	-18.05
733.118	-19.51
733.346	-18.32
733.573	-18.81
733.801	-20.18
734.029	-15.78
734.257	-14.23
734.485	-11.64
734.712	-10.9
734.94	-12.55
735.168	-9.87
735.396	-9
735.623	-9.89
735.851	-9.28
736.078	-7.63
736.306	-8.39
736.534	-10.23
736.761	-10.75
736.989	-13
737.216	-12.48
737.444	-12.95
737.671	-13.91
737.899	-9.76
738.126	-9.95
738.354	-10.44
738.581	-8.16
738.809	-7.39
739.036	-8.64
739.263	-7.8
739.491	-8.46
739.718	-8.37
739.945	-4.46
740.173	-2.2
740.4	-2.63
740.627	-3.98
740.854	-2.9
741.081	-4.7
741.309	-6.15
741.536	-8.72
741.763	-9.33
741.99	-7.06
742.217	-7.42
742.444	-7.79
742.671	-6.84
742.898	-7.89
743.125	-9.81
743.352	-10.7
743.579	-10.24
743.806	-10.39
744.033	-8.82
744.26	-7.65
744.487	-9.24
744.714	-8.06
744.941	-9.04
745.167	-6.33
745.394	-6.53
745.621	-6.65
745.848	-5.64
746.075	-2.87
746.301	-1.39
746.528	2.42
746.755	0.53
746.981	-0.08
747.208	2.18
747.435	2.94
747.661	3.53
747.888	4.54
748.114	3.36
748.341	4.96
748.567	5.9
748.794	4.4
749.02	3.53
749.247	1.64
749.473	0.72
749.7	0.73
749.926	1.39
750.152	4.4
750.379	4.26
750.605	4.48
750.831	4.44
751.058	5.06
751.284	3.15
751.51	5.15
751.737	5.72
751.963	5.03
752.189	4.98
752.415	4.26
752.641	4.19
752.867	3.08
753.094	1.61
753.32	0.98
753.546	-0.86
753.772	1.08
753.998	-0.4
754.224	-3.05
754.45	-2.6
754.676	-1.58
754.902	-2.79
755.128	-2.6
755.354	-2.18
755.579	-2.21
755.805	0.63
756.031	-0.26
756.257	-0.06
756.483	-0.88
756.709	-2
756.934	-1.79
757.16	-3.59
757.386	-2.78
757.612	-4.55
757.837	-5.5
758.063	-4.94
758.289	-1.68
758.514	-2.66
758.74	-5.45
758.965	-8.42
759.191	-7.55
759.416	-6.96
759.642	-6.97
759.868	-6.53
760.093	-4.26
760.318	-5.67
760.544	-6.74
760.769	-7.26
760.995	-6.96
761.22	-6.11
761.445	-4.27
761.671	-3.82
761.896	-1.87
762.121	-1.34
762.347	-3.48
762.572	-4.28
762.797	-5.99
763.022	-6.28
763.248	-3.06
763.473	-2.14
763.698	-2.26
763.923	-2.45
764.148	-3.01
764.373	-4.33
764.598	-3.38
764.823	-1
765.048	-2.6
765.273	-6.01
765.498	-5.53
765.723	-4.07
765.948	-2.13
766.173	-4.41
766.398	-4.1
766.623	-5.48
766.848	-5.24
767.073	-8.05
767.298	-6.73
767.522	-6.28
767.747	-5.94
767.972	-7.52
768.197	-7.65
768.421	-8.63
768.646	-9.53
768.871	-12.22
769.095	-12.24
769.32	-9.72
769.545	-10.53
769.769	-9.85
769.994	-8.25
770.218	-11.04
770.443	-9.78
770.667	-6.95
770.892	-7.69
771.116	-7.57
771.341	-5.79
771.565	-4.69
771.79	-4.87
772.014	-4.61
772.238	-5.46
772.463	-5.1
772.687	-5.71
772.911	-6.23
773.136	-7.17
773.36	-6.04
773.584	-3.51
773.808	-5.78
774.033	-4.61
774.257	-7.14
774.481	-8.31
774.705	-8.66
774.929	-7.4
775.153	-6.76
775.377	-6.02
775.602	-7.42
775.826	-6.2
776.05	-4.88
776.274	-5.56
776.498	-6.31
776.722	-7.03
776.945	-6.88
777.169	-6.63
777.393	-7.31
777.617	-9.04
777.841	-8.45
778.065	-6.83
778.289	-7.26
778.512	-8.99
778.736	-9.23
778.96	-9.49
779.184	-6.85
779.407	-7.81
779.631	-6.16
779.855	-7.57
780.078	-5.81
780.302	-6.49
780.526	-8.84
780.749	-8.39
780.973	-7.69
781.196	-5.71
781.42	-7.03
781.643	-6.41
781.867	-6.19
782.09	-7.62
782.314	-9.36
782.537	-9.68
782.76	-10.5
782.984	-9.29
783.207	-9.21
783.431	-7.7
783.654	-7.86
783.877	-9.34
784.1	-10.92
784.324	-11.53
784.547	-12.86
784.77	-15.21
784.993	-16.9
785.216	-18.41
785.44	-16.77
785.663	-17.66
785.886	-16.57
786.109	-17.73
786.332	-17.16
786.555	-17.92
786.778	-15.36
787.001	-15.73
787.224	-15.09
787.447	-14.71
787.67	-13.62
787.893	-13.08
788.116	-12.21
788.339	-10.66
788.561	-11.31
788.784	-13.32
789.007	-15.45
789.23	-15.97
789.453	-15.45
789.675	-16.92
789.898	-19.78
790.121	-21.51
790.344	-21.48
790.566	-21.04
790.789	-20.43
791.012	-19.54
791.234	-17.95
791.457	-15.97
791.679	-14.28
791.902	-13.51
792.124	-13.92
792.347	-15.2
792.569	-14.82
792.792	-16.58
793.014	-14.34
793.237	-13.07
793.459	-13
793.681	-13.2
793.904	-14.41
794.126	-14.87
794.348	-15.37
794.571	-14.4
794.793	-16.33
795.015	-16.75
795.237	-16.08
795.46	-15.61
795.682	-14.71
795.904	-11.06
796.126	-11.62
796.348	-11
796.57	-7.28
796.792	-6.91
797.014	-4.02
797.237	-2.66
797.459	-0.88
797.681	-0.04
797.903	-0.25
798.124	0.4
798.346	10.86
798.568	12.79
798.79	15.04
799.012	17.39
799.234	18.1
799.456	19.69
799.678	20.96
799.899	19
800.121	17.91
800.343	17.26
800.565	17.53
800.786	19.12
801.008	19.82
801.23	19.57
801.451	20.66
801.673	20.12
801.895	20.1
802.116	20.56
802.338	21.84
802.559	21.83
802.781	19.35
803.002	19.92
803.224	20.89
803.445	19.22
803.667	20.77
803.888	18.92
804.109	18.34
804.331	16.41
804.552	16.81
804.773	17.8
804.995	15.54
805.216	3.94
805.437	0.72
805.658	-1.58
805.88	-3.72
806.101	-3.44
806.322	-4.37
806.543	-5.29
806.764	-5.9
806.985	-5.1
807.207	-4.12
807.428	-5.04
807.649	-8.82
807.87	-10.39
808.091	-9.29
808.312	-9.51
808.533	-3.93
808.754	-4.08
808.975	-5.89
809.195	-4.02
809.416	-4.45
809.637	-4.27
809.858	-4.07
810.079	-5.49
810.3	-4.39
810.52	-5.51
810.741	-7.64
810.962	-9.85
811.183	-10.2
811.403	-11.06
811.624	-11.17
811.845	-10.12
812.065	-8.82
812.286	-7.4
812.506	-6.62
812.727	-6.14
812.948	-5.35
813.168	-3.39
813.389	-3.66
813.609	-2.6
813.83	-3.67
814.05	-4.69
814.27	-3.95
814.491	-0.56
814.711	-1.34
814.931	-3.72
815.152	-3.39
815.372	-7
815.592	-7.47
815.813	-7.74
816.033	-9.83
816.253	-8.6
816.473	-10.22
816.694	-9.25
816.914	-7.83
817.134	-8.39
817.354	-9
817.574	-7.57
817.794	-7.25
818.014	-6.84
818.234	-6.22
818.454	-7.57
818.674	-8.98
818.894	-11.49
819.114	-9.78
819.334	-10.09
819.554	-9.31
819.774	-8.71
819.994	-12.31
820.214	-12.95
820.433	-13.15
820.653	-14.05
820.873	-13.04
821.093	-11.93
821.312	-13.25
821.532	-10.54
821.752	-7.9
821.972	-9.69
822.191	-8.08
822.411	-10
822.63	-8.34
822.85	-8.12
823.07	-10.71
823.289	-9.11
823.509	-11.15
823.728	-8.94
823.948	-10.09
824.167	-11.25
824.387	-11.6
824.606	-9.54
824.825	-10.45
825.045	-12.31
825.264	-12.24
825.483	-10.4
825.703	-8.67
825.922	-9.92
826.141	-11.36
826.361	-11.87
826.58	-14.15
826.799	-14.05
827.018	-12.17
827.237	-12.91
827.456	-11.78
827.676	-11.06
827.895	-11.83
828.114	-10.55
828.333	-10.71
828.552	-10.82
828.771	-10.96
828.99	-14
829.209	-13.14
829.428	-12.38
829.647	-13.03
829.866	-11.67
830.084	-11.32
830.303	-10.73
830.522	-13.47
830.741	-13.32
830.96	-12.44
831.179	-11.9
831.397	-14.19
831.616	-13.89
831.835	-12.88
832.053	-12.46
832.272	-12.7
832.491	-12.31
832.709	-13.65
832.928	-12.64
833.147	-13
833.365	-11.26
833.584	-9.24
833.802	-8.82
834.021	-8.07
834.239	-7.7
834.458	-8.88
834.676	-11.79
834.894	-13.06
835.113	-14.07
835.331	-15.34
835.55	-15.2
835.768	-14.16
835.986	-13.03
836.204	-14.84
836.423	-14.94
836.641	-15.72
836.859	-17.21
837.077	-16.63
837.296	-15.57
837.514	-16.42
837.732	-16.4
837.95	-16.81
838.168	-15.11
838.386	-15.29
838.604	-12.9
838.822	-12.16
839.04	-12.59
839.258	-11.35
839.476	-8.8
839.694	-8.4
839.912	-9
840.13	-10.81
840.348	-8.16
840.566	-10.23
840.783	-8.17
841.001	-9.6
841.219	-9.36
841.437	-8.08
841.655	-7.56
841.872	-7.85
842.09	-7.64
842.308	-5.84
842.525	-4.89
842.743	-3.75
842.961	-4.03
843.178	-5.01
843.396	-1.62
843.613	-0.45
843.831	-0.13
844.048	-0.94
844.266	-0.6
844.483	-0.75
844.701	-1.5
844.918	-1.05
845.136	-0.51
845.353	-1.87
845.57	-1.55
845.788	-0.06
846.005	-2.53
846.222	-5.68
846.439	-5.8
846.657	-6.11
846.874	-4.95
847.091	-5.75
847.308	-3.52
847.526	-7.02
847.743	-6.86
847.96	-7.97
848.177	-7.09
848.394	-6.47
848.611	-7.1
848.828	-6.41
849.045	-8.69
849.262	-9.23
849.479	-9.72
849.696	-10.15
849.913	-10.88
850.13	-15.4
850.347	-13.23
850.564	-12.02
850.78	-13.29
850.997	-14.14
851.214	-13.73
851.431	-13.55
851.647	-15.58
851.864	-15.51
852.081	-15.72
852.298	-18.75
852.514	-21.43
852.731	-19.88
852.948	-17
853.164	-16.31
853.381	-14.7
853.597	-15.71
853.814	-19.11
854.03	-22.32
854.247	-19.7
854.463	-18.64
854.68	-18.42
854.896	-18.49
855.113	-18.67
855.329	-17.44
855.545	-16.11
855.762	-14.76
855.978	-17.39
856.194	-18.78
856.411	-16.55
856.627	-15.45
856.843	-14.24
857.059	-13.17
857.275	-14.89
857.492	-13.72
857.708	-10.18
857.924	-9.38
858.14	-7.13
858.356	-8.08
858.572	-6.7
858.788	-8.16
859.004	-6.62
859.22	-6.73
859.436	-7.74
859.652	-8.8
859.868	-10.31
860.084	-10.09
860.3	-9.45
860.516	-8.24
860.731	-6.95
860.947	-8.33
861.163	-7.59
861.379	-7.72
861.595	-5.94
861.81	-5.98
862.026	-6.78
862.242	-6.97
862.457	-8.32
862.673	-6.74
862.889	-7.68
863.104	-7.17
863.32	-6.94
863.535	-5.85
863.751	-9.34
863.966	-7.09
864.182	-5.27
864.397	-7.38
864.613	-9
864.828	-11.15
865.044	-9.06
865.259	-8.32
865.474	-7.8
865.69	-6.37
865.905	-4.92
866.12	-5.84
866.336	-6.49
866.551	-4.46
866.766	-5.36
866.981	-6.31
867.196	-7.44
867.412	-7.36
867.627	-7.52
867.842	-8.47
868.057	-7.9
868.272	-10.27
868.487	-10.32
868.702	-11.31
868.917	-11.98
869.132	-10.67
869.347	-10.38
869.562	-9.76
869.777	-10.19
869.992	-10.41
870.207	-11.45
870.422	-12.05
870.636	-15.22
870.851	-17.12
871.066	-18.29
871.281	-17.77
871.495	-17.1
871.71	-15.39
871.925	-18.78
872.14	-19.73
872.354	-21.83
872.569	-22.31
872.783	-20.1
872.998	-20.4
873.213	-21.16
873.427	-19.36
873.642	-19.05
873.856	-18.35
874.071	-18.72
874.285	-19.22
874.5	-20.38
874.714	-21.65
874.928	-21.55
875.143	-22.62
875.357	-22.49
875.571	-24.55
875.786	-24.52
876	-22.46
876.214	-22.41
876.429	-24.76
876.643	-23.84
876.857	-21.55
877.071	-20.11
877.285	-20.51
877.499	-22.87
877.714	-19.76
877.928	-18.35
878.142	-19.23
878.356	-21.55
878.57	-19.91
878.784	-18.75
878.998	-18.23
879.212	-16.03
879.426	-18.55
879.639	-15.82
879.853	-17.25
880.067	-18.22
880.281	-19.3
880.495	-18.63
880.709	-17.02
880.922	-16.72
881.136	-15.61
881.35	-14.03
881.564	-13.15
881.777	-15.15
881.991	-14.18
882.205	-11.1
882.418	-10.92
882.632	-12.89
882.845	-13.54
883.059	-12.38
883.273	-13.56
883.486	-14.53
883.7	-12.64
883.913	-12.39
884.126	-10.19
884.34	-13.57
884.553	-15.17
884.767	-12.91
884.98	-13.84
885.193	-15.3
885.407	-14.83
885.62	-14.13
885.833	-15.49
886.046	-13.2
886.26	-14.61
886.473	-14.55
886.686	-14.77
886.899	-13.03
887.112	-12.74
887.326	-15.1
887.539	-13.73
887.752	-13.05
887.965	-15.43
888.178	-15.32
888.391	-13.68
888.604	-13.93
888.817	-15.1
889.03	-15.28
889.243	-16.04
889.455	-16.13
889.668	-15.96
889.881	-14.37
890.094	-15.02
890.307	-17.1
890.52	-15.81
890.732	-15.69
890.945	-16.33
891.158	-16.9
891.37	-18.78
891.583	-16.73
891.796	-14.28
892.008	-15.2
892.221	-15.82
892.434	-17.8
892.646	-17.96
892.859	-18.37
893.071	-16.61
893.284	-16.25
893.496	-16.43
893.709	-17.26
893.921	-16.18
894.133	-16.2
894.346	-16.25
894.558	-14.57
894.771	-13.85
894.983	-11.1
895.195	-9.5
895.407	-8.59
895.62	-9.49
895.832	-8.74
896.044	-6.53
896.256	-7.39
896.468	-7.8
896.681	-7.68
896.893	-8.24
897.105	-7.33
897.317	-8.11
897.529	-5.42
897.741	-5.22
897.953	-3.14
898.165	-4.72
898.377	-8.12
898.589	-7.65
898.801	-7.01
899.013	-5.04
899.224	-4.2
899.436	-2.28
899.648	-3.43
899.86	-3.81
900.072	-2.44
900.283	-1.69
900.495	0.26
900.707	-0.3
900.919	-2.89
901.13	-2.3
901.342	-3.95
901.554	-7.1
901.765	-7.54
901.977	-10.44
902.188	-11.42
902.4	-12.61
902.611	-14
902.823	-14.78
903.034	-17.18
903.246	-17.76
903.457	-18.2
903.669	-20.23
903.88	-20.16
904.091	-20.64
904.303	-19.17
904.514	-21.9
904.725	-20.87
904.936	-18.94
905.148	-18.1
905.359	-17.67
905.57	-18.42
905.781	-20.39
905.992	-22.19
906.204	-22.66
906.415	-22.8
906.626	-24.43
906.837	-22.61
907.048	-24.87
907.259	-24.59
907.47	-25.07
907.681	-25.96
907.892	-24.13
908.103	-23.63
908.314	-24.87
908.525	-23.27
908.735	-22.02
908.946	-22.27
909.157	-23.9
909.368	-22.68
909.579	-19.8
909.789	-21.75
910	-22.33
910.211	-19.85
910.421	-20.79
910.632	-20.12
910.843	-21.84
911.053	-17.58
911.264	-15.84
911.475	-16.37
911.685	-16.99
911.896	-16.64
912.106	-16.53
912.317	-17.88
912.527	-16.51
912.737	-15.25
912.948	-16.12
913.158	-15.32
913.369	-18.29
913.579	-15.69
913.789	-16.27
914	-13.79
914.21	-14.85
914.42	-14.76
914.63	-14.72
914.841	-14.42
915.051	-12.73
915.261	-12.8
915.471	-9.6
915.681	-8.22
915.891	-8.51
916.101	-9.87
916.311	-8.45
916.521	-7.27
916.731	-7.44
916.941	-5.31
917.151	-5.58
917.361	-2.72
917.571	-6.48
917.781	-7.89
917.991	-10.56
918.201	-10.17
918.411	-12.02
918.621	-12.18
918.83	-10.53
919.04	-12.22
919.25	-12.46
919.46	-9.17
919.669	-11.22
919.879	-11.07
920.089	-12.84
920.298	-12.73
920.508	-12.03
920.717	-10.44
920.927	-12.99
921.136	-12.29
921.346	-14.75
921.555	-16.81
921.765	-16.63
921.974	-19.21
922.184	-21.24
922.393	-21.3
922.603	-22.1
922.812	-19.6
923.021	-20.07
923.23	-20.95
923.44	-22.57
923.649	-23.15
923.858	-24.12
924.067	-23.99
924.277	-25.09
924.486	-21.76
924.695	-21.93
924.904	-20.28
925.113	-20.65
925.322	-20.35
925.531	-19.16
925.74	-20.63
925.949	-22.01
926.158	-20.81
926.367	-20.88
926.576	-19.96
926.785	-20.42
926.994	-22.24
927.203	-22.34
927.412	-21.63
927.621	-22.17
927.83	-19.58
928.038	-19.17
928.247	-19.14
928.456	-18.06
928.665	-17.36
928.873	-15.4
929.082	-14.28
929.291	-13.99
929.499	-12.1
929.708	-13.83
929.916	-13.7
930.125	-15.13
930.333	-15.66
930.542	-13.77
930.75	-11.3
930.959	-11.07
931.167	-12.28
931.376	-12.55
931.584	-10.19
931.793	-9.12
932.001	-9.81
932.209	-9.35
932.418	-11.05
932.626	-11.94
932.834	-13.49
933.042	-15.84
933.251	-16.37
933.459	-15.14
933.667	-15.71
933.875	-15.46
934.083	-14.94
934.291	-13.33
934.499	-14.31
934.707	-14.83
934.915	-15.28
935.123	-12.46
935.331	-12.53
935.539	-13.79
935.747	-16.07
935.955	-17.06
936.163	-15.08
936.371	-14.09
936.579	-11.18
936.787	-12.13
936.995	-13.31
937.202	-15.53
937.41	-16.23
937.618	-15.19
937.826	-15.54
938.033	-19.42
938.241	-20.96
938.449	-19.71
938.656	-18.42
938.864	-19.19
939.071	-17.93
939.279	-15.37
939.486	-13.15
939.694	-13.41
939.901	-15.15
940.109	-14.4
940.316	-14.52
940.524	-15.1
940.731	-17.81
940.939	-15.25
941.146	-15.25
941.353	-15.64
941.561	-17.12
941.768	-18.2
941.975	-17.18
942.182	-18.11
942.39	-17.64
942.597	-16.27
942.804	-17.5
943.011	-19.36
943.218	-18.22
943.425	-17.56
943.632	-15.89
943.839	-16.3
944.046	-16.91
944.253	-17.24
944.46	-16.08
944.667	-13.6
944.874	-14.19
945.081	-13.34
945.288	-11.43
945.495	-10.19
945.702	-9.79
945.909	-12.04
946.115	-10.57
946.322	-10.27
946.529	-10.01
946.736	-9.7
946.942	-7.96
947.149	-7.92
947.356	-10.21
947.562	-10.26
947.769	-10.12
947.976	-10.55
948.182	-9.77
948.389	-10.1
948.595	-8.58
948.802	-9.02
949.008	-10.4
949.215	-9.19
949.421	-9.36
949.628	-10.8
949.834	-10.89
950.04	-12.95
950.247	-10.8
950.453	-11.16
950.659	-11.57
950.865	-10.87
951.072	-14.92
951.278	-13.28
951.484	-15.26
951.69	-16.64
951.896	-17.92
952.103	-19
952.309	-16.64
952.515	-17.38
952.721	-15.31
952.927	-15.21
953.133	-16.5
953.339	-17.99
953.545	-18.16
953.751	-17.43
953.957	-16.66
954.163	-18.57
954.369	-17.41
954.574	-18.01
954.78	-18.65
954.986	-18.72
955.192	-16.16
955.398	-17.43
955.603	-19.01
955.809	-17.08
956.015	-16.57
956.22	-16.14
956.426	-14.19
956.632	-16.51
956.837	-15.05
957.043	-14.45
957.248	-12.95
957.454	-10.37
957.66	-12.5
957.865	-12.1
958.07	-12.37
958.276	-13.33
958.481	-14.33
958.687	-15.78
958.892	-15.28
959.097	-16.63
959.303	-16.42
959.508	-15.71
959.713	-16.31
959.919	-16.55
960.124	-16.8
960.329	-15.58
960.534	-12.56
960.739	-11.52
960.945	-10.65
961.15	-11.42
961.355	-12.02
961.56	-15.13
961.765	-14.68
961.97	-14.83
962.175	-13.98
962.38	-15.52
962.585	-15.9
962.79	-17.88
962.995	-18.39
963.2	-19.5
963.404	-19.85
963.609	-23.14
963.814	-24.12
964.019	-26.14
964.224	-27.63
964.428	-25.84
964.633	-24.51
964.838	-22.63
965.042	-22.93
965.247	-23.79
965.452	-23.02
965.656	-22.87
965.861	-22.32
966.066	-22.32
966.27	-19.49
966.475	-16.23
966.679	-19.85
966.884	-19.44
967.088	-21.38
967.292	-22.4
967.497	-19.44
967.701	-19.04
967.906	-18.33
968.11	-16.25
968.314	-12.38
968.518	-13.76
968.723	-11.6
968.927	-10.46
969.131	-8.99
969.335	-6.82
969.539	-7.03
969.744	-6.25
969.948	-3.67
970.152	-3.98
970.356	-2.36
970.56	-1.75
970.764	-3.21
970.968	-2.67
971.172	-2.58
971.376	-2.31
971.58	-0.85
971.784	-0.06
971.988	-1.23
972.192	0.89
972.395	0.53
972.599	-1.27
972.803	-3.1
973.007	-1.36
973.21	-2.75
973.414	-3.63
973.618	-3.04
973.822	-4.09
974.025	-4.13
974.229	-4.71
974.432	-8.65
974.636	-11.34
974.84	-10.93
975.043	-12.16
975.247	-13.99
975.45	-15.1
975.654	-14.58
975.857	-12.87
976.06	-13.57
976.264	-14.52
976.467	-13.2
976.671	-13.04
976.874	-10.91
977.077	-11.07
977.28	-11.51
977.484	-13.8
977.687	-13.84
977.89	-13.22
978.093	-14.31
978.297	-13.2
978.5	-15.34
978.703	-14.44
978.906	-14.41
979.109	-14.84
979.312	-14.31
979.515	-13.92
979.718	-14.83
979.921	-15.35
980.124	-16.21
980.327	-16.58
980.53	-16.31
980.733	-14.23
980.936	-11.62
981.138	-12.51
981.341	-11.19
981.544	-10.57
981.747	-11.81
981.949	-13.34
982.152	-13.16
982.355	-13.5
982.558	-10.47
982.76	-12.1
982.963	-12.19
983.165	-12.7
983.368	-11.87
983.571	-12.38
983.773	-10.5
983.976	-9.23
984.178	-8.48
984.381	-9.01
984.583	-11
984.785	-11.13
984.988	-9.66
985.19	-7.26
985.392	-8.69
985.595	-10.66
985.797	-10.55
985.999	-8.37
986.202	-6.86
986.404	-7.68
986.606	-5.38
986.808	-6.16
987.01	-4.71
987.212	-7.4
987.415	-7.9
987.617	-7.73
987.819	-9.19
988.021	-7.73
988.223	-7.7
988.425	-9.58
988.627	-8.68
988.829	-12.52
989.031	-10.79
989.232	-12.77
989.434	-11.78
989.636	-11.19
989.838	-9.57
990.04	-8.14
990.242	-10.13
990.443	-12.76
990.645	-11.3
990.847	-8.78
991.048	-8.56
991.25	-9.85
991.452	-11.5
991.653	-11.58
991.855	-12.09
992.057	-12.67
992.258	-10.82
992.46	-12.17
992.661	-11.83
992.863	-12.74
993.064	-11.7
993.265	-12.81
993.467	-13.23
993.668	-12.05
993.87	-12.26
994.071	-11.64
994.272	-11.49
994.473	-10.91
994.675	-8.9
994.876	-8.69
995.077	-8.5
995.278	-8.39
995.48	-7.23
995.681	-9.1
995.882	-9.08
996.083	-11.96
996.284	-13.94
996.485	-13.57
996.686	-14.86
996.887	-16.11
997.088	-19.6
997.289	-22.27
997.49	-22.6
997.691	-23.03
997.892	-22.1
998.092	-17.89
998.293	-17.69
998.494	-18.55
998.695	-17.75
998.896	-14.84
999.096	-15.82
999.297	-15.86
999.498	-17.51
999.698	-18.98
999.899	-20.18
1000.1	-22.01
1000.3	-21.11
1000.501	-21.23
1000.701	-21.14
1000.902	-22.12
1001.102	-22.29
1001.303	-20.74
1001.503	-22.37
1001.704	-21.74
1001.904	-22.84
1002.105	-22.64
1002.305	-21.29
1002.505	-23.29
1002.706	-22.61
1002.906	-20.96
1003.106	-21.45
1003.306	-20.94
1003.507	-17.28
1003.707	-17.03
1003.907	-15.46
1004.107	-13.98
1004.307	-15.37
1004.507	-13.9
1004.707	-15.51
1004.907	-17.06
1005.107	-18.32
1005.308	-18.29
1005.507	-19.22
1005.707	-16.11
1005.907	-15.28
1006.107	-13.37
1006.307	-11.87
1006.507	-11.82
1006.707	-10.44
1006.907	-9.1
1007.106	-9.32
1007.306	-9.72
1007.506	-9.93
1007.706	-10.93
1007.905	-12.37
1008.105	-11.07
1008.305	-12.38
1008.504	-11.23
1008.704	-5.63
1008.903	-5.64
1009.103	-5.45
1009.303	-6.42
1009.502	-4.18
1009.702	-4.87
1009.901	-4.75
1010.1	-7.99
1010.3	-8.06
1010.499	-10.4
1010.699	-12.81
1010.898	-13.42
1011.097	-12.6
1011.296	-13.55
1011.496	-13.43
1011.695	-14.27
1011.894	-17.64
1012.093	-15.45
1012.293	-16.98
1012.492	-16.42
1012.691	-17.54
1012.89	-19.05
1013.089	-22.17
1013.288	-21.62
1013.487	-22.51
1013.686	-22.81
1013.885	-23.19
1014.084	-22.28
1014.283	-22.75
1014.482	-22.24
1014.681	-23.02
1014.88	-27.16
1015.078	-26.44
1015.277	-27.18
1015.476	-26.98
1015.675	-27.74
1015.873	-27.6
1016.072	-29.29
1016.271	-25.17
1016.47	-29.04
1016.668	-26.33
1016.867	-26.41
1017.065	-28.32
1017.264	-29.39
1017.463	-28
1017.661	-27.86
1017.86	-26.84
1018.058	-24.07
1018.256	-25.56
1018.455	-26.66
1018.653	-26.71
1018.852	-25.05
1019.05	-25.9
1019.248	-26.14
1019.447	-27.13
1019.645	-27.39
1019.843	-28.74
1020.041	-26.63
1020.24	-27.46
1020.438	-24.42
1020.636	-25.52
1020.834	-27.65
1021.032	-25.41
1021.23	-26.21
1021.428	-25.61
1021.626	-22.63
1021.824	-21.68
1022.022	-23.03
1022.22	-20.88
1022.418	-22.1
1022.616	-20.43
1022.814	-21.19
1023.012	-20.07
1023.21	-17.62
1023.408	-18.03
1023.606	-19.78
1023.803	-16.44
1024.001	-16.53
1024.199	-19.78
1024.397	-18.4
1024.594	-17.8
1024.792	-19.9
1024.99	-19.13
1025.187	-18.56
1025.385	-14.79
1025.582	-14.36
1025.78	-13.42
1025.977	-12.69
1026.175	-12.54
1026.372	-11.05
1026.57	-14.05
1026.767	-12.64
1026.965	-11.68
1027.162	-12.24
1027.359	-13.27
1027.557	-13.7
1027.754	-16.9
1027.951	-18.53
1028.148	-16.77
1028.346	-18.06
1028.543	-19.96
1028.74	-20.38
1028.937	-22.09
1029.134	-23.06
1029.331	-23.04
1029.528	-22.74
1029.725	-22.17
1029.923	-26.08
1030.12	-23.31
1030.317	-21.32
1030.513	-20.36
1030.71	-18.36
1030.907	-15.3
1031.104	-17.03
1031.301	-17.68
1031.498	-20.1
1031.695	-20.02
1031.892	-19.15
1032.088	-18.83
1032.285	-20.74
1032.482	-21.64
1032.678	-23.32
1032.875	-24.07
1033.072	-22.96
1033.268	-22.63
1033.465	-22.2
1033.662	-22.19
1033.858	-20.36
1034.055	-19.11
1034.251	-17.67
1034.448	-19.07
1034.644	-17.87
1034.84	-15.84
1035.037	-14.22
1035.233	-13.83
1035.43	-11.93
1035.626	-11.55
1035.822	-12
1036.019	-11.68
1036.215	-14.96
1036.411	-15.51
1036.607	-16.8
1036.803	-18.42
1037	-19.77
1037.196	-21.09
1037.392	-21.85
1037.588	-22.4
1037.784	-21.45
1037.98	-22.48
1038.176	-22.55
1038.372	-22.01
1038.568	-20.87
1038.764	-17.9
1038.96	-16.82
1039.156	-18.19
1039.352	-19.27
1039.547	-18.84
1039.743	-18.33
1039.939	-17.54
1040.135	-19.28
1040.331	-21.14
1040.526	-18.9
1040.722	-20.12
1040.918	-21.19
1041.113	-23.49
1041.309	-24.25
1041.505	-27.75
1041.7	-26.81
1041.896	-26.12
1042.091	-25.82
1042.287	-24.62
1042.482	-24.14
1042.678	-24.69
1042.873	-25
1043.069	-25.47
1043.264	-24.31
1043.459	-22.66
1043.655	-21.69
1043.85	-23.3
1044.045	-22.63
1044.24	-22.52
1044.436	-21.3
1044.631	-22.42
1044.826	-24.76
1045.021	-26.26
1045.216	-25.62
