Data from FLMT021711__16__16-32-00-694.txt Node

Date: Tue Nov 05 16:32:00 CET 2024
User: Etudiants TP
Spectrometer: FLMT02171
Trigger mode: 0
Integration Time (sec): 1.000000E-1
Scans to average: 5
Electric dark correction enabled: true
Nonlinearity correction enabled: false
Boxcar width: 15
XAxis mode: Wavelengths
Number of Pixels in Spectrum: 3648
>>>>>Begin Spectral Data<<<<<
194.658	-48.97
194.923	-46.56
195.188	-40.68
195.453	-38.85
195.717	-34.36
195.982	-31.12
196.247	-29.98
196.512	-32.41
196.777	-30.59
197.042	-29.12
197.307	-27.61
197.572	-23.41
197.837	-24.4
198.101	-22.36
198.366	-20.35
198.631	-19.51
198.896	-14.46
199.161	-9.49
199.425	-4.71
199.69	3.1
199.955	2.7
200.22	-0.29
200.484	-1.18
200.749	-0
201.014	2.72
201.278	3.8
201.543	5.2
201.807	4.26
202.072	6.05
202.337	7.18
202.601	7.44
202.866	6
203.13	6.53
203.395	5.2
203.659	4.5
203.924	2.9
204.189	2.96
204.453	4.06
204.717	6.29
204.982	8.18
205.246	9.08
205.511	9.41
205.775	7.85
206.04	12.1
206.304	11.62
206.568	13.75
206.833	14.78
207.097	14.62
207.361	15.87
207.626	20.33
207.89	21.02
208.154	21.42
208.419	24.43
208.683	24.94
208.947	26.34
209.211	24.88
209.476	24.62
209.74	25.5
210.004	25.28
210.268	26.06
210.532	27.24
210.796	27.35
211.061	27.18
211.325	27.75
211.589	25.81
211.853	26.38
212.117	26.56
212.381	26.8
212.645	26.58
212.909	26.44
213.173	22.49
213.437	22.68
213.701	23.05
213.965	22.17
214.229	19.21
214.493	19.05
214.757	17.09
215.021	16.81
215.285	21.52
215.549	24.11
215.813	20.73
216.077	19.92
216.34	21.25
216.604	19.23
216.868	20.09
217.132	21.29
217.396	20.53
217.659	20.11
217.923	16.58
218.187	16.58
218.451	14.81
218.714	12.44
218.978	12.37
219.242	14.18
219.505	14.55
219.769	15.69
220.033	15.43
220.296	17
220.56	18.12
220.824	16.1
221.087	16.34
221.351	15.87
221.614	15.11
221.878	17.56
222.142	17.95
222.405	17.24
222.669	19.23
222.932	16.47
223.196	14.77
223.459	11.32
223.722	11.75
223.986	11.88
224.249	11.17
224.513	10.35
224.776	10.48
225.04	8.66
225.303	7.23
225.566	7.24
225.83	9.35
226.093	11.63
226.356	10.83
226.62	10.02
226.883	12.72
227.146	13.05
227.409	12.46
227.673	10.45
227.936	10.14
228.199	10.73
228.462	7.97
228.725	4.5
228.989	4.94
229.252	7.42
229.515	11.74
229.778	10.51
230.041	8.32
230.304	6.77
230.567	8.41
230.83	6.52
231.093	9.76
231.356	10.86
231.619	16.51
231.882	14.55
232.145	16.19
232.408	15.56
232.671	15.65
232.934	15.44
233.197	15.94
233.46	15.63
233.723	16.7
233.986	15.07
234.249	14.14
234.512	15.25
234.775	19.33
235.037	17.17
235.3	17.95
235.563	17.45
235.826	18.77
236.089	20.47
236.351	19.43
236.614	22.83
236.877	24.67
237.14	26.1
237.402	24.84
237.665	20.11
237.928	20.16
238.19	18.38
238.453	19.6
238.716	19.51
238.978	20.04
239.241	17.77
239.503	19.07
239.766	14.82
240.029	13.11
240.291	14.65
240.554	15.5
240.816	15.37
241.079	15.81
241.341	15.42
241.604	14
241.866	12.46
242.129	13.96
242.391	14.05
242.653	13.8
242.916	13.55
243.178	14.72
243.441	14.61
243.703	14.75
243.965	12.46
244.228	12.17
244.49	11.9
244.752	12.06
245.015	11.77
245.277	14.05
245.539	13.09
245.801	15.01
246.064	16.02
246.326	14.92
246.588	15.21
246.85	15.86
247.112	15.88
247.374	18.14
247.637	19.24
247.899	18.26
248.161	19.44
248.423	15.96
248.685	15.39
248.947	14.39
249.209	14.01
249.471	13.63
249.733	15.11
249.995	13.7
250.257	13
250.519	13.27
250.781	14.86
251.043	11.57
251.305	13.1
251.567	14.17
251.829	14.4
252.091	15.17
252.353	12.16
252.615	13.9
252.876	12.08
253.138	11.11
253.4	8.23
253.662	9.99
253.924	11.6
254.185	10.55
254.447	10.86
254.709	10.72
254.971	12.36
255.232	14.26
255.494	12.23
255.756	9.26
256.017	10.08
256.279	10.34
256.541	11.02
256.802	11.43
257.064	13.41
257.326	12.76
257.587	14.69
257.849	14.77
258.11	16.5
258.372	17.05
258.633	16.74
258.895	15.81
259.156	15.16
259.418	13.53
259.679	10.1
259.941	8.35
260.202	10.09
260.464	12.77
260.725	11.59
260.987	10.74
261.248	10.86
261.509	10.98
261.771	8.76
262.032	9.95
262.293	10.13
262.555	10.73
262.816	9.17
263.077	7.29
263.338	4.03
263.6	4.8
263.861	6.11
264.122	4.33
264.383	6.18
264.645	7.08
264.906	5.63
265.167	5.41
265.428	4.95
265.689	4.22
265.95	1.95
266.211	2.86
266.473	1.31
266.734	-1.24
266.995	-3.67
267.256	-1.6
267.517	-1.48
267.778	2.22
268.039	3.77
268.3	2.86
268.561	-0.25
268.822	2.24
269.083	0.5
269.344	-0.42
269.604	-0.86
269.865	-1.08
270.126	-4.09
270.387	-1.74
270.648	-1
270.909	0.41
271.17	-0.17
271.43	-1.59
271.691	-4.07
271.952	-5.03
272.213	-3.13
272.473	-5.85
272.734	-4.6
272.995	-2.45
273.256	-3.51
273.516	-1.29
273.777	-2.77
274.038	0.06
274.298	-1.88
274.559	-1.31
274.82	2.86
275.08	5.18
275.341	5.55
275.601	5.96
275.862	3.7
276.122	5.11
276.383	4.57
276.643	7.09
276.904	5.12
277.164	8.29
277.425	9.19
277.685	12.28
277.946	13.18
278.206	14.58
278.467	13.81
278.727	13.86
278.987	10.7
279.248	10.14
279.508	10.98
279.768	13.74
280.029	15.03
280.289	12.96
280.549	12.58
280.81	11.43
281.07	10.42
281.33	12.7
281.59	12.1
281.851	14.82
282.111	14.36
282.371	14.47
282.631	15.61
282.891	15.65
283.151	15.05
283.412	13.87
283.672	12.79
283.932	12.61
284.192	12.21
284.452	12.77
284.712	12.15
284.972	12.66
285.232	9.94
285.492	10.29
285.752	8.4
286.012	13.44
286.272	14.61
286.532	13.2
286.792	12.98
287.052	17.35
287.312	17.19
287.571	17.78
287.831	17.44
288.091	15.09
288.351	16.03
288.611	19.44
288.871	18.49
289.13	18.68
289.39	15.72
289.65	16.59
289.91	15.71
290.17	16.66
290.429	18.82
290.689	16.9
290.949	14.56
291.208	15.24
291.468	17.48
291.728	19.3
291.987	21.07
292.247	18.86
292.506	20.24
292.766	21.12
293.026	19.16
293.285	21.23
293.545	23.56
293.804	22.77
294.064	18.94
294.323	17.13
294.583	17.65
294.842	17.68
295.102	16.74
295.361	17.32
295.621	17.82
295.88	18.46
296.139	17.69
296.399	17.8
296.658	14.24
296.917	14.52
297.177	11.94
297.436	13.3
297.695	12.29
297.955	12.72
298.214	11.26
298.473	11.93
298.732	13.03
298.992	14.47
299.251	13.09
299.51	10.25
299.769	10.54
300.028	9.79
300.287	10.77
300.547	10.56
300.806	8.2
301.065	11.9
301.324	11.93
301.583	8.9
301.842	7.24
302.101	6.6
302.36	6.22
302.619	7.09
302.878	6.27
303.137	5.13
303.396	5.79
303.655	6.65
303.914	3.97
304.173	3.94
304.432	3.12
304.691	4.59
304.95	4.37
305.208	7.47
305.467	7.51
305.726	6.92
305.985	7.7
306.244	8.06
306.503	7.37
306.761	5.84
307.02	4.97
307.279	6.64
307.537	7.56
307.796	5.47
308.055	3.89
308.314	4.59
308.572	2.96
308.831	5.28
309.09	3.96
309.348	5.99
309.607	5.4
309.865	8.35
310.124	7.27
310.382	8.28
310.641	8.54
310.9	9.02
311.158	9.51
311.417	9.54
311.675	11.05
311.933	11.81
312.192	13.36
312.45	13.7
312.709	13.6
312.967	12.28
313.226	11.23
313.484	11.62
313.742	9.66
314.001	8.1
314.259	7.7
314.517	8.37
314.776	10.6
315.034	11.52
315.292	9.18
315.55	7.23
315.809	6.24
316.067	6.66
316.325	5.11
316.583	6.15
316.841	4.63
317.1	3.86
317.358	1.1
317.616	1.13
317.874	0.13
318.132	0.23
318.39	-0.33
318.648	-0.43
318.906	-1.01
319.164	-0.89
319.422	-1.96
319.68	-4.44
319.938	-3.52
320.196	-3.64
320.454	-2.67
320.712	-2.98
320.97	-2.6
321.228	-3.68
321.486	-2.74
321.744	-1.66
322.002	-0
322.26	-0.29
322.517	-0.46
322.775	-2.96
323.033	-4.75
323.291	-2.17
323.549	-0.54
323.806	1.35
324.064	1.62
324.322	3.06
324.58	2.97
324.837	4.84
325.095	3.62
325.353	4.09
325.61	3.8
325.868	3.24
326.126	4.46
326.383	4.13
326.641	1.36
326.898	2.73
327.156	2.51
327.413	3.66
327.671	3.14
327.928	4.36
328.186	5.28
328.443	3.5
328.701	7.59
328.958	7.98
329.216	9.08
329.473	7.37
329.731	8.32
329.988	7.23
330.245	9.66
330.503	9.94
330.76	10.18
331.017	12.92
331.275	11.55
331.532	12.17
331.789	9.54
332.047	8.71
332.304	6.14
332.561	5.56
332.818	4.16
333.076	5.34
333.333	6.98
333.59	10.23
333.847	11.22
334.104	10.44
334.361	11.06
334.618	11.35
334.876	10.25
335.133	9.93
335.39	7.7
335.647	8.92
335.904	5.23
336.161	3.53
336.418	4.23
336.675	0.21
336.932	2.13
337.189	1.23
337.446	0.26
337.703	-0.21
337.96	-3.47
338.216	-4.88
338.473	-6.47
338.73	-5.39
338.987	-7.59
339.244	-6.59
339.501	-8.89
339.757	-6.15
340.014	-4.03
340.271	-2.17
340.528	-0.96
340.785	3.2
341.041	2.91
341.298	-0.19
341.555	-1.95
341.811	-1.68
342.068	-2.83
342.325	-2.57
342.581	0.29
342.838	0.74
343.094	1.23
343.351	2.24
343.608	0.95
343.864	3.56
344.121	5.38
344.377	4.46
344.634	4.36
344.89	2.6
345.147	3.23
345.403	3.59
345.66	3.22
345.916	6.18
346.172	4.29
346.429	3.05
346.685	2.03
346.942	3.15
347.198	1.13
347.454	3.47
347.711	2.93
347.967	0.22
348.223	0.39
348.48	-0.76
348.736	0.07
348.992	0.46
349.248	2.02
349.504	1.98
349.761	1.43
350.017	1.22
350.273	0.76
350.529	-0.42
350.785	0.22
351.041	-0.22
351.297	0.9
351.554	0.27
351.81	-0.72
352.066	-2.24
352.322	-1.2
352.578	-1.14
352.834	-1.08
353.09	-0.91
353.346	-0.83
353.602	-1.03
353.858	-2.48
354.114	-2.46
354.369	-0.96
354.625	1.12
354.881	-0.47
355.137	1.21
355.393	0.21
355.649	0.56
355.905	-0.14
356.16	1.25
356.416	2.2
356.672	-2.09
356.928	-1.68
357.183	-0.72
357.439	-0.24
357.695	-0.99
357.951	3.22
358.206	2.19
358.462	1.51
358.718	0.57
358.973	1.99
359.229	2.07
359.484	3.1
359.74	5.53
359.996	5.61
360.251	8.29
360.507	8.63
360.762	8.35
361.018	10.39
361.273	9.18
361.529	9.39
361.784	10.35
362.04	12.85
362.295	12.29
362.55	12.8
362.806	14.65
363.061	14.34
363.316	16.13
363.572	16.46
363.827	19.77
364.082	17.37
364.338	16.16
364.593	15.26
364.848	15.38
365.104	14.36
365.359	16.22
365.614	16.97
365.869	14.66
366.124	16.71
366.38	15.64
366.635	16.48
366.89	16.38
367.145	15.24
367.4	17.34
367.655	16.46
367.91	16.42
368.165	14.91
368.42	12.85
368.675	12.96
368.93	12.66
369.185	11.57
369.44	12.38
369.695	14.01
369.95	12.52
370.205	12.69
370.46	11.57
370.715	11.63
370.97	13.75
371.225	12.25
371.48	12.05
371.734	11.17
371.989	12.8
372.244	13.39
372.499	15.84
372.754	13.88
373.008	11.37
373.263	7.87
373.518	9.11
373.773	8.59
374.027	6.01
374.282	8.58
374.537	9.05
374.791	9.79
375.046	10.74
375.301	8.61
375.555	7.34
375.81	9.79
376.064	10.87
376.319	13.39
376.573	13.58
376.828	10.73
377.082	13.6
377.337	12.88
377.591	10.11
377.846	10.45
378.1	12.61
378.355	11.88
378.609	11.15
378.863	8.65
379.118	10.09
379.372	9.34
379.627	10.12
379.881	8.39
380.135	7.54
380.389	7.09
380.644	8.35
380.898	9.66
381.152	11.35
381.407	10.44
381.661	12.23
381.915	13.73
382.169	14.7
382.423	12.84
382.677	11.28
382.932	10.64
383.186	12.69
383.44	14.13
383.694	14.24
383.948	12.05
384.202	11.34
384.456	13.36
384.71	15.28
384.964	14.72
385.218	15.71
385.472	17.27
385.726	16.92
385.98	16.55
386.234	16.01
386.488	14.16
386.742	13.96
386.996	11.51
387.249	12.03
387.503	11.93
387.757	12.37
388.011	13.4
388.265	13.32
388.518	14.61
388.772	17.19
389.026	17.25
389.28	15.94
389.533	14.61
389.787	16.73
390.041	14.08
390.295	15.96
390.548	15.51
390.802	17.52
391.055	15.85
391.309	14.98
391.563	13.9
391.816	15.69
392.07	14.87
392.323	15.36
392.577	15.95
392.83	16.71
393.084	19.43
393.337	21.44
393.591	21.4
393.844	21.49
394.098	25.89
394.351	28.71
394.604	31.11
394.858	33.35
395.111	33.57
395.364	32.21
395.618	34.13
395.871	32.99
396.124	32.09
396.378	30.89
396.631	29.81
396.884	28.37
397.137	27.52
397.391	27.61
397.644	24.89
397.897	24.95
398.15	25.36
398.403	27.05
398.657	25.67
398.91	25.09
399.163	24.95
399.416	24.42
399.669	22.86
399.922	22
400.175	20.98
400.428	22.87
400.681	25.72
400.934	26.47
401.187	28.89
401.44	32.94
401.693	33.2
401.946	30.46
402.199	28.15
402.452	27.22
402.704	24.49
402.957	24.13
403.21	25.78
403.463	24.21
403.716	25.86
403.969	27.24
404.221	27.65
404.474	29.83
404.727	32.01
404.98	34.49
405.232	34.8
405.485	36.56
405.738	38.68
405.99	38.19
406.243	37.97
406.496	39.64
406.748	40.4
407.001	39.61
407.253	40.05
407.506	39.55
407.759	40.58
408.011	38.17
408.264	35.6
408.516	33.83
408.769	28.35
409.021	25.7
409.274	21.9
409.526	21.95
409.778	21.68
410.031	23.39
410.283	22.86
410.536	27.33
410.788	25.14
411.04	24.04
411.293	25.71
411.545	25.53
411.797	24.72
412.049	23.23
412.302	22.65
412.554	23.03
412.806	21.37
413.058	20.38
413.311	20.49
413.563	19.63
413.815	19.46
414.067	18.69
414.319	17.86
414.571	17.65
414.823	16.87
415.075	15.96
415.328	16.54
415.58	19.54
415.832	21.04
416.084	20.54
416.336	17.84
416.588	20.44
416.84	18.75
417.091	21.09
417.343	17.57
417.595	19.41
417.847	20.34
418.099	20.72
418.351	19.3
418.603	22.32
418.855	23.39
419.106	23.13
419.358	22.14
419.61	21.38
419.862	23.81
420.114	21.01
420.365	20.95
420.617	21.64
420.869	20.19
421.12	19.42
421.372	19.23
421.624	18.63
421.875	18.74
422.127	16.6
422.379	16.96
422.63	18.46
422.882	18.15
423.133	18.47
423.385	16.8
423.636	16.94
423.888	18.74
424.139	22.17
424.391	21.39
424.642	20.66
424.894	19.56
425.145	21.16
425.396	18.38
425.648	20.44
425.899	19.94
426.151	21.01
426.402	20.24
426.653	20.61
426.905	19.7
427.156	18.72
427.407	18.7
427.658	17.82
427.91	17.25
428.161	17.01
428.412	18.6
428.663	19.83
428.914	20.93
429.166	21.85
429.417	22.64
429.668	21.42
429.919	20.02
430.17	19.05
430.421	19.95
430.672	22.16
430.923	23.17
431.174	24.42
431.425	29.47
431.676	36.3
431.927	43.3
432.178	55.8
432.429	67.7
432.68	77.74
432.931	85.89
433.182	93.38
433.433	93.46
433.683	96.71
433.934	96.73
434.185	95.7
434.436	94.75
434.687	95.88
434.937	98.35
435.188	98.1
435.439	97.72
435.69	99.15
435.94	97.74
436.191	97.53
436.442	97.29
436.692	96.37
436.943	94.41
437.194	93.04
437.444	94.46
437.695	97.14
437.945	98.34
438.196	96.99
438.447	96.54
438.697	96.52
438.948	93.73
439.198	86.77
439.449	76.9
439.699	68.07
439.949	55.32
440.2	43.01
440.45	34.36
440.701	26.5
440.951	21.19
441.201	19.23
441.452	16.23
441.702	15.61
441.952	17.94
442.203	17.99
442.453	16.04
442.703	16.29
442.953	18.01
443.204	18.37
443.454	16.8
443.704	17.34
443.954	14.91
444.204	15.02
444.455	16.96
444.705	18.86
444.955	19.56
445.205	20.01
445.455	18.14
445.705	18.08
445.955	17.79
446.205	16.42
446.455	15.77
446.705	18.17
446.955	18.99
447.205	20.84
447.455	21.28
447.705	20.77
447.955	20.4
448.205	18.2
448.454	17.91
448.704	17.84
448.954	16.65
449.204	15.93
449.454	13.99
449.704	11.67
449.953	10.53
450.203	12.37
450.453	11.17
450.703	11.55
450.952	11.51
451.202	13.3
451.452	13.76
451.701	16.48
451.951	19.58
452.201	18.08
452.45	17.01
452.7	17.09
452.949	16.49
453.199	17.03
453.448	18.03
453.698	19.11
453.947	18.23
454.197	17.29
454.446	14.98
454.696	15.34
454.945	15.64
455.195	14.44
455.444	14.93
455.693	18.32
455.943	18.25
456.192	19.6
456.442	19.83
456.691	18.99
456.94	18.95
457.189	19.23
457.439	20.9
457.688	22.26
457.937	21.76
458.186	21.35
458.436	22.14
458.685	22.77
458.934	22.13
459.183	20.32
459.432	21.98
459.681	22.1
459.93	20.07
460.179	19.94
460.429	19.06
460.678	21.97
460.927	24.2
461.176	23.82
461.425	24.02
461.674	27.58
461.923	28.71
462.172	28.72
462.42	29.22
462.669	29.05
462.918	29.66
463.167	30.34
463.416	27.27
463.665	28.15
463.914	27.65
464.162	25.79
464.411	26.54
464.66	28.6
464.909	27.18
465.158	27.12
465.406	27.93
465.655	28.63
465.904	30.16
466.152	29.6
466.401	30.1
466.65	30.7
466.898	31.25
467.147	28.24
467.395	26.73
467.644	28.86
467.893	28.76
468.141	28.09
468.39	25.05
468.638	24.28
468.887	22.85
469.135	22.52
469.384	20.64
469.632	20.81
469.88	20.33
470.129	20.46
470.377	18.19
470.626	20.43
470.874	20.95
471.122	22.52
471.371	20.99
471.619	20.1
471.867	22.32
472.115	22.45
472.364	20.34
472.612	23.35
472.86	22.06
473.108	20.86
473.356	20.85
473.605	19.6
473.853	17.24
474.101	16.82
474.349	15.36
474.597	18.03
474.845	16.88
475.093	16.23
475.341	16.28
475.589	16.07
475.837	18.25
476.085	19.95
476.333	18.03
476.581	19.14
476.829	17.54
477.077	20.34
477.325	19.56
477.573	22.06
477.821	21.97
478.069	23.46
478.317	21.81
478.564	23.45
478.812	22.24
479.06	22.53
479.308	22.82
479.555	23.59
479.803	23.85
480.051	25.53
480.299	26.06
480.546	26.56
480.794	26.58
481.042	28.73
481.289	28.99
481.537	32.38
481.784	32.42
482.032	37.81
482.28	37.13
482.527	39.54
482.775	42.27
483.022	43.35
483.27	46.53
483.517	50.98
483.765	51.96
484.012	54.1
484.259	54.13
484.507	58.66
484.754	59.72
485.002	61.79
485.249	61.99
485.496	65.45
485.744	66.75
485.991	67.73
486.238	67.59
486.486	71.65
486.733	73.92
486.98	76.13
487.227	74.89
487.474	76.53
487.722	79.14
487.969	77.63
488.216	79
488.463	80.45
488.71	78.51
488.957	79.12
489.204	78.4
489.451	78.56
489.699	76.32
489.946	74.05
490.193	73.36
490.44	71.73
490.687	71.9
490.934	68.75
491.18	64.41
491.427	63.77
491.674	63.76
491.921	62.97
492.168	61.39
492.415	58.85
492.662	58.59
492.909	59.36
493.155	58.16
493.402	55.84
493.649	55.5
493.896	54.65
494.142	49.67
494.389	47.21
494.636	45.28
494.883	43.22
495.129	40.91
495.376	37.54
495.623	37.89
495.869	38.14
496.116	37.59
496.362	37.6
496.609	38.55
496.855	41.01
497.102	39.62
497.348	37.65
497.595	37.88
497.841	38.11
498.088	36.29
498.334	34.39
498.581	33.26
498.827	32.24
499.074	32.69
499.32	34.06
499.566	35.71
499.813	34.84
500.059	32.92
500.305	32.48
500.552	30.32
500.798	28.68
501.044	30.68
501.29	28.24
501.537	24.64
501.783	26.81
502.029	28.76
502.275	25.83
502.521	24.56
502.767	25.58
503.013	28.1
503.26	24.57
503.506	22.05
503.752	22.48
503.998	21.22
504.244	21.21
504.49	18.06
504.736	18.89
504.982	18.44
505.228	18.11
505.474	19.09
505.72	19.49
505.966	18.7
506.211	21.33
506.457	21.7
506.703	18.22
506.949	15.97
507.195	14.92
507.441	12.07
507.686	13.28
507.932	12.26
508.178	13.19
508.424	10.72
508.669	9.64
508.915	10.42
509.161	12.55
509.406	13
509.652	12
509.898	15.17
510.143	15.8
510.389	14.48
510.634	10.53
510.88	14.26
511.125	16.33
511.371	16.14
511.616	17.23
511.862	14.03
512.107	12.18
512.353	12.41
512.598	12.89
512.844	12.93
513.089	10.21
513.335	10.4
513.58	11.45
513.825	10.17
514.071	9.17
514.316	9.34
514.561	9.9
514.806	8.73
515.052	11.48
515.297	10.65
515.542	11
515.787	10.36
516.033	12.38
516.278	12.59
516.523	12.2
516.768	11.91
517.013	10.3
517.258	10.48
517.503	9.94
517.748	9.44
517.993	8.76
518.238	9.22
518.483	8.85
518.728	6
518.973	4.82
519.218	3.27
519.463	5.13
519.708	5.14
519.953	4.28
520.198	4.34
520.443	7.35
520.688	10.77
520.933	11.45
521.177	9.61
521.422	8.39
521.667	10.12
521.912	10.18
522.157	8.27
522.401	10.91
522.646	10.62
522.891	10.78
523.135	10.8
523.38	11.43
523.625	10.37
523.869	11.3
524.114	10.91
524.358	10.16
524.603	10.12
524.848	8.12
525.092	7.06
525.337	9.62
525.581	11.3
525.826	12.64
526.07	12.37
526.315	15.48
526.559	14.74
526.803	13.31
527.048	15.04
527.292	16.05
527.537	14.84
527.781	14.76
528.025	9.93
528.269	9.71
528.514	8.81
528.758	8.72
529.002	8.85
529.247	11.19
529.491	10.17
529.735	13.55
529.979	14.01
530.223	15.77
530.467	13.11
530.712	11.89
530.956	12.1
531.2	12.63
531.444	10.88
531.688	12.29
531.932	11.94
532.176	12.69
532.42	14.73
532.664	15.71
532.908	13.03
533.152	13.21
533.396	14.18
533.64	13.44
533.884	11.8
534.128	12.08
534.371	15.19
534.615	17.32
534.859	17.36
535.103	18.62
535.347	19.83
535.59	23.98
535.834	23.73
536.078	27.41
536.322	31.44
536.565	37.64
536.809	38.89
537.053	44.62
537.296	47.76
537.54	51.96
537.784	57.74
538.027	68.95
538.271	78.91
538.514	86.81
538.758	97.43
539.001	106.61
539.245	117.26
539.488	128.36
539.732	138.55
539.975	146.23
540.219	157.17
540.462	166.68
540.706	174.59
540.949	180.23
541.192	187.58
541.436	197.8
541.679	209.06
541.922	219
542.166	226.49
542.409	238.3
542.652	251.17
542.895	264.21
543.139	275.74
543.382	286.83
543.625	293.16
543.868	299.44
544.111	303.75
544.354	307.62
544.598	309.99
544.841	310.67
545.084	310.19
545.327	307.29
545.57	304.24
545.813	300.02
546.056	294.32
546.299	287.8
546.542	283.28
546.785	277.14
547.028	271.6
547.271	263.6
547.514	258.42
547.756	249.76
547.999	243.63
548.242	238.4
548.485	231.65
548.728	226.49
548.971	218.09
549.213	211.17
549.456	200.93
549.699	190.56
549.942	179.07
550.184	166.9
550.427	153.4
550.67	141.8
550.912	128.63
551.155	120.65
551.398	111.17
551.64	102.64
551.883	95.33
552.125	88.71
552.368	83.87
552.61	76.51
552.853	72.75
553.095	68.41
553.338	63.79
553.58	60.55
553.823	56.93
554.065	54.98
554.308	50.21
554.55	45.22
554.792	41.32
555.035	37.76
555.277	35.3
555.519	34.26
555.762	29.3
556.004	27.61
556.246	23.89
556.488	22.11
556.731	16.97
556.973	17.01
557.215	15.03
557.457	13.98
557.699	15.81
557.941	13.32
558.183	11.88
558.426	14.24
558.668	10.77
558.91	10.53
559.152	10.16
559.394	8.81
559.636	9.4
559.878	9.91
560.12	10.03
560.362	10.82
560.604	9.41
560.845	9.01
561.087	7.84
561.329	8.66
561.571	6.05
561.813	6.29
562.055	6.67
562.297	7.75
562.538	6.82
562.78	7.29
563.022	5.35
563.264	7.24
563.505	7.66
563.747	8.05
563.989	7.32
564.23	7.8
564.472	6.51
564.714	8.89
564.955	9.92
565.197	6.21
565.438	7.52
565.68	10.05
565.921	7.43
566.163	9.51
566.404	9.62
566.646	10.66
566.887	12.61
567.129	13.3
567.37	11.59
567.612	12.95
567.853	10.52
568.094	11.35
568.336	10.76
568.577	13.05
568.818	13.74
569.06	11.94
569.301	9.32
569.542	7.8
569.783	8.94
570.025	9.5
570.266	9.75
570.507	10.43
570.748	9.93
570.989	10.14
571.23	11.05
571.472	10.96
571.713	10.53
571.954	11.3
572.195	8.67
572.436	9.79
572.677	12.07
572.918	14.13
573.159	13.47
573.4	14.48
573.641	15.48
573.882	17.02
574.123	16.79
574.364	13.44
574.604	14.29
574.845	14.41
575.086	15.93
575.327	18.22
575.568	18.31
575.809	19.89
576.049	20.51
576.29	19.77
576.531	26.02
576.771	31.31
577.012	36.08
577.253	37.46
577.494	39.27
577.734	41.77
577.975	44.38
578.215	45.83
578.456	46.47
578.697	48.6
578.937	52.39
579.178	54.77
579.418	56.1
579.659	58.69
579.899	58.25
580.14	61.94
580.38	63.55
580.62	65.45
580.861	69.22
581.101	70.27
581.342	72.19
581.582	70.98
581.822	75.97
582.063	77.57
582.303	80.67
582.543	80.94
582.783	84.22
583.024	89.04
583.264	93.21
583.504	93.24
583.744	97.04
583.984	97.39
584.224	98.78
584.465	99.22
584.705	101.37
584.945	103.84
585.185	104.01
585.425	107.15
585.665	107.48
585.905	108.29
586.145	108.86
586.385	107.67
586.625	109.42
586.865	109.21
587.105	110.1
587.345	111.37
587.585	109.69
587.824	107.89
588.064	107.56
588.304	104.33
588.544	104.79
588.784	104.72
589.024	107.05
589.263	108.14
589.503	108.74
589.743	111.51
589.982	114.28
590.222	114.68
590.462	113.37
590.701	112.23
590.941	114.26
591.181	112.29
591.42	111.6
591.66	112.41
591.899	112.49
592.139	110.94
592.378	110.3
592.618	109.7
592.857	107.18
593.097	107.28
593.336	106.89
593.576	106.32
593.815	105.75
594.055	104.83
594.294	104.61
594.533	103.37
594.773	102.32
595.012	102.56
595.251	103.2
595.491	105.72
595.73	108.92
595.969	109.41
596.208	110.76
596.447	114.32
596.687	114.53
596.926	114.43
597.165	111.27
597.404	112.15
597.643	107.89
597.882	104.65
598.121	103.54
598.36	103.27
598.599	103.31
598.838	100.39
599.077	97.34
599.316	96.88
599.555	95.76
599.794	95.55
600.033	95.77
600.272	95.6
600.511	94.74
600.75	96.65
600.989	96.34
601.228	96.59
601.466	96.43
601.705	96.67
601.944	96.73
602.183	98.55
602.422	96.94
602.66	96.09
602.899	93.49
603.138	92
603.376	90.6
603.615	89.01
603.854	86.66
604.092	85.55
604.331	86.77
604.569	87.17
604.808	85.42
605.047	90.76
605.285	94.03
605.524	96.88
605.762	98.32
606	104.28
606.239	113.46
606.477	123.28
606.716	134.31
606.954	154.48
607.193	180.5
607.431	216.11
607.669	263.25
607.908	316.44
608.146	374.99
608.384	434.7
608.622	492.85
608.861	546.51
609.099	595.28
609.337	638.2
609.575	676.33
609.813	713.68
610.052	744.29
610.29	768.24
610.528	791.81
610.766	813.41
611.004	832.68
611.242	850.33
611.48	866.65
611.718	879.54
611.956	893.68
612.194	903.73
612.432	911.51
612.67	919.71
612.908	926.44
613.146	929.32
613.384	930.59
613.621	929.57
613.859	925.95
614.097	917.83
614.335	901.38
614.573	877.88
614.811	845.62
615.048	800.51
615.286	751.94
615.524	695.38
615.761	637.51
615.999	583.75
616.237	532.31
616.474	487.79
616.712	449.48
616.95	413.52
617.187	379.6
617.425	354.13
617.662	331.83
617.9	310.81
618.137	290.98
618.375	273.5
618.612	256.5
618.85	243.87
619.087	233.06
619.325	221.2
619.562	210.95
619.799	202.45
620.037	195.2
620.274	188.15
620.511	186.98
620.749	182.02
620.986	178.95
621.223	175.44
621.461	173.43
621.698	175.5
621.935	175.57
622.172	174.35
622.409	177.91
622.647	177.18
622.884	178.41
623.121	180.95
623.358	179.9
623.595	181.6
623.832	181.87
624.069	180.52
624.306	181.76
624.543	183.91
624.78	184.31
625.017	184.94
625.254	186.58
625.491	188.04
625.728	188.98
625.965	188.76
626.202	187.84
626.438	186.94
626.675	186.86
626.912	190.87
627.149	193.14
627.386	194.65
627.622	197.18
627.859	197.99
628.096	200.96
628.333	201.72
628.569	203.81
628.806	206.56
629.043	205.84
629.279	205.91
629.516	204.73
629.752	197.96
629.989	196.3
630.225	191.23
630.462	187.62
630.699	183.93
630.935	179.62
631.171	175.1
631.408	170.94
631.644	164.74
631.881	158.14
632.117	152
632.354	147.46
632.59	141.84
632.826	137.25
633.063	133.36
633.299	130.57
633.535	124.32
633.771	118.91
634.008	115.65
634.244	109.55
634.48	102.12
634.716	96.81
634.953	89.37
635.189	81.87
635.425	75.71
635.661	71.17
635.897	63.7
636.133	57.19
636.369	50.66
636.605	43.84
636.841	41.22
637.077	40.86
637.313	37.77
637.549	36.28
637.785	34.36
638.021	33.5
638.257	31.78
638.493	30.62
638.729	29.28
638.965	31.09
639.2	32.47
639.436	31.4
639.672	32.03
639.908	30.18
640.144	33.09
640.379	34.83
640.615	32.83
640.851	33.99
641.086	35.51
641.322	34.75
641.558	34.59
641.793	35.52
642.029	32.76
642.264	31.78
642.5	31.87
642.736	30.11
642.971	30.97
643.207	30.8
643.442	30.53
643.678	30.74
643.913	32.42
644.148	32.24
644.384	33.49
644.619	34.83
644.855	36.36
645.09	38.18
645.325	37.83
645.561	38.45
645.796	37.86
646.031	40.04
646.266	38.72
646.502	39.06
646.737	41.38
646.972	42.06
647.207	42.96
647.442	42.15
647.678	41
647.913	45.31
648.148	47.36
648.383	47.28
648.618	47.49
648.853	47.95
649.088	49.39
649.323	52.18
649.558	54.1
649.793	54.39
650.028	54.61
650.263	51.63
650.498	53.29
650.733	52.54
650.968	52.55
651.202	54.03
651.437	51.71
651.672	49.45
651.907	48.01
652.142	48.62
652.376	47.26
652.611	48.57
652.846	49.86
653.081	51.15
653.315	49.38
653.55	49.37
653.785	48.08
654.019	49.36
654.254	47.11
654.488	47.19
654.723	43.91
654.958	41.37
655.192	37.81
655.427	34.45
655.661	34.06
655.896	36.07
656.13	35.84
656.364	34.18
656.599	32.42
656.833	33.93
657.068	35.85
657.302	34.41
657.536	33.84
657.771	34.73
658.005	35.59
658.239	35.62
658.474	33.29
658.708	35.09
658.942	35.77
659.176	35.15
659.41	33.41
659.645	34.32
659.879	34.72
660.113	31.63
660.347	30.88
660.581	30.26
660.815	29.36
661.049	29.83
661.283	27.47
661.517	26.41
661.751	25.89
661.985	26.2
662.219	27.48
662.453	26.03
662.687	27.07
662.921	23.96
663.155	22.48
663.389	17.63
663.622	15.13
663.856	16.96
664.09	13.71
664.324	12.43
664.558	13.96
664.791	13.33
665.025	11.77
665.259	11.6
665.492	10.08
665.726	12.52
665.96	11.67
666.193	9.5
666.427	9.21
666.661	8.15
666.894	4.69
667.128	3.17
667.361	4.42
667.595	2.93
667.828	3.03
668.062	3.32
668.295	1.48
668.529	0.75
668.762	1.52
668.995	0.78
669.229	2.21
669.462	1.76
669.695	3.3
669.929	1.51
670.162	3.22
670.395	1.7
670.629	3.92
670.862	6.46
671.095	2.9
671.328	4.39
671.561	2.44
671.795	3.41
672.028	4.02
672.261	4.45
672.494	4.96
672.727	4.89
672.96	4.7
673.193	4.02
673.426	8.94
673.659	9.82
673.892	10.09
674.125	10.51
674.358	10.02
674.591	10.13
674.824	9.68
675.057	9.17
675.29	7.35
675.523	9.14
675.755	9.79
675.988	10.33
676.221	12.88
676.454	11.97
676.687	13.71
676.919	13.5
677.152	15.21
677.385	14.78
677.617	16.42
677.85	16.72
678.083	14.96
678.315	16.92
678.548	15.01
678.78	14.49
679.013	13.2
679.246	13.36
679.478	15.1
679.711	14.04
679.943	16.02
680.175	14.36
680.408	17.7
680.64	13.63
680.873	14.91
681.105	16.36
681.338	18.53
681.57	17.7
681.802	19.46
682.034	19.5
682.267	21.24
682.499	23.26
682.731	20.98
682.964	19.98
683.196	18.27
683.428	16.39
683.66	17.01
683.892	18.58
684.124	19.73
684.356	22.21
684.589	23.31
684.821	22.48
685.053	23.37
685.285	24.57
685.517	27.09
685.749	28.08
685.981	30.24
686.213	30.86
686.445	31.13
686.676	29.5
686.908	32.18
687.14	30.15
687.372	30.88
687.604	28.38
687.836	28.39
688.068	26.37
688.299	24.73
688.531	24.72
688.763	27.79
688.995	25.19
689.226	27.65
689.458	27.72
689.69	26.05
689.921	25.59
690.153	26.04
690.384	27.87
690.616	27.95
690.848	27.95
691.079	24.59
691.311	23.33
691.542	20.12
691.774	17.87
692.005	18.69
692.237	21.92
692.468	19.94
692.699	17.57
692.931	17.67
693.162	15.02
693.393	13.98
693.625	13.28
693.856	12.61
694.087	9.93
694.319	11.67
694.55	11.49
694.781	11.32
695.012	12.79
695.243	12.09
695.475	11.17
695.706	10.27
695.937	9.64
696.168	8.54
696.399	6.94
696.63	5.98
696.861	6.41
697.092	10.76
697.323	11.69
697.554	11.63
697.785	11.08
698.016	9.8
698.247	9.21
698.478	8.73
698.709	9.99
698.94	11.49
699.171	10.62
699.401	6.34
699.632	7.8
699.863	6.33
700.094	5.99
700.325	8.8
700.555	9.48
700.786	10.92
701.017	10.79
701.247	10.95
701.478	10.35
701.709	10.77
701.939	9.56
702.17	10.11
702.401	12.19
702.631	14.68
702.862	14.77
703.092	14.48
703.323	19.42
703.553	22.77
703.784	24.49
704.014	27.41
704.244	24.75
704.475	25.89
704.705	28.38
704.936	30.97
705.166	33.33
705.396	36.24
705.627	38.97
705.857	40.74
706.087	43.68
706.317	44.06
706.548	44.87
706.778	46.96
707.008	50.16
707.238	51.05
707.468	49.74
707.698	49.8
707.928	49.61
708.158	50.67
708.389	52.22
708.619	53.24
708.849	52.58
709.079	55.04
709.309	55.07
709.539	55.33
709.768	56.24
709.998	59.02
710.228	59.19
710.458	57.08
710.688	53.33
710.918	52.54
711.148	49.02
711.378	48.57
711.607	46.34
711.837	44.9
712.067	42.97
712.297	40.76
712.526	39.15
712.756	37.53
712.986	33.73
713.215	28.09
713.445	25.74
713.674	26.58
713.904	23.37
714.134	23.6
714.363	21.93
714.593	21.65
714.822	20.3
715.052	19.03
715.281	18.14
715.511	16.41
715.74	15.02
715.969	14.13
716.199	11.09
716.428	8.8
716.657	7.09
716.887	6.86
717.116	2.51
717.345	2.71
717.575	1.09
717.804	1.58
718.033	0.2
718.262	-0.63
718.492	0.21
718.721	0.62
718.95	-0.71
719.179	-1.75
719.408	-1.23
719.637	-3.43
719.866	-4.1
720.095	-3.56
720.324	-2.69
720.553	-3.43
720.782	-5.74
721.011	-5.16
721.24	-8.39
721.469	-9.02
721.698	-8.75
721.927	-7.85
722.156	-8.98
722.385	-9.51
722.613	-7.21
722.842	-7.76
723.071	-6.31
723.3	-3.5
723.529	-3.4
723.757	-3.44
723.986	-5.37
724.215	-5.19
724.443	-4.37
724.672	-2.15
724.901	-1.74
725.129	-1.53
725.358	1.52
725.586	-1.61
725.815	-2.97
726.043	-3.6
726.272	-4.99
726.5	-5.22
726.729	-5.14
726.957	-8.75
727.186	-8.71
727.414	-7.59
727.642	-5.92
727.871	-4.09
728.099	-4.08
728.327	-4.07
728.556	-1.59
728.784	-1.39
729.012	-3.15
729.241	-1.89
729.469	-2.35
729.697	-5.63
729.925	-4.24
730.153	-4.78
730.381	-6.16
730.61	-5.32
730.838	-6.02
731.066	-5.87
731.294	-6.32
731.522	-9.71
731.75	-13.64
731.978	-14.27
732.206	-13.86
732.434	-14.95
732.662	-13.62
732.89	-14.29
733.118	-15.18
733.346	-14.66
733.573	-13.94
733.801	-12.91
734.029	-6.73
734.257	-6.7
734.485	-4.92
734.712	-4.3
734.94	-6.39
735.168	-3.63
735.396	-3.4
735.623	-5.33
735.851	-4.93
736.078	-3.3
736.306	-0.9
736.534	-1.74
736.761	-0.73
736.989	-2.74
737.216	-3.22
737.444	-4.09
737.671	-5.2
737.899	-2.28
738.126	-3.48
738.354	-2.41
738.581	-2.22
738.809	0.03
739.036	-1.45
739.263	-1.49
739.491	-3.87
739.718	-3.25
739.945	0.64
740.173	2.9
740.4	2.74
740.627	0.9
740.854	0.33
741.081	-1.11
741.309	-2.89
741.536	-5.85
741.763	-7.04
741.99	-6.18
742.217	-7.63
742.444	-7.59
742.671	-5.57
742.898	-4.85
743.125	-6.58
743.352	-10.9
743.579	-10.14
743.806	-10.4
744.033	-7.63
744.26	-7.16
744.487	-7.59
744.714	-5.55
744.941	-6.74
745.167	-3.53
745.394	-4.54
745.621	-4.08
745.848	-5.14
746.075	-2.4
746.301	1.38
746.528	5.38
746.755	3.36
746.981	2.8
747.208	2.96
747.435	5.08
747.661	6.57
747.888	8.31
748.114	5.74
748.341	7.71
748.567	9.65
748.794	8.67
749.02	7.67
749.247	6.23
749.473	6.49
749.7	5.32
749.926	4.14
750.152	6.66
750.379	8.25
750.605	8.32
750.831	8.72
751.058	7.78
751.284	6.03
751.51	10.08
751.737	9.88
751.963	9.37
752.189	8.15
752.415	7.9
752.641	7.98
752.867	8.98
753.094	6.44
753.32	3.57
753.546	1.36
753.772	4.23
753.998	4.13
754.224	3.49
754.45	2.48
754.676	1.96
754.902	0.74
755.128	1.33
755.354	1.17
755.579	0.84
755.805	2.16
756.031	1.84
756.257	2.03
756.483	0.46
756.709	-0.67
756.934	-0.81
757.16	-2.91
757.386	-1.84
757.612	-3.1
757.837	-4.58
758.063	-2.15
758.289	0.57
758.514	-2.81
758.74	-4.97
758.965	-5.57
759.191	-5.4
759.416	-3.75
759.642	-2.13
759.868	-1.88
760.093	0.75
760.318	-0.02
760.544	1.31
760.769	1.1
760.995	-0.48
761.22	-0
761.445	1.75
761.671	2.5
761.896	4.32
762.121	4.89
762.347	5.61
762.572	4.72
762.797	4.05
763.022	5.08
763.248	7.71
763.473	8.7
763.698	7.87
763.923	9.05
764.148	9.86
764.373	9.19
764.598	10.3
764.823	11.92
765.048	8.52
765.273	6.81
765.498	6.52
765.723	7.89
765.948	7.53
766.173	7.47
766.398	6.92
766.623	4.88
766.848	5.01
767.073	2.9
767.298	2.98
767.522	1.43
767.747	1.26
767.972	1.33
768.197	0.73
768.421	-1.54
768.646	-4.53
768.871	-7.33
769.095	-7.68
769.32	-7.2
769.545	-7.63
769.769	-6.51
769.994	-5.88
770.218	-8.15
770.443	-6.68
770.667	-6.16
770.892	-7.1
771.116	-6.65
771.341	-4.97
771.565	-5.27
771.79	-6.26
772.014	-7.61
772.238	-8.52
772.463	-7.05
772.687	-5.96
772.911	-5.31
773.136	-7.39
773.36	-6.04
773.584	-4.77
773.808	-6.4
774.033	-5.06
774.257	-5.76
774.481	-5.8
774.705	-6.3
774.929	-6.66
775.153	-6.4
775.377	-5.01
775.602	-5.14
775.826	-3.17
776.05	-1.23
776.274	-1.84
776.498	-2.26
776.722	-2.48
776.945	-2.13
777.169	-2.1
777.393	-3.82
777.617	-3.39
777.841	-2.91
778.065	-2.82
778.289	-5.21
778.512	-5.18
778.736	-3.82
778.96	-2.46
779.184	-2.14
779.407	-3.08
779.631	-4.24
779.855	-5.53
780.078	-3.51
780.302	-5.06
780.526	-6.9
780.749	-7.13
780.973	-6.28
781.196	-5.15
781.42	-5.55
781.643	-5.1
781.867	-4.45
782.09	-5.72
782.314	-6.26
782.537	-5.32
782.76	-7.12
782.984	-5.63
783.207	-6.66
783.431	-4.97
783.654	-5.88
783.877	-7.09
784.1	-7.8
784.324	-8.24
784.547	-7.9
784.77	-10.41
784.993	-11.74
785.216	-11.05
785.44	-11.3
785.663	-12.64
785.886	-11.67
786.109	-10.9
786.332	-9.84
786.555	-8.81
786.778	-8.05
787.001	-6.57
787.224	-4.8
787.447	-3.74
787.67	-2.53
787.893	-2.84
788.116	-2.71
788.339	-1.35
788.561	-2.35
788.784	-5.02
789.007	-5.94
789.23	-6.57
789.453	-6.49
789.675	-6.07
789.898	-10.55
790.121	-10.52
790.344	-12.76
790.566	-11.94
790.789	-11.55
791.012	-11.73
791.234	-8.41
791.457	-6.18
791.679	-4.22
791.902	-3.53
792.124	-4.32
792.347	-4.69
792.569	-5.32
792.792	-7.7
793.014	-6.88
793.237	-7.53
793.459	-7.87
793.681	-6.99
793.904	-10.31
794.126	-11.98
794.348	-12.24
794.571	-12.84
794.793	-14.52
795.015	-13.98
795.237	-13.9
795.46	-12.88
795.682	-11.79
795.904	-8.94
796.126	-10.15
796.348	-10.11
796.57	-8.51
796.792	-6.36
797.014	-4.21
797.237	-1.57
797.459	-1.8
797.681	-2.9
797.903	-3.25
798.124	-4.89
798.346	3.23
798.568	4.16
798.79	6.48
799.012	8.23
799.234	8.67
799.456	9.54
799.678	12.49
799.899	11.23
800.121	10.55
800.343	10.79
800.565	10.02
800.786	12.11
801.008	12.87
801.23	14.3
801.451	16.44
801.673	16.13
801.895	15.45
802.116	15.69
802.338	15.16
802.559	15.19
802.781	12.19
803.002	13.78
803.224	14.38
803.445	12.62
803.667	13.1
803.888	11.21
804.109	10.79
804.331	10.43
804.552	12.27
804.773	13.43
804.995	12.21
805.216	1.75
805.437	-1.39
805.658	-3.32
805.88	-4.47
806.101	-3.43
806.322	-3.73
806.543	-4.93
806.764	-5.54
806.985	-4.41
807.207	-5.58
807.428	-5.14
807.649	-7.81
807.87	-9.36
808.091	-9.54
808.312	-9.34
808.533	-4.61
808.754	-3.64
808.975	-5.42
809.195	-2.94
809.416	-3.12
809.637	-3.1
809.858	-4.16
810.079	-4.04
810.3	-2.15
810.52	-2.49
810.741	-4.09
810.962	-4.64
811.183	-4.29
811.403	-3.93
811.624	-4.2
811.845	-2.26
812.065	-1.83
812.286	0.18
812.506	0.33
812.727	0.37
812.948	1.99
813.168	4.34
813.389	4.01
813.609	4.8
813.83	3.85
814.05	2.72
814.27	3.08
814.491	6.42
814.711	5.3
814.931	2.04
815.152	1.48
815.372	-1.72
815.592	-2.57
815.813	-2.46
816.033	-3.9
816.253	-3.43
816.473	-3.83
816.694	-2.37
816.914	-2.12
817.134	-2.47
817.354	-3.78
817.574	-1.62
817.794	-2.28
818.014	-3.23
818.234	-4.36
818.454	-5.98
818.674	-8.15
818.894	-10.43
819.114	-9.04
819.334	-9.6
819.554	-8.37
819.774	-8.32
819.994	-10.19
820.214	-11.02
820.433	-11.6
820.653	-11.24
820.873	-8.12
821.093	-7.98
821.312	-9.49
821.532	-6.23
821.752	-2.6
821.972	-3.66
822.191	-1.39
822.411	-1.69
822.63	-2.58
822.85	-2.99
823.07	-3.75
823.289	-1.57
823.509	-2.4
823.728	-0.85
823.948	-1.93
824.167	-2.66
824.387	-4.56
824.606	-3.59
824.825	-3.8
825.045	-3.38
825.264	-2.62
825.483	-2.04
825.703	0.38
825.922	-1.37
826.141	-1.54
826.361	-1.91
826.58	-4.95
826.799	-5.93
827.018	-5.08
827.237	-3.93
827.456	-3.04
827.676	-3.73
827.895	-3.07
828.114	-2.75
828.333	-2.44
828.552	-3.75
828.771	-1.96
828.99	-4.78
829.209	-5.49
829.428	-2.88
829.647	-2.66
829.866	-1.5
830.084	-2.32
830.303	-2.47
830.522	-3.46
830.741	-3.82
830.96	-2.53
831.179	-1.1
831.397	-2.1
831.616	-0.9
831.835	-1.23
832.053	-0.22
832.272	2.02
832.491	3.27
832.709	2.34
832.928	2.42
833.147	2.16
833.365	4.1
833.584	6.18
833.802	7.98
834.021	7.04
834.239	7.62
834.458	5.56
834.676	2.87
834.894	1.99
835.113	0.45
835.331	-1.14
835.55	-4.2
835.768	-4.28
835.986	-2.08
836.204	-3.16
836.423	-2.6
836.641	-4.15
836.859	-4.81
837.077	-5.02
837.296	-5.07
837.514	-6.08
837.732	-6.95
837.95	-9.57
838.168	-7.71
838.386	-9.53
838.604	-8.42
838.822	-8.12
839.04	-10.66
839.258	-10.11
839.476	-8.51
839.694	-7.69
839.912	-8.98
840.13	-9.29
840.348	-7
840.566	-10.24
840.783	-8.51
841.001	-10
841.219	-8.11
841.437	-6.54
841.655	-6.1
841.872	-6.4
842.09	-5.15
842.308	-3.3
842.525	-1.91
842.743	-1.54
842.961	-2.26
843.178	-4.59
843.396	-1.34
843.613	-1.26
843.831	0.57
844.048	-0.86
844.266	-0
844.483	0.74
844.701	1.41
844.918	1.08
845.136	1.58
845.353	0.55
845.57	0.81
845.788	2.24
846.005	-1.02
846.222	-2.03
846.439	-0.94
846.657	0.13
846.874	0.33
847.091	-1.96
847.308	0.15
847.526	-1.07
847.743	-1.17
847.96	-3.26
848.177	-4.47
848.394	-3.48
848.611	-3.18
848.828	-3.25
849.045	-3.83
849.262	-3.33
849.479	-3.6
849.696	-3.7
849.913	-5.13
850.13	-7.98
850.347	-5.51
850.564	-5.58
850.78	-5.93
850.997	-6.59
851.214	-7.95
851.431	-7.14
851.647	-9.53
851.864	-9.75
852.081	-8.82
852.298	-11.49
852.514	-11.44
852.731	-10.9
852.948	-9.44
853.164	-9.29
853.381	-11.16
853.597	-12.28
853.814	-14.35
854.03	-16.39
854.247	-14.87
854.463	-14.26
854.68	-13.11
854.896	-12
855.113	-12.53
855.329	-12.19
855.545	-11.27
855.762	-12.18
855.978	-15.28
856.194	-18.18
856.411	-15.34
856.627	-13.2
856.843	-13.34
857.059	-12.36
857.275	-14.5
857.492	-13.28
857.708	-11
857.924	-10.15
858.14	-8.49
858.356	-8.2
858.572	-7.47
858.788	-8.46
859.004	-6.34
859.22	-8.73
859.436	-8.59
859.652	-9.52
859.868	-12.04
860.084	-10.75
860.3	-10.36
860.516	-10.62
860.731	-10.98
860.947	-12.64
861.163	-11.77
861.379	-11.04
861.595	-9.83
861.81	-9.37
862.026	-9.03
862.242	-9.95
862.457	-9.11
862.673	-8.52
862.889	-6.63
863.104	-7.76
863.32	-7.72
863.535	-6.43
863.751	-9.41
863.966	-7.86
864.182	-7.12
864.397	-8.49
864.613	-8.78
864.828	-10.5
865.044	-9.32
865.259	-7.91
865.474	-8.23
865.69	-8.12
865.905	-6.74
866.12	-8.22
866.336	-9.37
866.551	-7.82
866.766	-8.88
866.981	-9.58
867.196	-9.28
867.412	-7.74
867.627	-8.67
867.842	-9.61
868.057	-11.23
868.272	-13.05
868.487	-14.5
868.702	-15.72
868.917	-16.12
869.132	-14.85
869.347	-14.05
869.562	-16.68
869.777	-16.86
869.992	-16.32
870.207	-17.95
870.422	-18.46
870.636	-19.7
870.851	-20.46
871.066	-20.91
871.281	-20.81
871.495	-20.63
871.71	-19.5
871.925	-21.73
872.14	-22.67
872.354	-24.14
872.569	-24.29
872.783	-20.68
872.998	-20.01
873.213	-20.54
873.427	-17.72
873.642	-16.52
873.856	-15.75
874.071	-16.13
874.285	-15.65
874.5	-16.92
874.714	-17.75
874.928	-16.76
875.143	-17.07
875.357	-17.75
875.571	-18.44
875.786	-18.09
876	-15.25
876.214	-12.61
876.429	-14.83
876.643	-14.28
876.857	-11.19
877.071	-10.52
877.285	-10.24
877.499	-12.08
877.714	-11.45
877.928	-9.58
878.142	-11
878.356	-12.85
878.57	-11.32
878.784	-9.64
878.998	-9.71
879.212	-8.26
879.426	-11.39
879.639	-9.95
879.853	-10.21
880.067	-10.88
880.281	-12.3
880.495	-10.29
880.709	-8.81
880.922	-8.38
881.136	-7.62
881.35	-5.98
881.564	-6.91
881.777	-7.74
881.991	-7
882.205	-3.91
882.418	-5.03
882.632	-7.79
882.845	-7.72
883.059	-6.07
883.273	-7.14
883.486	-9
883.7	-7.11
883.913	-7.03
884.126	-5.56
884.34	-7.09
884.553	-9.32
884.767	-5.8
884.98	-5.2
885.193	-5.5
885.407	-5.91
885.62	-5.14
885.833	-5.72
886.046	-3.77
886.26	-5.18
886.473	-6.14
886.686	-7.66
886.899	-5.44
887.112	-8.59
887.326	-9.93
887.539	-9.1
887.752	-6.71
887.965	-8.31
888.178	-7.02
888.391	-6.56
888.604	-6.58
888.817	-8.48
889.03	-7.78
889.243	-8.12
889.455	-9.51
889.668	-10.39
889.881	-9.19
890.094	-9.54
890.307	-12.13
890.52	-11.41
890.732	-11.14
890.945	-11.21
891.158	-11.84
891.37	-13.48
891.583	-13.6
891.796	-12.79
892.008	-14.72
892.221	-14.61
892.434	-16.47
892.646	-17.59
892.859	-18.07
893.071	-15.88
893.284	-14.24
893.496	-16.27
893.709	-15.04
893.921	-15.06
894.133	-15.71
894.346	-16.93
894.558	-16.5
894.771	-17.16
894.983	-14.82
895.195	-14
895.407	-13.45
895.62	-16.33
895.832	-15.56
896.044	-14.22
896.256	-14.45
896.468	-14.34
896.681	-13.12
896.893	-10.93
897.105	-11.3
897.317	-12.27
897.529	-11.47
897.741	-9.97
897.953	-8.43
898.165	-10.14
898.377	-12.01
898.589	-10.55
898.801	-11.35
899.013	-9.08
899.224	-6.34
899.436	-4.56
899.648	-7.16
899.86	-8.02
900.072	-5.42
900.283	-4
900.495	-2.51
900.707	-3.55
900.919	-5.2
901.13	-3.86
901.342	-4.96
901.554	-6.68
901.765	-6.88
901.977	-8.08
902.188	-7.25
902.4	-8.72
902.611	-11.32
902.823	-11.59
903.034	-13.98
903.246	-15.71
903.457	-16.7
903.669	-18.15
903.88	-17.53
904.091	-18.03
904.303	-17.46
904.514	-18.62
904.725	-16.17
904.936	-15.17
905.148	-14.89
905.359	-13.48
905.57	-14.97
905.781	-17.28
905.992	-17.88
906.204	-15.69
906.415	-15.8
906.626	-17.03
906.837	-15.63
907.048	-16.44
907.259	-15.11
907.47	-15.02
907.681	-15.64
907.892	-13.14
908.103	-14.48
908.314	-15.8
908.525	-14.28
908.735	-13.74
908.946	-13.42
909.157	-12.6
909.368	-11.58
909.579	-11.05
909.789	-11.36
910	-13.48
910.211	-11.57
910.421	-12.99
910.632	-10.98
910.843	-13.4
911.053	-10.89
911.264	-9.12
911.475	-9.98
911.685	-10.5
911.896	-10.38
912.106	-9.16
912.317	-10.05
912.527	-8.66
912.737	-9.93
912.948	-8.91
913.158	-9.21
913.369	-11.79
913.579	-11.26
913.789	-11.57
914	-9.78
914.21	-9.43
914.42	-9.85
914.63	-9.07
914.841	-7.89
915.051	-7.46
915.261	-6.3
915.471	-4.09
915.681	-3.37
915.891	-3.34
916.101	-3.66
916.311	-2.48
916.521	-1.14
916.731	-0.32
916.941	2.79
917.151	1.45
917.361	4.26
917.571	0.13
917.781	-2.36
917.991	-4.01
918.201	-2.01
918.411	-4
918.621	-4.45
918.83	-3.95
919.04	-6.19
919.25	-4.26
919.46	-3.57
919.669	-5.84
919.879	-5.71
920.089	-6.24
920.298	-7.6
920.508	-6.84
920.717	-7.37
920.927	-9.59
921.136	-9.06
921.346	-9.92
921.555	-12.08
921.765	-13.76
921.974	-15.75
922.184	-17.29
922.393	-17.04
922.603	-17.66
922.812	-17.09
923.021	-17.5
923.23	-19.6
923.44	-23.66
923.649	-23.32
923.858	-24.17
924.067	-22.94
924.277	-24.22
924.486	-22.19
924.695	-23.75
924.904	-22.5
925.113	-22.89
925.322	-20.95
925.531	-19.86
925.74	-21.06
925.949	-22.48
926.158	-20.74
926.367	-21.65
926.576	-21.11
926.785	-20.6
926.994	-22.46
927.203	-20.97
927.412	-20.86
927.621	-20.86
927.83	-19.57
928.038	-19.99
928.247	-19.53
928.456	-19.14
928.665	-19
928.873	-18.56
929.082	-16.52
929.291	-16.94
929.499	-15.47
929.708	-16.58
929.916	-14.36
930.125	-15.17
930.333	-15.61
930.542	-14.1
930.75	-11.9
930.959	-10.83
931.167	-10.91
931.376	-9.46
931.584	-7.42
931.793	-7.55
932.001	-8.38
932.209	-10.22
932.418	-10.61
932.626	-11.27
932.834	-11.98
933.042	-14.93
933.251	-15.48
933.459	-16.58
933.667	-17.43
933.875	-16.11
934.083	-14.74
934.291	-13.9
934.499	-12.6
934.707	-12.52
934.915	-12.71
935.123	-11.82
935.331	-12.68
935.539	-15
935.747	-15.36
935.955	-15.28
936.163	-14.52
936.371	-14.53
936.579	-13.43
936.787	-14.25
936.995	-16.53
937.202	-16.81
937.41	-17.07
937.618	-16.6
937.826	-17.94
938.033	-21.14
938.241	-23.02
938.449	-20.08
938.656	-17.7
938.864	-17.1
939.071	-17.03
939.279	-15.43
939.486	-12.07
939.694	-12.41
939.901	-11.62
940.109	-11.31
940.316	-11.55
940.524	-13.14
940.731	-14.45
940.939	-12.97
941.146	-12.25
941.353	-13.53
941.561	-12.79
941.768	-13.46
941.975	-10.39
942.182	-10.56
942.39	-10.88
942.597	-7.98
942.804	-6.88
943.011	-6.61
943.218	-5.15
943.425	-4.26
943.632	-3.65
943.839	-5.57
944.046	-6.7
944.253	-6.97
944.46	-7.46
944.667	-4.82
944.874	-6.92
945.081	-5.24
945.288	-4.81
945.495	-2.87
945.702	-1.59
945.909	-3.89
946.115	-1.6
946.322	-2.97
946.529	-3.9
946.736	-3.13
946.942	-1.53
947.149	-1.41
947.356	-2.99
947.562	-3.76
947.769	-2.37
947.976	-3.12
948.182	-1.51
948.389	-4.3
948.595	-4.2
948.802	-4.32
949.008	-6.16
949.215	-7.69
949.421	-8.88
949.628	-9.7
949.834	-10.12
950.04	-10.74
950.247	-6.5
950.453	-5.38
950.659	-7.44
950.865	-5.92
951.072	-8.81
951.278	-7.54
951.484	-10.03
951.69	-12.96
951.896	-13.5
952.103	-14.8
952.309	-13.33
952.515	-14.06
952.721	-13.13
952.927	-11.36
953.133	-13.19
953.339	-14.59
953.545	-15.31
953.751	-14.16
953.957	-13.97
954.163	-14.78
954.369	-13.42
954.574	-15.19
954.78	-15.32
954.986	-14.58
955.192	-12.98
955.398	-13.13
955.603	-13.51
955.809	-10.55
956.015	-10.5
956.22	-10.07
956.426	-9.44
956.632	-12.67
956.837	-12.9
957.043	-11.23
957.248	-10.79
957.454	-10.29
957.66	-12.84
957.865	-12.52
958.07	-9.17
958.276	-11.62
958.481	-11.64
958.687	-13.29
958.892	-13.17
959.097	-13.86
959.303	-14.79
959.508	-14.27
959.713	-13.83
959.919	-13.82
960.124	-14.77
960.329	-12.81
960.534	-11.15
960.739	-11.26
960.945	-9.47
961.15	-9.1
961.355	-10.22
961.56	-13.64
961.765	-13.5
961.97	-12.95
962.175	-12.87
962.38	-13.9
962.585	-12.84
962.79	-13.92
962.995	-14
963.2	-15.15
963.404	-15.1
963.609	-16.95
963.814	-17.5
964.019	-18.13
964.224	-20.53
964.428	-21.33
964.633	-18.78
964.838	-19.7
965.042	-18.55
965.247	-20.45
965.452	-19.13
965.656	-17.66
965.861	-17.26
966.066	-18.21
966.27	-16.09
966.475	-14.19
966.679	-18.62
966.884	-17.66
967.088	-17.96
967.292	-17.99
967.497	-16.27
967.701	-17.02
967.906	-15.92
968.11	-15.75
968.314	-13.54
968.518	-15.95
968.723	-15.4
968.927	-15.3
969.131	-14.55
969.335	-12.36
969.539	-11.35
969.744	-10.65
969.948	-8.04
970.152	-6.97
970.356	-5.7
970.56	-3.85
970.764	-3.89
970.968	-2.45
971.172	-0.11
971.376	-0.17
971.58	1.08
971.784	1.33
971.988	-1.28
972.192	0.54
972.395	0.74
972.599	-2.05
972.803	-2.91
973.007	-1.12
973.21	-2.29
973.414	-3.52
973.618	-4.42
973.822	-5.93
974.025	-4.12
974.229	-3.94
974.432	-5.2
974.636	-7.74
974.84	-6.67
975.043	-5.63
975.247	-6.61
975.45	-7.65
975.654	-7.31
975.857	-6.42
976.06	-6.1
976.264	-7.36
976.467	-7.01
976.671	-6.62
976.874	-6.24
977.077	-7.85
977.28	-9.92
977.484	-12.79
977.687	-13.04
977.89	-12.26
978.093	-12.93
978.297	-12.33
978.5	-14.92
978.703	-13.84
978.906	-12.63
979.109	-11.74
979.312	-9.96
979.515	-10.58
979.718	-10.72
979.921	-10.03
980.124	-10.17
980.327	-11.09
980.53	-10.35
980.733	-8.93
980.936	-5.99
981.138	-6.92
981.341	-6.32
981.544	-6.19
981.747	-6.68
981.949	-8.26
982.152	-8.78
982.355	-10.05
982.558	-7.71
982.76	-9.92
982.963	-11.09
983.165	-11.39
983.368	-9.74
983.571	-8.54
983.773	-5.35
983.976	-4.6
984.178	-3.12
984.381	-3.57
984.583	-5.44
984.785	-5.14
984.988	-2.69
985.19	-1.36
985.392	-3.53
985.595	-5.96
985.797	-5.84
985.999	-4.52
986.202	-3.83
986.404	-3.73
986.606	-1.63
986.808	-2.44
987.01	-1.59
987.212	-2.44
987.415	-4.36
987.617	-4.3
987.819	-4.27
988.021	-3.14
988.223	-4.25
988.425	-4.59
988.627	-3.94
988.829	-7.61
989.031	-5.72
989.232	-5.75
989.434	-4.43
989.636	-5.11
989.838	-5.9
990.04	-6
990.242	-7.51
990.443	-9.98
990.645	-7.8
990.847	-4.17
991.048	-3.96
991.25	-6.54
991.452	-7.59
991.653	-7.77
991.855	-7.73
992.057	-8.64
992.258	-7.26
992.46	-7.66
992.661	-6.45
992.863	-7.89
993.064	-8.63
993.265	-9.31
993.467	-10.81
993.668	-8.07
993.87	-9.35
994.071	-8.86
994.272	-8.06
994.473	-5.93
994.675	-5.7
994.876	-5.82
995.077	-5.87
995.278	-5.71
995.48	-4.34
995.681	-5.93
995.882	-6.17
996.083	-5.63
996.284	-7.59
996.485	-7.92
996.686	-8.49
996.887	-9.97
997.088	-13.17
997.289	-13.93
997.49	-13.79
997.691	-13.16
997.892	-13.66
998.092	-9.15
998.293	-8.82
998.494	-9.7
998.695	-9.8
998.896	-9.86
999.096	-9.29
999.297	-7.76
999.498	-8.52
999.698	-9.71
999.899	-11.57
1000.1	-12.85
1000.3	-14.28
1000.501	-16.08
1000.701	-18.12
1000.902	-17.9
1001.102	-17.72
1001.303	-15.75
1001.503	-17.17
1001.704	-17.81
1001.904	-19.24
1002.105	-18.52
1002.305	-19.23
1002.505	-19.97
1002.706	-18.5
1002.906	-18.46
1003.106	-17.85
1003.306	-16.6
1003.507	-14.97
1003.707	-16.03
1003.907	-15.72
1004.107	-14.98
1004.307	-17.63
1004.507	-15.61
1004.707	-16.29
1004.907	-17.13
1005.107	-16.63
1005.308	-16.58
1005.507	-16.73
1005.707	-15.26
1005.907	-15.64
1006.107	-14.29
1006.307	-12.01
1006.507	-13.2
1006.707	-12.29
1006.907	-10.98
1007.106	-11.79
1007.306	-12.21
1007.506	-11.1
1007.706	-9.81
1007.905	-11.6
1008.105	-10.46
1008.305	-10.61
1008.504	-10.39
1008.704	-6.4
1008.903	-6.42
1009.103	-5.57
1009.303	-7.76
1009.502	-7.76
1009.702	-8.39
1009.901	-6.37
1010.1	-8.6
1010.3	-7.54
1010.499	-7.97
1010.699	-9.58
1010.898	-10.81
1011.097	-11.39
1011.296	-11.68
1011.496	-12.51
1011.695	-13.58
1011.894	-15.14
1012.093	-12.61
1012.293	-11.74
1012.492	-13.17
1012.691	-11.62
1012.89	-11.79
1013.089	-12.45
1013.288	-11.4
1013.487	-10.29
1013.686	-11.44
1013.885	-12.44
1014.084	-10.75
1014.283	-11.49
1014.482	-12.7
1014.681	-12.54
1014.88	-16.07
1015.078	-15.4
1015.277	-16.25
1015.476	-16.63
1015.675	-16.81
1015.873	-15.86
1016.072	-19.3
1016.271	-15.99
1016.47	-17.29
1016.668	-16.14
1016.867	-16.63
1017.065	-17.27
1017.264	-17.36
1017.463	-16.87
1017.661	-17.08
1017.86	-15.87
1018.058	-14.74
1018.256	-16.06
1018.455	-16.89
1018.653	-16.06
1018.852	-15.73
1019.05	-17.67
1019.248	-19.51
1019.447	-20.26
1019.645	-22.24
1019.843	-23.38
1020.041	-22.42
1020.24	-23.61
1020.438	-19.27
1020.636	-18.78
1020.834	-21.23
1021.032	-19.51
1021.23	-20.54
1021.428	-19.52
1021.626	-16.44
1021.824	-15.83
1022.022	-16.77
1022.22	-14.5
1022.418	-15.3
1022.616	-15.56
1022.814	-16.9
1023.012	-17.59
1023.21	-16.46
1023.408	-15.96
1023.606	-17.18
1023.803	-12.82
1024.001	-13.59
1024.199	-16.72
1024.397	-15.94
1024.594	-16.75
1024.792	-17.81
1024.99	-17.46
1025.187	-16.42
1025.385	-12.93
1025.582	-13.48
1025.78	-12.27
1025.977	-11.16
1026.175	-11.04
1026.372	-9.64
1026.57	-11.29
1026.767	-8.92
1026.965	-7.88
1027.162	-7.57
1027.359	-7.94
1027.557	-7.13
1027.754	-9.76
1027.951	-10.61
1028.148	-8.78
1028.346	-9.78
1028.543	-10.98
1028.74	-11.59
1028.937	-12.84
1029.134	-13.17
1029.331	-12.22
1029.528	-11.52
1029.725	-11.4
1029.923	-13.5
1030.12	-11.82
1030.317	-8.91
1030.513	-7.64
1030.71	-6.26
1030.907	-4.19
1031.104	-4.33
1031.301	-4.54
1031.498	-6.24
1031.695	-4.92
1031.892	-4.32
1032.088	-4.58
1032.285	-6.47
1032.482	-7.71
1032.678	-11.87
1032.875	-13.51
1033.072	-12.17
1033.268	-13.25
1033.465	-13.62
1033.662	-15.34
1033.858	-13.86
1034.055	-13.67
1034.251	-11.79
1034.448	-10.74
1034.644	-10.15
1034.84	-8.18
1035.037	-7.06
1035.233	-6.95
1035.43	-6.86
1035.626	-8.61
1035.822	-7.77
1036.019	-9.75
1036.215	-11.81
1036.411	-12.5
1036.607	-14.46
1036.803	-16.9
1037	-18.02
1037.196	-19.49
1037.392	-20.09
1037.588	-20.13
1037.784	-20.46
1037.98	-22.53
1038.176	-22.46
1038.372	-22.68
1038.568	-20.6
1038.764	-16.69
1038.96	-15.62
1039.156	-17.29
1039.352	-16.66
1039.547	-13.76
1039.743	-12.72
1039.939	-11.75
1040.135	-11.44
1040.331	-13.88
1040.526	-13.41
1040.722	-15.04
1040.918	-16.18
1041.113	-17.58
1041.309	-17.19
1041.505	-19.32
1041.7	-18.64
1041.896	-19.67
1042.091	-20.12
1042.287	-19.97
1042.482	-20.02
1042.678	-19.82
1042.873	-18.54
1043.069	-18.53
1043.264	-17.17
1043.459	-15.78
1043.655	-15.62
1043.85	-16
1044.045	-13.86
1044.24	-14.07
1044.436	-11.69
1044.631	-13.15
1044.826	-15.15
1045.021	-17.12
1045.216	-15.73
