Data from FLMT021711__12__17-06-28-281.txt Node

Date: Tue Nov 05 17:06:28 CET 2024
User: Etudiants TP
Spectrometer: FLMT02171
Trigger mode: 0
Integration Time (sec): 1,000000E-1
Scans to average: 5
Electric dark correction enabled: true
Nonlinearity correction enabled: false
Boxcar width: 15
XAxis mode: Wavelengths
Number of Pixels in Spectrum: 3648
>>>>>Begin Spectral Data<<<<<
194,658	-59,63
194,923	-58,1
195,188	-53,35
195,453	-53,46
195,717	-48,75
195,982	-47,48
196,247	-46,76
196,512	-50,49
196,777	-47,22
197,042	-46,47
197,307	-47,47
197,572	-44,08
197,837	-43,82
198,101	-41,38
198,366	-38,44
198,631	-37,82
198,896	-31,95
199,161	-25,97
199,425	-19,83
199,69	-11,18
199,955	-11,05
200,22	-14,29
200,484	-13,87
200,749	-16
201,014	-15,04
201,278	-14,05
201,543	-12,4
201,807	-12,48
202,072	-11,45
202,337	-12
202,601	-12,28
202,866	-15,27
203,13	-14,1
203,395	-15,9
203,659	-15,41
203,924	-15,04
204,189	-14,35
204,453	-13,09
204,717	-9,78
204,982	-10,4
205,246	-8,89
205,511	-6,46
205,775	-6,57
206,04	-2,55
206,304	-2,95
206,568	-2,19
206,833	-1,53
207,097	-0,94
207,361	0,55
207,626	4,08
207,89	4,92
208,154	5,45
208,419	6,6
208,683	5,85
208,947	9,28
209,211	9,15
209,476	7,91
209,74	7,26
210,004	8,24
210,268	8,01
210,532	9,66
210,796	9,07
211,061	10,5
211,325	11,5
211,589	11,03
211,853	12,65
212,117	11,24
212,381	10,48
212,645	10,83
212,909	10,83
213,173	9,26
213,437	9,22
213,701	9,88
213,965	10,41
214,229	6,42
214,493	7
214,757	5,87
215,021	6,64
215,285	9,24
215,549	11,51
215,813	9,28
216,077	8,89
216,34	10,35
216,604	10,17
216,868	11,3
217,132	10,53
217,396	9,39
217,659	9,85
217,923	7,06
218,187	5,73
218,451	5,61
218,714	3,81
218,978	4,13
219,242	6,69
219,505	5,56
219,769	6,78
220,033	6,21
220,296	7,32
220,56	8,1
220,824	6,66
221,087	7,89
221,351	6,94
221,614	6,54
221,878	7,92
222,142	6,3
222,405	6,52
222,669	7,56
222,932	5,13
223,196	2,78
223,459	0,17
223,722	1,36
223,986	0,98
224,249	-0,38
224,513	-1,15
224,776	-1,77
225,04	-2,13
225,303	-1,62
225,566	-0,96
225,83	-0,03
226,093	3,77
226,356	3,01
226,62	1,78
226,883	2,98
227,146	3,46
227,409	2,15
227,673	1,54
227,936	0,96
228,199	1,3
228,462	0,19
228,725	-0,12
228,989	-0,24
229,252	-0,23
229,515	5,41
229,778	5,05
230,041	4,39
230,304	1,98
230,567	3,91
230,83	2,25
231,093	3,76
231,356	4,19
231,619	10,93
231,882	8,86
232,145	10,57
232,408	8,77
232,671	8,68
232,934	8,99
233,197	7,83
233,46	6,31
233,723	8,12
233,986	7,13
234,249	4,34
234,512	6,26
234,775	10,35
235,037	9,62
235,3	9,16
235,563	9,05
235,826	10,44
236,089	11,88
236,351	10,62
236,614	12,15
236,877	12,38
237,14	14,29
237,402	14,62
237,665	9,53
237,928	8,45
238,19	5,2
238,453	8,14
238,716	5,48
238,978	5,54
239,241	5,3
239,503	7,97
239,766	2,36
240,029	1,14
240,291	2,01
240,554	2,53
240,816	1,96
241,079	2,17
241,341	0,86
241,604	0,18
241,866	-2,93
242,129	-1,74
242,391	-0,63
242,653	-2,43
242,916	-4,13
243,178	-5,42
243,441	-4,08
243,703	-4,99
243,965	-7,23
244,228	-7,78
244,49	-7,56
244,752	-6,89
245,015	-6,25
245,277	-5,6
245,539	-7,17
245,801	-6,7
246,064	-7,59
246,326	-7,76
246,588	-9,33
246,85	-6,44
247,112	-6,08
247,374	-5,32
247,637	-3,82
247,899	-4,67
248,161	-4,49
248,423	-7,21
248,685	-5,73
248,947	-5,39
249,209	-5,1
249,471	-2,27
249,733	-1,87
249,995	-3,64
250,257	-4,34
250,519	-3,9
250,781	-0,6
251,043	-2,56
251,305	-0,25
251,567	0,44
251,829	1,12
252,091	1,1
252,353	-1,58
252,615	-0,71
252,876	-2,58
253,138	-3,73
253,4	-5,7
253,662	-3,7
253,924	-1,09
254,185	2,72
254,447	3,26
254,709	4,77
254,971	4,58
255,232	6,09
255,494	4,62
255,756	2,06
256,017	3,03
256,279	3,63
256,541	3,48
256,802	2,86
257,064	3,55
257,326	2,66
257,587	3,33
257,849	4,59
258,11	7,26
258,372	7,61
258,633	6,95
258,895	4,6
259,156	4,23
259,418	4,1
259,679	0,15
259,941	-1,75
260,202	0,59
260,464	2,57
260,725	1,79
260,987	1,17
261,248	0,12
261,509	0,34
261,771	-2,25
262,032	-1,74
262,293	-3,86
262,555	-3,21
262,816	-3,69
263,077	-5,11
263,338	-7,47
263,6	-7,21
263,861	-8,1
264,122	-7,76
264,383	-5,65
264,645	-4,71
264,906	-6
265,167	-5,22
265,428	-6,42
265,689	-5,5
265,95	-6,42
266,211	-5,71
266,473	-4,75
266,734	-6,43
266,995	-8,86
267,256	-8,41
267,517	-7,21
267,778	-3,55
268,039	-1,34
268,3	-2,4
268,561	-3,99
268,822	-1,24
269,083	-2,86
269,344	-3,76
269,604	-4,63
269,865	-4,08
270,126	-6,78
270,387	-4,74
270,648	-5,56
270,909	-6,66
271,17	-7,04
271,43	-9,42
271,691	-10,81
271,952	-10,58
272,213	-10,17
272,473	-13,31
272,734	-11,48
272,995	-9,16
273,256	-9,57
273,516	-5,41
273,777	-7,49
274,038	-6,45
274,298	-8,12
274,559	-9,99
274,82	-5,82
275,08	-3,39
275,341	-0,81
275,601	-1,53
275,862	-3,58
276,122	-3,27
276,383	-2,91
276,643	-1,14
276,904	-2,81
277,164	-0,74
277,425	-0,49
277,685	3,51
277,946	4,08
278,206	4,73
278,467	4,94
278,727	6,31
278,987	6,03
279,248	5,09
279,508	6,6
279,768	7,55
280,029	8,77
280,289	6,56
280,549	5,1
280,81	4,63
281,07	2,94
281,33	4,87
281,59	2
281,851	4,03
282,111	3,54
282,371	3,62
282,631	5,59
282,891	3,86
283,151	2,66
283,412	0,06
283,672	-1,26
283,932	-1,81
284,192	-1,54
284,452	-2,62
284,712	-5,2
284,972	-6,49
285,232	-7,83
285,492	-5,37
285,752	-8,26
286,012	-2,17
286,272	0,44
286,532	-2,43
286,792	-1,89
287,052	-0,05
287,312	1,37
287,571	0,35
287,831	0,79
288,091	-1,79
288,351	-0,89
288,611	3,16
288,871	3,08
289,13	3,12
289,39	-1,39
289,65	-0,2
289,91	-3,8
290,17	-1,77
290,429	0,67
290,689	-2,14
290,949	-4,49
291,208	-3,96
291,468	-0,8
291,728	0,06
291,987	2,14
292,247	0,84
292,506	2,13
292,766	5,79
293,026	5,44
293,285	6,55
293,545	8,29
293,804	8,71
294,064	4,49
294,323	1,61
294,583	2,5
294,842	2,9
295,102	2,86
295,361	3,07
295,621	3,77
295,88	5,82
296,139	4,44
296,399	4,82
296,658	0,52
296,917	-0,07
297,177	-1,14
297,436	0,94
297,695	-0,88
297,955	1,81
298,214	0,2
298,473	1,24
298,732	3,03
298,992	5,73
299,251	6,22
299,51	2,76
299,769	4,45
300,028	4,44
300,287	3,35
300,547	2,9
300,806	-0,48
301,065	0,83
301,324	1,47
301,583	-0,66
301,842	-3,35
302,101	-6,27
302,36	-5,71
302,619	-4,72
302,878	-5,3
303,137	-7,49
303,396	-5,62
303,655	-3,21
303,914	-5,66
304,173	-3,81
304,432	-4,31
304,691	-1,35
304,95	-2,89
305,208	0,31
305,467	0,61
305,726	1,21
305,985	1,57
306,244	2,29
306,503	1,23
306,761	0,25
307,02	-2,09
307,279	-1,96
307,537	-0,75
307,796	-3,95
308,055	-6,86
308,314	-4,62
308,572	-6,12
308,831	-3,44
309,09	-2,3
309,348	-0,87
309,607	-2,12
309,865	1,64
310,124	3,05
310,382	3,46
310,641	3,41
310,9	2,05
311,158	3,1
311,417	2,09
311,675	1,71
311,933	2,07
312,192	2,32
312,45	3,1
312,709	2,96
312,967	2,09
313,226	2,48
313,484	2,12
313,742	0,75
314,001	-0,96
314,259	-2,18
314,517	-1,44
314,776	-0,02
315,034	1,96
315,292	1,38
315,55	-1,32
315,809	-1,22
316,067	0,14
316,325	-2,12
316,583	-0,09
316,841	-1,57
317,1	-2,89
317,358	-7,37
317,616	-6,79
317,874	-8,88
318,132	-9,87
318,39	-10,36
318,648	-11,57
318,906	-11,09
319,164	-12,02
319,422	-13,42
319,68	-14,95
319,938	-15,04
320,196	-14,51
320,454	-13,35
320,712	-13,2
320,97	-13,35
321,228	-16,32
321,486	-14,96
321,744	-13,75
322,002	-11,87
322,26	-13,14
322,517	-13,26
322,775	-16,01
323,033	-16,2
323,291	-14,62
323,549	-12,43
323,806	-11,56
324,064	-10,56
324,322	-8,52
324,58	-10,04
324,837	-7,82
325,095	-9,71
325,353	-6,63
325,61	-5,63
325,868	-5,56
326,126	-3,15
326,383	-3,52
326,641	-3,75
326,898	-2,3
327,156	-0,36
327,413	0,95
327,671	1,88
327,928	3,71
328,186	4,5
328,443	3,36
328,701	6,38
328,958	8,41
329,216	9,9
329,473	9,24
329,731	8,92
329,988	8,54
330,245	11,61
330,503	11,64
330,76	13,12
331,017	14,6
331,275	11,7
331,532	12,2
331,789	10,69
332,047	8,6
332,304	6,98
332,561	6,92
332,818	5,25
333,076	6,65
333,333	6,47
333,59	6,66
333,847	7,89
334,104	6,77
334,361	7,48
334,618	7,42
334,876	5,74
335,133	4,03
335,39	1,49
335,647	3,18
335,904	-0,84
336,161	-3,21
336,418	-3,44
336,675	-7,89
336,932	-7,58
337,189	-8,9
337,446	-9,19
337,703	-9,15
337,96	-12,67
338,216	-12,6
338,473	-15,04
338,73	-15,18
338,987	-15,92
339,244	-12,29
339,501	-14,84
339,757	-13,52
340,014	-10,94
340,271	-10,48
340,528	-9,69
340,785	-6,43
341,041	-5,13
341,298	-6,91
341,555	-6,78
341,811	-7,86
342,068	-9,32
342,325	-10,88
342,581	-7,71
342,838	-6,88
343,094	-6,92
343,351	-5,75
343,608	-8,44
343,864	-5,67
344,121	-3,27
344,377	-3,63
344,634	-4,37
344,89	-4,98
345,147	-4,92
345,403	-6,51
345,66	-6,4
345,916	-4,15
346,172	-6,88
346,429	-6,58
346,685	-7,33
346,942	-7,54
347,198	-10,97
347,454	-9,15
347,711	-9,12
347,967	-12,9
348,223	-11,94
348,48	-12,71
348,736	-9,47
348,992	-11,65
349,248	-9,45
349,504	-8,89
349,761	-7,94
350,017	-8,08
350,273	-7,31
350,529	-9,32
350,785	-9,49
351,041	-9,82
351,297	-8,66
351,554	-9,13
351,81	-10,88
352,066	-11,76
352,322	-12,38
352,578	-11,42
352,834	-11,82
353,09	-11,99
353,346	-11,87
353,602	-13,72
353,858	-15,17
354,114	-14,82
354,369	-14,05
354,625	-12,2
354,881	-14,29
355,137	-11,54
355,393	-12,19
355,649	-12,49
355,905	-11,1
356,16	-10,92
356,416	-8,96
356,672	-15,2
356,928	-14,32
357,183	-14,56
357,439	-15,72
357,695	-17,93
357,951	-14,62
358,206	-15,39
358,462	-16,37
358,718	-17,71
358,973	-16,82
359,229	-17,44
359,484	-16,45
359,74	-13,33
359,996	-14,78
360,251	-11
360,507	-10,39
360,762	-12,14
361,018	-9,37
361,273	-10,21
361,529	-8,49
361,784	-7,73
362,04	-7,12
362,295	-7,59
362,55	-7,13
362,806	-5,39
363,061	-6,55
363,316	-6
363,572	-4,44
363,827	-2,74
364,082	-5,8
364,338	-6,25
364,593	-6,36
364,848	-5,1
365,104	-5,23
365,359	-3,28
365,614	-2,51
365,869	-4,31
366,124	-3,27
366,38	-2,22
366,635	-0,31
366,89	1,07
367,145	1,52
367,4	2,85
367,655	2,13
367,91	3,78
368,165	0,72
368,42	-1,83
368,675	-0,26
368,93	-0,01
369,185	-1,37
369,44	0,2
369,695	2,35
369,95	1,69
370,205	1,71
370,46	0,62
370,715	1,03
370,97	1,93
371,225	2,47
371,48	2,94
371,734	2,26
371,989	4,08
372,244	3,77
372,499	5,67
372,754	4,97
373,008	3,1
373,263	-0,97
373,518	1,75
373,773	0,4
374,027	-1,07
374,282	-1,09
374,537	-1,36
374,791	-1,95
375,046	-2,6
375,301	-3,26
375,555	-4,4
375,81	-4,34
376,064	-2,81
376,319	0,08
376,573	0,4
376,828	-3,01
377,082	0,81
377,337	-1,49
377,591	-2,99
377,846	-2,6
378,1	-1,36
378,355	-2,32
378,609	-3,33
378,863	-5,79
379,118	-3,75
379,372	-4,8
379,627	-5,48
379,881	-7,06
380,135	-7,58
380,389	-9,03
380,644	-9,36
380,898	-9,15
381,152	-6,68
381,407	-7,14
381,661	-5,22
381,915	-3,43
382,169	-3,55
382,423	-4,97
382,677	-6,4
382,932	-6,52
383,186	-5,6
383,44	-5,26
383,694	-2,5
383,948	-4,64
384,202	-5,71
384,456	-4,65
384,71	-3,68
384,964	-5,31
385,218	-4,2
385,472	-4,1
385,726	-3,99
385,98	-4,11
386,234	-3,15
386,488	-5,97
386,742	-4,65
386,996	-8,84
387,249	-8,79
387,503	-7,13
387,757	-5,82
388,011	-4,83
388,265	-4,48
388,518	-3,95
388,772	-3,13
389,026	-3,55
389,28	-6,09
389,533	-6,81
389,787	-4,83
390,041	-6,46
390,295	-6,99
390,548	-6,23
390,802	-4,11
391,055	-5,95
391,309	-5,74
391,563	-7,55
391,816	-6,46
392,07	-7,4
392,323	-7,05
392,577	-6,31
392,83	-3,85
393,084	0,75
393,337	1,95
393,591	4,31
393,844	4,06
394,098	8,28
394,351	13,05
394,604	14,34
394,858	16,29
395,111	15,64
395,364	13,44
395,618	14,35
395,871	13
396,124	11,76
396,378	12,43
396,631	11,94
396,884	10,17
397,137	10,1
397,391	10,32
397,644	6,47
397,897	7,8
398,15	9,1
398,403	12,12
398,657	10,84
398,91	10,6
399,163	10,86
399,416	9,98
399,669	8,97
399,922	9,63
400,175	8,59
400,428	7,98
400,681	6,74
400,934	2,56
401,187	2,59
401,44	0,41
401,693	-1,13
401,946	-5,16
402,199	-9,52
402,452	-9,9
402,704	-12,64
402,957	-12,69
403,21	-10,3
403,463	-10,19
403,716	-9,7
403,969	-6,97
404,221	-8,62
404,474	-6,29
404,727	-2,81
404,98	-1,01
405,232	0,1
405,485	1,81
405,738	3,96
405,99	4,22
406,243	3,91
406,496	5,34
406,748	5,92
407,001	3,99
407,253	3,2
407,506	3,78
407,759	3,8
408,011	2,22
408,264	2,72
408,516	3,08
408,769	0,97
409,021	1,35
409,274	1,72
409,526	4,42
409,778	3,55
410,031	6,56
410,283	7,73
410,536	11,83
410,788	11,18
411,04	10,83
411,293	12,4
411,545	12,64
411,797	10,96
412,049	11,57
412,302	11,14
412,554	11,2
412,806	9,84
413,058	7,22
413,311	8,6
413,563	7,08
413,815	7,5
414,067	5,51
414,319	4,94
414,571	4,84
414,823	5,24
415,075	5,5
415,328	6,29
415,58	9,63
415,832	10,78
416,084	10,49
416,336	9,06
416,588	12,43
416,84	11,28
417,091	13,67
417,343	9,79
417,595	11,38
417,847	11,94
418,099	10,57
418,351	10,86
418,603	12,94
418,855	12,98
419,106	12,86
419,358	13,69
419,61	14,57
419,862	15,23
420,114	14,46
420,365	14,34
420,617	15,14
420,869	13,88
421,12	11,73
421,372	12,49
421,624	12,22
421,875	11,8
422,127	9,65
422,379	9,74
422,63	11,81
422,882	10,08
423,133	9,55
423,385	9,14
423,636	9,84
423,888	11,48
424,139	14,12
424,391	12,42
424,642	11,34
424,894	9,15
425,145	10,61
425,396	9,66
425,648	10,38
425,899	9,59
426,151	9,18
426,402	8,55
426,653	8,7
426,905	6,39
427,156	5,02
427,407	4,7
427,658	3,76
427,91	2,49
428,161	1,52
428,412	2,68
428,663	4,5
428,914	6,91
429,166	9,03
429,417	9,59
429,668	8,23
429,919	7,16
430,17	7,24
430,421	8,19
430,672	12,48
430,923	12,57
431,174	12
431,425	11,71
431,676	12,94
431,927	9,8
432,178	10,82
432,429	11,05
432,68	11,17
432,931	13,41
433,182	14,35
433,433	12,75
433,683	14,37
433,934	14,73
434,185	13,43
434,436	12,67
434,687	15,41
434,937	17,57
435,188	16,44
435,439	16,68
435,69	17,96
435,94	17,45
436,191	17,75
436,442	18,65
436,692	16,95
436,943	13,84
437,194	12,9
437,444	15,93
437,695	20,05
437,945	21,29
438,196	19,98
438,447	18,78
438,697	20,18
438,948	17,84
439,198	15,64
439,449	11,3
439,699	11,91
439,949	11,21
440,2	11,78
440,45	13,45
440,701	12,54
440,951	12,84
441,201	13,84
441,452	12,72
441,702	12,85
441,952	14,73
442,203	15,01
442,453	12,46
442,703	11,64
442,953	13,5
443,204	14,84
443,454	13,66
443,704	14,45
443,954	12,75
444,204	13,36
444,455	15,3
444,705	16,64
444,955	17,83
445,205	17,32
445,455	14,05
445,705	14,18
445,955	14,29
446,205	13,53
446,455	13,02
446,705	15,04
446,955	17,03
447,205	20,37
447,455	23,1
447,705	23,15
447,955	22
448,205	22,02
448,454	22,71
448,704	24,14
448,954	23,86
449,204	24,9
449,454	24,69
449,704	23,02
449,953	23,33
450,203	25,24
450,453	24,8
450,703	26,34
450,952	27,11
451,202	27,72
451,452	27,87
451,701	31,04
451,951	33,82
452,201	34,57
452,45	34,55
452,7	35,91
452,949	36,07
453,199	36,73
453,448	38,1
453,698	38,57
453,947	37,74
454,197	36,96
454,446	37,25
454,696	40,02
454,945	38,75
455,195	37,82
455,444	38,74
455,693	42,7
455,943	41,41
456,192	41,78
456,442	41,8
456,691	41,81
456,94	40,23
457,189	39,19
457,439	40,6
457,688	41,94
457,937	41,34
458,186	40,69
458,436	41,12
458,685	40
458,934	39,33
459,183	37,74
459,432	38,8
459,681	37,71
459,93	35,44
460,179	34,64
460,429	31,65
460,678	33,65
460,927	36,39
461,176	35,53
461,425	34,33
461,674	37,43
461,923	38,34
462,172	36,84
462,42	35,05
462,669	37,89
462,918	36,5
463,167	35,73
463,416	32,57
463,665	32,03
463,914	31,21
464,162	30,12
464,411	30,22
464,66	32,73
464,909	31,15
465,158	32,97
465,406	33,25
465,655	33,97
465,904	35,97
466,152	33,75
466,401	34,34
466,65	35,71
466,898	34,59
467,147	30,29
467,395	29,03
467,644	30,85
467,893	30,04
468,141	30,94
468,39	27,39
468,638	25,92
468,887	24,29
469,135	24,69
469,384	23,34
469,632	23,44
469,88	23,25
470,129	24,8
470,377	20,48
470,626	22,83
470,874	24,36
471,122	25
471,371	24,98
471,619	24,45
471,867	26,52
472,115	27,4
472,364	26,55
472,612	29,81
472,86	26,87
473,108	26,06
473,356	27,75
473,605	26,97
473,853	25,11
474,101	24,16
474,349	23,75
474,597	26,57
474,845	26,8
475,093	25,71
475,341	23,19
475,589	24,48
475,837	24,72
476,085	27,31
476,333	24,98
476,581	25,56
476,829	24,81
477,077	27,03
477,325	25,81
477,573	27,82
477,821	25,11
478,069	26,25
478,317	24,35
478,564	27,41
478,812	25,54
479,06	23,42
479,308	22,78
479,555	21,37
479,803	19,17
480,051	19,42
480,299	17,39
480,546	17,72
480,794	16,08
481,042	14,82
481,289	14,08
481,537	15,65
481,784	14,22
482,032	15,63
482,28	14,98
482,527	13,51
482,775	13,66
483,022	15,35
483,27	16,1
483,517	18,33
483,765	16,59
484,012	16,46
484,259	14,91
484,507	16,58
484,754	16,08
485,002	16,35
485,249	14,22
485,496	18,04
485,744	17,23
485,991	17,3
486,238	13,78
486,486	17,18
486,733	19,22
486,98	21,08
487,227	20,05
487,474	21,9
487,722	23,44
487,969	23,28
488,216	23,48
488,463	23,1
488,71	22,45
488,957	22,49
489,204	22,49
489,451	24,81
489,699	24,7
489,946	22,56
490,193	23,55
490,44	23,94
490,687	24,04
490,934	21,88
491,18	19,25
491,427	20,63
491,674	22,8
491,921	24,98
492,168	24,07
492,415	22,43
492,662	23,7
492,909	25,39
493,155	23,56
493,402	22,55
493,649	21,47
493,896	22,39
494,142	19,56
494,389	18,71
494,636	18,16
494,883	16,5
495,129	15,32
495,376	13,52
495,623	14,24
495,869	15,93
496,116	17,88
496,362	19,35
496,609	21,32
496,855	25,67
497,102	23,51
497,348	24,98
497,595	26,83
497,841	29,87
498,088	28,83
498,334	27,36
498,581	25,74
498,827	26,1
499,074	28,5
499,32	30,21
499,566	32,87
499,813	33,25
500,059	32,23
500,305	31,61
500,552	30,92
500,798	30,9
501,044	35,3
501,29	35,47
501,537	33,26
501,783	35,87
502,029	39,25
502,275	36,79
502,521	35,92
502,767	37,53
503,013	40,13
503,26	37,78
503,506	35,18
503,752	36,48
503,998	34,55
504,244	34,98
504,49	32,31
504,736	34,87
504,982	33,5
505,228	35,61
505,474	36
505,72	38,31
505,966	38,53
506,211	41,69
506,457	41,85
506,703	38,07
506,949	36,52
507,195	34,11
507,441	31,8
507,686	33,28
507,932	34,71
508,178	37,62
508,424	36,52
508,669	34,54
508,915	35,09
509,161	37,2
509,406	37,43
509,652	36,68
509,898	40
510,143	42,19
510,389	41,27
510,634	38,27
510,88	42,49
511,125	45,12
511,371	45,31
511,616	46,5
511,862	43,81
512,107	42,94
512,353	44,44
512,598	45,02
512,844	43,98
513,089	40,73
513,335	40,6
513,58	41,63
513,825	41,75
514,071	41,43
514,316	41,72
514,561	43,28
514,806	43,22
515,052	45,69
515,297	45,51
515,542	46,75
515,787	45,56
516,033	47,77
516,278	49,07
516,523	49,3
516,768	48,95
517,013	47,38
517,258	48,37
517,503	48,87
517,748	50,65
517,993	50,91
518,238	51,85
518,483	50,68
518,728	50,76
518,973	49,79
519,218	49,66
519,463	51,31
519,708	50,43
519,953	49,56
520,198	49,25
520,443	51,21
520,688	56,07
520,933	56,92
521,177	57,41
521,422	56,45
521,667	60,33
521,912	61,86
522,157	58,78
522,401	60,76
522,646	61,47
522,891	62,34
523,135	61,84
523,38	63,52
523,625	61,65
523,869	64,01
524,114	66,61
524,358	66,25
524,603	66
524,848	62,95
525,092	61,47
525,337	61,53
525,581	62,58
525,826	63,79
526,07	65,02
526,315	66,31
526,559	65,77
526,803	65,03
527,048	68,99
527,292	70,1
527,537	70,43
527,781	70,07
528,025	67,47
528,269	68,36
528,514	68,28
528,758	68,36
529,002	68,95
529,247	70,83
529,491	70,99
529,735	75,48
529,979	76,38
530,223	77,3
530,467	75,5
530,712	73,97
530,956	72,57
531,2	74,31
531,444	71,82
531,688	71,7
531,932	71,55
532,176	72,8
532,42	75,92
532,664	78,75
532,908	77,41
533,152	76,89
533,396	76,6
533,64	75,35
533,884	72,97
534,128	71,8
534,371	72,24
534,615	73,5
534,859	73,01
535,103	71,44
535,347	71,94
535,59	73,76
535,834	70,59
536,078	70,69
536,322	71,2
536,565	74,04
536,809	72,38
537,053	72,73
537,296	71,02
537,54	70,73
537,784	70,19
538,027	71,88
538,271	71,68
538,514	71,36
538,758	71,16
539,001	69,82
539,245	69,65
539,488	70,95
539,732	72,98
539,975	72,53
540,219	73,14
540,462	73,18
540,706	73,76
540,949	73,51
541,192	74,74
541,436	80,37
541,679	85,34
541,922	86,42
542,166	80,88
542,409	82,07
542,652	83,34
542,895	84,35
543,139	84,26
543,382	88,49
543,625	89,28
543,868	89,7
544,111	88,42
544,354	86,23
544,598	85,17
544,841	86,16
545,084	85,31
545,327	84,96
545,57	86,6
545,813	88,83
546,056	87,71
546,299	87,64
546,542	89,49
546,785	91,84
547,028	91,39
547,271	90,8
547,514	90,15
547,756	87,89
547,999	89,3
548,242	91,28
548,485	90,7
548,728	91,4
548,971	86,84
549,213	88
549,456	86,93
549,699	87,47
549,942	87,58
550,184	86,88
550,427	85,72
550,67	86,17
550,912	81,83
551,155	83,3
551,398	82,28
551,64	81,02
551,883	81,84
552,125	81,71
552,368	82,5
552,61	80,18
552,853	82,21
553,095	81,62
553,338	80,89
553,58	82,47
553,823	82,29
554,065	84,74
554,308	81,76
554,55	80,48
554,792	79,43
555,035	79,82
555,277	80,26
555,519	81,54
555,762	79,09
556,004	80,35
556,246	77,19
556,488	78,74
556,731	76,68
556,973	78,79
557,215	80,13
557,457	81,36
557,699	85,13
557,941	84,19
558,183	83,38
558,426	84,71
558,668	82,2
558,91	84,18
559,152	85,15
559,394	85,85
559,636	88,61
559,878	88,87
560,12	89,51
560,362	90,54
560,604	90,88
560,845	91,24
561,087	90,83
561,329	93,08
561,571	92,17
561,813	94,04
562,055	94,66
562,297	96,14
562,538	96,31
562,78	98,51
563,022	95,78
563,264	98,89
563,505	98,56
563,747	99,5
563,989	98,36
564,23	98,39
564,472	98,07
564,714	99,41
564,955	100,73
565,197	97,53
565,438	100,31
565,68	104,49
565,921	104,86
566,163	105,93
566,404	105,62
566,646	108,64
566,887	111,21
567,129	111,19
567,37	112,17
567,612	115,43
567,853	113,74
568,094	115,77
568,336	116,82
568,577	119,2
568,818	120,6
569,06	119,89
569,301	118,48
569,542	120
569,783	121,35
570,025	122,1
570,266	121,81
570,507	125,13
570,748	124,45
570,989	127,05
571,23	130,01
571,472	131,3
571,713	130,51
571,954	131,89
572,195	131,43
572,436	133,43
572,677	136,82
572,918	138,1
573,159	136,94
573,4	135,85
573,641	135,95
573,882	137,48
574,123	136,52
574,364	132,9
574,604	134,89
574,845	133,19
575,086	132,97
575,327	135,56
575,568	135,92
575,809	136,35
576,049	134,91
576,29	132,29
576,531	136,51
576,771	139,63
577,012	142,19
577,253	143,16
577,494	144,3
577,734	145,81
577,975	147,14
578,215	146,58
578,456	146,1
578,697	146,78
578,937	148,59
579,178	149,32
579,418	149,19
579,659	149,84
579,899	146,05
580,14	145,51
580,38	146,4
580,62	147,88
580,861	153,13
581,101	154,64
581,342	154,17
581,582	151,82
581,822	154,68
582,063	153,94
582,303	156,23
582,543	156,69
582,783	156,91
583,024	157,73
583,264	160,77
583,504	161,34
583,744	164,25
583,984	162,83
584,224	163,14
584,465	162,03
584,705	161,93
584,945	163,66
585,185	163,49
585,425	164,22
585,665	166,02
585,905	164,86
586,145	164,58
586,385	163,81
586,625	166,31
586,865	167,17
587,105	167,57
587,345	169,34
587,585	170,16
587,824	169,48
588,064	169,09
588,304	165,69
588,544	166,04
588,784	164,7
589,024	167,55
589,263	168,14
589,503	167,32
589,743	169,16
589,982	169,4
590,222	169,66
590,462	167,93
590,701	165,56
590,941	167,62
591,181	167,38
591,42	166,45
591,66	169,19
591,899	172,06
592,139	172,43
592,378	173,01
592,618	172,71
592,857	171,83
593,097	173,13
593,336	174,59
593,576	176,07
593,815	177,44
594,055	176,9
594,294	176,98
594,533	177,19
594,773	178,43
595,012	179,57
595,251	180,74
595,491	183,79
595,73	186,23
595,969	187,37
596,208	188,67
596,447	192,56
596,687	192,54
596,926	194,34
597,165	190,49
597,404	192,62
597,643	190,35
597,882	189,75
598,121	190,69
598,36	190,87
598,599	192,58
598,838	192,86
599,077	190,47
599,316	190,34
599,555	189,75
599,794	188,46
600,033	191,33
600,272	192,66
600,511	191,24
600,75	193,15
600,989	193,84
601,228	193,51
601,466	192,32
601,705	193,52
601,944	195,15
602,183	195,6
602,422	194,63
602,66	192,64
602,899	190,52
603,138	190,38
603,376	190,16
603,615	191,88
603,854	190,23
604,092	190,36
604,331	190,14
604,569	192,26
604,808	191,12
605,047	193,52
605,285	194,04
605,524	193,66
605,762	191,96
606	193,16
606,239	193,83
606,477	192,07
606,716	188,52
606,954	187,33
607,193	185,22
607,431	179,53
607,669	177,28
607,908	175,25
608,146	175,26
608,384	174,39
608,622	173,29
608,861	173,44
609,099	171,64
609,337	169,84
609,575	168,89
609,813	169,93
610,052	169,78
610,29	165,78
610,528	163,92
610,766	161,78
611,004	161,9
611,242	159,23
611,48	157,61
611,718	155,49
611,956	154,02
612,194	151,44
612,432	149,75
612,67	148,69
612,908	149,75
613,146	148,33
613,384	145,25
613,621	143,39
613,859	144,57
614,097	142,92
614,335	143,78
614,573	144,05
614,811	146,87
615,048	146,59
615,286	146,66
615,524	144,26
615,761	141,47
615,999	141,04
616,237	140,95
616,474	142,06
616,712	141,29
616,95	140,22
617,187	138,07
617,425	139,33
617,662	139,31
617,9	137,61
618,137	135,9
618,375	132,97
618,612	130,51
618,85	131,42
619,087	133,45
619,325	133,52
619,562	132,31
619,799	131,19
620,037	130,55
620,274	127,93
620,511	128,66
620,749	124,91
620,986	123,41
621,223	119,56
621,461	119,58
621,698	118,83
621,935	117,43
622,172	115,13
622,409	115,72
622,647	114,6
622,884	113,97
623,121	115,72
623,358	113,82
623,595	112,8
623,832	112,08
624,069	110,28
624,306	108,75
624,543	109,19
624,78	109
625,017	109,58
625,254	111,15
625,491	111,9
625,728	113,52
625,965	114,08
626,202	112,48
626,438	109,92
626,675	108,07
626,912	109,81
627,149	109,74
627,386	109,57
627,622	108,1
627,859	107,36
628,096	108,01
628,333	108,22
628,569	109,73
628,806	111,67
629,043	110,69
629,279	111,76
629,516	112,88
629,752	109,25
629,989	109,95
630,225	107,83
630,462	107,08
630,699	107,57
630,935	106,71
631,171	104,32
631,408	103,93
631,644	104,08
631,881	100,99
632,117	98,29
632,354	98,11
632,59	96,75
632,826	96,56
633,063	94,94
633,299	95,57
633,535	94,72
633,771	93,41
634,008	95,55
634,244	95,1
634,48	94,53
634,716	95,61
634,953	94,52
635,189	94,51
635,425	95,67
635,661	97,13
635,897	95,02
636,133	94,68
636,369	93,63
636,605	90,24
636,841	89,55
637,077	91,23
637,313	89,81
637,549	89,46
637,785	86,89
638,021	86,28
638,257	84,42
638,493	85,73
638,729	84,42
638,965	84,86
639,2	86,59
639,436	84,95
639,672	84,2
639,908	81,76
640,144	84,07
640,379	84,71
640,615	81,34
640,851	82,19
641,086	83,34
641,322	81,75
641,558	80,55
641,793	79,91
642,029	77,71
642,264	77,13
642,5	76,5
642,736	72,99
642,971	72,64
643,207	71,31
643,442	68,12
643,678	69,33
643,913	70,13
644,148	67,84
644,384	68,55
644,619	69,11
644,855	69,62
645,09	69,42
645,325	68,69
645,561	69,52
645,796	66,8
646,031	68,58
646,266	65,71
646,502	63,3
646,737	65,87
646,972	65,69
647,207	66,12
647,442	62,76
647,678	60,63
647,913	63,81
648,148	63,27
648,383	61,65
648,618	60,45
648,853	60,79
649,088	61,87
649,323	63,88
649,558	65,06
649,793	64,34
650,028	65,19
650,263	62,7
650,498	64,38
650,733	65,33
650,968	63,15
651,202	63,35
651,437	62,35
651,672	59,47
651,907	59,33
652,142	60,7
652,376	61,78
652,611	63,11
652,846	64,67
653,081	63,55
653,315	61,8
653,55	62,42
653,785	62,48
654,019	61,55
654,254	58,95
654,488	58,99
654,723	57,14
654,958	54,65
655,192	52,85
655,427	49,82
655,661	50,15
655,896	51,97
656,13	53,4
656,364	51,5
656,599	48,45
656,833	49,92
657,068	52,52
657,302	52,53
657,536	50,09
657,771	51,22
658,005	50,33
658,239	50,58
658,474	50,41
658,708	51,14
658,942	50,67
659,176	48,21
659,41	43,36
659,645	42,73
659,879	42,03
660,113	37,28
660,347	37,38
660,581	36,34
660,815	36,33
661,049	34,27
661,283	32,47
661,517	32,03
661,751	31,68
661,985	31,4
662,219	33,05
662,453	31,18
662,687	31,68
662,921	30,1
663,155	29,24
663,389	22,92
663,622	21,12
663,856	21,69
664,09	17,91
664,324	15,74
664,558	15,81
664,791	15,91
665,025	14,86
665,259	14,78
665,492	14,37
665,726	15,79
665,96	15,9
666,193	14,53
666,427	14,99
666,661	15,08
666,894	13,17
667,128	11,45
667,361	13,52
667,595	12,43
667,828	11,22
668,062	9,35
668,295	10,35
668,529	10,71
668,762	11,2
668,995	9,21
669,229	12,11
669,462	12,21
669,695	13,11
669,929	12,6
670,162	12,55
670,395	9,82
670,629	11,44
670,862	12,13
671,095	9,44
671,328	10,31
671,561	7,38
671,795	7,61
672,028	8,52
672,261	8,53
672,494	8,88
672,727	7,2
672,96	8,43
673,193	5,77
673,426	9,06
673,659	9,55
673,892	11,12
674,125	10,18
674,358	9,69
674,591	8,51
674,824	8,55
675,057	8,25
675,29	7,46
675,523	8,55
675,755	7,47
675,988	7,76
676,221	10,83
676,454	8,99
676,687	9,52
676,919	8,62
677,152	9,65
677,385	10,83
677,617	11,44
677,85	12,15
678,083	11,31
678,315	13,96
678,548	12,83
678,78	12,79
679,013	12,17
679,246	12,63
679,478	13,23
679,711	12,24
679,943	13,95
680,175	9,71
680,408	13,69
680,64	10,92
680,873	10,77
681,105	10,41
681,338	13,83
681,57	14,87
681,802	16,09
682,034	15,77
682,267	20,35
682,499	22,48
682,731	20,86
682,964	19,57
683,196	18,17
683,428	15,79
683,66	14,52
683,892	17,07
684,124	19,61
684,356	22,21
684,589	21,11
684,821	20,33
685,053	19,69
685,285	21,02
685,517	21,46
685,749	21,64
685,981	24,2
686,213	25,2
686,445	25,91
686,676	24,41
686,908	25,2
687,14	23,45
687,372	24,6
687,604	21,2
687,836	21,53
688,068	20,48
688,299	19,96
688,531	17,62
688,763	20,48
688,995	18,96
689,226	22,43
689,458	18,32
689,69	16,61
689,921	15,51
690,153	17,4
690,384	18,2
690,616	16,51
690,848	17,08
691,079	13,62
691,311	10,04
691,542	5,79
691,774	4,4
692,005	6,57
692,237	9,93
692,468	8,33
692,699	7,42
692,931	6,05
693,162	2,98
693,393	1,78
693,625	-0,21
693,856	0,67
694,087	1,01
694,319	2,74
694,55	0,79
694,781	1,44
695,012	1,02
695,243	0,68
695,475	-0,48
695,706	-0,62
695,937	-1,41
696,168	-0,91
696,399	-3,04
696,63	-2,5
696,861	-2,01
697,092	1,69
697,323	2,61
697,554	3,03
697,785	4,71
698,016	5,48
698,247	4,14
698,478	5,91
698,709	8,41
698,94	10,35
699,171	10,74
699,401	6,22
699,632	6,9
699,863	4,45
700,094	4,88
700,325	6,03
700,555	6,49
700,786	8,15
701,017	7,04
701,247	5,4
701,478	5,28
701,709	7,91
701,939	5,96
702,17	7,07
702,401	8,95
702,631	11,17
702,862	8,87
703,092	4,53
703,323	5,01
703,553	5,65
703,784	5,68
704,014	5,91
704,244	2,06
704,475	1,63
704,705	2,08
704,936	2,23
705,166	1,2
705,396	2,74
705,627	3,87
705,857	2,69
706,087	1,99
706,317	-0,57
706,548	-0,91
706,778	-0,97
707,008	-0,08
707,238	1,44
707,468	0,6
707,698	-0,15
707,928	-1,45
708,158	-2,58
708,389	-2,75
708,619	-3,69
708,849	-5,15
709,079	-4,07
709,309	-4,57
709,539	-7,46
709,768	-8,02
709,998	-5,05
710,228	-4,6
710,458	-4,97
710,688	-6,83
710,918	-6,98
711,148	-7,86
711,378	-7,09
711,607	-8,02
711,837	-8,29
712,067	-8,19
712,297	-9,12
712,526	-9,84
712,756	-10,51
712,986	-12,15
713,215	-13,53
713,445	-13,59
713,674	-11,98
713,904	-11,47
714,134	-9,05
714,363	-9,85
714,593	-10,4
714,822	-11,13
715,052	-11,48
715,281	-8,75
715,511	-9,97
715,74	-10,33
715,969	-11,94
716,199	-12,53
716,428	-12,33
716,657	-10,74
716,887	-8,9
717,116	-10,88
717,345	-9,03
717,575	-9,41
717,804	-8,83
718,033	-8,95
718,262	-8,9
718,492	-9,49
718,721	-8,15
718,95	-8,25
719,179	-8,53
719,408	-6,62
719,637	-8,44
719,866	-10,38
720,095	-8,56
720,324	-9,15
720,553	-10,86
720,782	-11,91
721,011	-12,19
721,24	-15,06
721,469	-16,07
721,698	-16,28
721,927	-15,17
722,156	-16,21
722,385	-17,45
722,613	-13,6
722,842	-13,77
723,071	-10,18
723,3	-7,2
723,529	-8,58
723,757	-7,97
723,986	-11,46
724,215	-12,47
724,443	-11,2
724,672	-7,92
724,901	-8,12
725,129	-7,37
725,358	-4,66
725,586	-6,13
725,815	-7,8
726,043	-8,52
726,272	-10,5
726,5	-11,27
726,729	-10,22
726,957	-12,03
727,186	-13,06
727,414	-11,16
727,642	-9,78
727,871	-8,52
728,099	-8,27
728,327	-7,3
728,556	-4,37
728,784	-2,73
729,012	-5,25
729,241	-3,22
729,469	-4,33
729,697	-7,08
729,925	-6,03
730,153	-7,06
730,381	-7,91
730,61	-6,48
730,838	-9,58
731,066	-7,47
731,294	-6,32
731,522	-9,03
731,75	-12,5
731,978	-12,38
732,206	-13,77
732,434	-16,36
732,662	-14,91
732,89	-15,91
733,118	-16,72
733,346	-15,64
733,573	-14,48
733,801	-14,65
734,029	-8,01
734,257	-7,54
734,485	-5,83
734,712	-3,81
734,94	-5,49
735,168	-4,44
735,396	-4,71
735,623	-7,43
735,851	-7,38
736,078	-4,71
736,306	-3,63
736,534	-4,82
736,761	-5,11
736,989	-7,31
737,216	-8,03
737,444	-10,43
737,671	-10,85
737,899	-6,65
738,126	-8,72
738,354	-8,59
738,581	-8,63
738,809	-8,83
739,036	-10,71
739,263	-9,9
739,491	-11,35
739,718	-11,16
739,945	-6,79
740,173	-3,94
740,4	-3,98
740,627	-5,28
740,854	-6,17
741,081	-9,63
741,309	-10,78
741,536	-13,27
741,763	-14,54
741,99	-12,85
742,217	-12,86
742,444	-13,66
742,671	-10,68
742,898	-11,26
743,125	-13,49
743,352	-16,39
743,579	-16,43
743,806	-15,18
744,033	-12,34
744,26	-13,41
744,487	-12,88
744,714	-11,81
744,941	-12,24
745,167	-8,92
745,394	-9,76
745,621	-9,69
745,848	-9,19
746,075	-6,02
746,301	-3,07
746,528	0,98
746,755	-0,24
746,981	-1,67
747,208	-1,6
747,435	0,06
747,661	0,31
747,888	2,7
748,114	2,06
748,341	3,48
748,567	4,01
748,794	1,78
749,02	0,06
749,247	-2,85
749,473	-3,22
749,7	-4,98
749,926	-5,93
750,152	-3,68
750,379	-2,47
750,605	-1,12
750,831	-1,8
751,058	-3,21
751,284	-4,05
751,51	-3,42
751,737	-3,21
751,963	-4,57
752,189	-6,71
752,415	-7,34
752,641	-8,24
752,867	-8,43
753,094	-10,64
753,32	-12,38
753,546	-13,94
753,772	-11,56
753,998	-12,97
754,224	-14,27
754,45	-15,26
754,676	-15,68
754,902	-18,16
755,128	-18,34
755,354	-18,86
755,579	-17,29
755,805	-15,69
756,031	-16,42
756,257	-15,57
756,483	-15,64
756,709	-16,67
756,934	-15,1
757,16	-16,52
757,386	-17,58
757,612	-19,43
757,837	-20,97
758,063	-18,17
758,289	-14,54
758,514	-14,44
758,74	-17,91
758,965	-19,47
759,191	-17,97
759,416	-17,38
759,642	-15,35
759,868	-14,81
760,093	-13,91
760,318	-15,32
760,544	-15,75
760,769	-17,57
760,995	-17,62
761,22	-16,96
761,445	-16,29
761,671	-14,18
761,896	-10,93
762,121	-11,89
762,347	-12,97
762,572	-15,63
762,797	-15,55
763,022	-15,83
763,248	-12,46
763,473	-10,59
763,698	-11,61
763,923	-11,14
764,148	-11,69
764,373	-11,18
764,598	-9,95
764,823	-7,15
765,048	-9,55
765,273	-12,26
765,498	-13,35
765,723	-12,37
765,948	-10,79
766,173	-10,79
766,398	-9,12
766,623	-9,74
766,848	-10,39
767,073	-11,5
767,298	-11,4
767,522	-11,83
767,747	-10,23
767,972	-11,36
768,197	-10,65
768,421	-11,14
768,646	-15,07
768,871	-17,1
769,095	-17,15
769,32	-15,47
769,545	-15,31
769,769	-14,08
769,994	-12,39
770,218	-14,21
770,443	-13,81
770,667	-11,47
770,892	-11,42
771,116	-11,67
771,341	-10,64
771,565	-10,61
771,79	-11,21
772,014	-12,73
772,238	-12,9
772,463	-10,51
772,687	-9,97
772,911	-11,19
773,136	-14,1
773,36	-14,1
773,584	-12,98
773,808	-14,83
774,033	-14,39
774,257	-13,35
774,481	-13
774,705	-13,86
774,929	-13,68
775,153	-15
775,377	-14,87
775,602	-15,12
775,826	-13,6
776,05	-11,39
776,274	-11,96
776,498	-12,13
776,722	-13,16
776,945	-13,08
777,169	-12,89
777,393	-14,45
777,617	-15,58
777,841	-16,22
778,065	-14,75
778,289	-14,73
778,512	-15,56
778,736	-15,41
778,96	-14,7
779,184	-13,51
779,407	-15,31
779,631	-14,62
779,855	-15,32
780,078	-12,58
780,302	-13,17
780,526	-14,73
780,749	-14,49
780,973	-14,17
781,196	-15,32
781,42	-17,37
781,643	-17,1
781,867	-15,68
782,09	-17,74
782,314	-17,96
782,537	-17,79
782,76	-19,05
782,984	-17,97
783,207	-18,67
783,431	-17,81
783,654	-19,36
783,877	-20,37
784,1	-23,51
784,324	-24,17
784,547	-24,78
784,77	-27,64
784,993	-29,3
785,216	-30,94
785,44	-30,36
785,663	-31,88
785,886	-30,7
786,109	-31,35
786,332	-29,99
786,555	-29,55
786,778	-28,14
787,001	-28,72
787,224	-28,57
787,447	-28
787,67	-26,67
787,893	-25,55
788,116	-25,04
788,339	-24,02
788,561	-25,75
788,784	-28,75
789,007	-28,8
789,23	-29,35
789,453	-29,13
789,675	-30,62
789,898	-32,98
790,121	-34,4
790,344	-34,45
790,566	-32,89
790,789	-31,83
791,012	-30,22
791,234	-27,4
791,457	-24,73
791,679	-22,55
791,902	-22,49
792,124	-22,7
792,347	-24,63
792,569	-25,46
792,792	-28,72
793,014	-26,46
793,237	-25,63
793,459	-25,31
793,681	-25,76
793,904	-27,35
794,126	-27,89
794,348	-29,27
794,571	-27,63
794,793	-29,24
795,015	-28,01
795,237	-28,01
795,46	-26,6
795,682	-24,87
795,904	-22,96
796,126	-24,91
796,348	-24,19
796,57	-21,49
796,792	-20,4
797,014	-17,21
797,237	-17,14
797,459	-14,9
797,681	-15,24
797,903	-15,63
798,124	-15,75
798,346	-5,7
798,568	-6,08
798,79	-2
799,012	-0,17
799,234	2,64
799,456	5,2
799,678	9,44
799,899	6,74
800,121	3,45
800,343	2,35
800,565	4,15
800,786	5,66
801,008	6,95
801,23	7,68
801,451	7,12
801,673	5,86
801,895	4,84
802,116	6,17
802,338	8
802,559	6,71
802,781	5,92
803,002	9,64
803,224	11,34
803,445	8,63
803,667	9,1
803,888	7,17
804,109	8,27
804,331	5,88
804,552	7,35
804,773	8,03
804,995	4,73
805,216	-7,61
805,437	-8,62
805,658	-12,38
805,88	-13,43
806,101	-13,34
806,322	-14,14
806,543	-16,42
806,764	-17,31
806,985	-15,31
807,207	-15,03
807,428	-15,98
807,649	-18,84
807,87	-20,48
808,091	-19,64
808,312	-19,29
808,533	-14,4
808,754	-13,66
808,975	-14,92
809,195	-13,81
809,416	-12,75
809,637	-13,62
809,858	-16,58
810,079	-18,24
810,3	-16,26
810,52	-16,64
810,741	-17,82
810,962	-19,98
811,183	-20,22
811,403	-20,45
811,624	-20,75
811,845	-18,56
812,065	-17,51
812,286	-15,85
812,506	-16,1
812,727	-17,3
812,948	-16,55
813,168	-15,69
813,389	-16,18
813,609	-14,75
813,83	-14,4
814,05	-15,06
814,27	-14,83
814,491	-11,29
814,711	-11,64
814,931	-14,66
815,152	-15,36
815,372	-18,11
815,592	-18,35
815,813	-19,51
816,033	-20,94
816,253	-19,68
816,473	-19,74
816,694	-17,54
816,914	-17,56
817,134	-17,18
817,354	-18,89
817,574	-17,63
817,794	-17,64
818,014	-18,7
818,234	-20,23
818,454	-21,34
818,674	-23,34
818,894	-26,2
819,114	-25,8
819,334	-23,96
819,554	-21,71
819,774	-20,32
819,994	-22,23
820,214	-23,59
820,433	-23,34
820,653	-24,27
820,873	-21,96
821,093	-21,57
821,312	-23,28
821,532	-20,68
821,752	-18,01
821,972	-19,23
822,191	-17,53
822,411	-18,45
822,63	-18,04
822,85	-18,33
823,07	-21,67
823,289	-21
823,509	-22,53
823,728	-20,02
823,948	-22,3
824,167	-22,47
824,387	-23,65
824,606	-22,32
824,825	-23,33
825,045	-23,32
825,264	-23,53
825,483	-20,4
825,703	-18,73
825,922	-20,3
826,141	-21,72
826,361	-21,95
826,58	-25,83
826,799	-25,69
827,018	-23,85
827,237	-23,96
827,456	-22,41
827,676	-23,53
827,895	-23,55
828,114	-22,71
828,333	-23,13
828,552	-23,88
828,771	-22,67
828,99	-24,69
829,209	-23,99
829,428	-20,63
829,647	-21,76
829,866	-19,19
830,084	-18,37
830,303	-17,94
830,522	-19,22
830,741	-18,63
830,96	-17,76
831,179	-16,9
831,397	-17,99
831,616	-16,43
831,835	-16,35
832,053	-14,51
832,272	-16,26
832,491	-15,22
832,709	-15,59
832,928	-15,35
833,147	-15,08
833,365	-15,06
833,584	-12,99
833,802	-11,19
834,021	-10,66
834,239	-11,61
834,458	-12,76
834,676	-16,15
834,894	-16,27
835,113	-17,97
835,331	-18,33
835,55	-19,62
835,768	-19,09
835,986	-18,78
836,204	-22,11
836,423	-19,74
836,641	-20,5
836,859	-22,41
837,077	-22,43
837,296	-23
837,514	-23,14
837,732	-23,82
837,95	-24,72
838,168	-22,43
838,386	-22,04
838,604	-20,06
838,822	-20,12
839,04	-20,33
839,258	-18,51
839,476	-17,02
839,694	-16,12
839,912	-17,39
840,13	-16,41
840,348	-15,63
840,566	-18,37
840,783	-16,55
841,001	-17,75
841,219	-15,6
841,437	-13,43
841,655	-13,33
841,872	-13,49
842,09	-15,21
842,308	-13,59
842,525	-13,4
842,743	-12,64
842,961	-12,33
843,178	-15,34
843,396	-12,12
843,613	-11,08
843,831	-10,41
844,048	-10,93
844,266	-10,78
844,483	-11,8
844,701	-11,5
844,918	-13
845,136	-13,72
845,353	-15,82
845,57	-16,04
845,788	-12,86
846,005	-15,52
846,222	-16,73
846,439	-15,75
846,657	-15,3
846,874	-15,36
847,091	-16,7
847,308	-14,11
847,526	-15,93
847,743	-15
847,96	-17,16
848,177	-16,85
848,394	-17,94
848,611	-18,07
848,828	-16,45
849,045	-16,78
849,262	-16,5
849,479	-16,55
849,696	-17,1
849,913	-17,5
850,13	-21,58
850,347	-18,83
850,564	-20,15
850,78	-21,01
850,997	-22,52
851,214	-21,61
851,431	-21,33
851,647	-22,65
851,864	-21,8
852,081	-20,12
852,298	-22,96
852,514	-25,36
852,731	-25,08
852,948	-22,47
853,164	-22,5
853,381	-22,53
853,597	-23,49
853,814	-24,91
854,03	-27,92
854,247	-26,45
854,463	-27,14
854,68	-27,7
854,896	-28,27
855,113	-26,95
855,329	-25,65
855,545	-24,68
855,762	-26,44
855,978	-29,44
856,194	-31,99
856,411	-29,59
856,627	-27,88
856,843	-27,15
857,059	-26,52
857,275	-27,71
857,492	-26,97
857,708	-23,62
857,924	-22,59
858,14	-20,92
858,356	-22,55
858,572	-21,75
858,788	-24,51
859,004	-23,16
859,22	-24,8
859,436	-22,41
859,652	-23,65
859,868	-25,12
860,084	-26,34
860,3	-26,22
860,516	-26,54
860,731	-25,71
860,947	-28,91
861,163	-27,1
861,379	-25,92
861,595	-24,82
861,81	-24,39
862,026	-24,03
862,242	-24,68
862,457	-23,95
862,673	-22,01
862,889	-20,82
863,104	-21,36
863,32	-21,61
863,535	-21,09
863,751	-24,43
863,966	-20,76
864,182	-19,75
864,397	-22,04
864,613	-23,73
864,828	-25,05
865,044	-23,22
865,259	-23,32
865,474	-22,41
865,69	-20,24
865,905	-18,56
866,12	-21,9
866,336	-23,17
866,551	-22,79
866,766	-23,08
866,981	-23,19
867,196	-23,17
867,412	-23,56
867,627	-22,31
867,842	-23,87
868,057	-24,55
868,272	-24,59
868,487	-26
868,702	-28,47
868,917	-28,84
869,132	-27,18
869,347	-26,69
869,562	-27,64
869,777	-27,73
869,992	-27,69
870,207	-27,36
870,422	-27,99
870,636	-28,87
870,851	-29,35
871,066	-29,37
871,281	-28,5
871,495	-29,61
871,71	-26,42
871,925	-28,3
872,14	-28,43
872,354	-31,06
872,569	-32,19
872,783	-29,32
872,998	-28,49
873,213	-28,5
873,427	-25,4
873,642	-24,74
873,856	-25,38
874,071	-25,96
874,285	-26,76
874,5	-26,88
874,714	-28
874,928	-28,63
875,143	-28,47
875,357	-29,03
875,571	-29,32
875,786	-28,5
876	-26,82
876,214	-25,05
876,429	-27,52
876,643	-27,12
876,857	-25,6
877,071	-24,56
877,285	-26,96
877,499	-29,36
877,714	-27,63
877,928	-26,26
878,142	-27,37
878,356	-30,21
878,57	-30,27
878,784	-28,81
878,998	-29,18
879,212	-27,61
879,426	-31,59
879,639	-29,64
879,853	-31,1
880,067	-31,14
880,281	-32,06
880,495	-29,26
880,709	-27,17
880,922	-27,7
881,136	-25,8
881,35	-24,37
881,564	-24,98
881,777	-27,34
881,991	-24,77
882,205	-22,3
882,418	-23,67
882,632	-25,74
882,845	-26,01
883,059	-24,13
883,273	-24,36
883,486	-27,88
883,7	-25,82
883,913	-25,03
884,126	-23,36
884,34	-26,57
884,553	-27,92
884,767	-24,07
884,98	-24,2
885,193	-25,19
885,407	-26,54
885,62	-23,55
885,833	-24,18
886,046	-21,18
886,26	-23,09
886,473	-23,16
886,686	-24,03
886,899	-22,7
887,112	-24,25
887,326	-25,51
887,539	-23,79
887,752	-23,96
887,965	-24,54
888,178	-22,92
888,391	-21,34
888,604	-22,36
888,817	-23,49
889,03	-22,62
889,243	-24,93
889,455	-27,19
889,668	-26,27
889,881	-24,5
890,094	-24,64
890,307	-27,48
890,52	-26,23
890,732	-25,33
890,945	-23,48
891,158	-23,68
891,37	-26,08
891,583	-25,66
891,796	-23,34
892,008	-23,71
892,221	-24,78
892,434	-27,83
892,646	-28,59
892,859	-29,87
893,071	-28,32
893,284	-27,43
893,496	-28,14
893,709	-27,88
893,921	-27,38
894,133	-27,65
894,346	-27,56
894,558	-26,49
894,771	-26,2
894,983	-24,44
895,195	-23,06
895,407	-22,18
895,62	-24,34
895,832	-21,86
896,044	-19,63
896,256	-19,55
896,468	-21,46
896,681	-19,26
896,893	-18,61
897,105	-18,85
897,317	-20,46
897,529	-19,88
897,741	-18,53
897,953	-16,61
898,165	-17,88
898,377	-19,82
898,589	-19,16
898,801	-19,8
899,013	-17,1
899,224	-15,84
899,436	-14,27
899,648	-15,78
899,86	-16,81
900,072	-13,68
900,283	-12,56
900,495	-10,9
900,707	-10,66
900,919	-13,53
901,13	-14,46
901,342	-16,11
901,554	-17,38
901,765	-17,38
901,977	-19,81
902,188	-21,03
902,4	-21,42
902,611	-22,69
902,823	-25,66
903,034	-27,48
903,246	-28,35
903,457	-28,7
903,669	-29,44
903,88	-28,29
904,091	-28,38
904,303	-28,07
904,514	-29,23
904,725	-25,67
904,936	-24,78
905,148	-23,83
905,359	-20,89
905,57	-20,6
905,781	-21,61
905,992	-22,19
906,204	-21,15
906,415	-21,21
906,626	-24,28
906,837	-23,1
907,048	-24,96
907,259	-25,29
907,47	-25,1
907,681	-25,13
907,892	-22,58
908,103	-23,31
908,314	-24,62
908,525	-22,96
908,735	-20,68
908,946	-21,34
909,157	-21,43
909,368	-19,08
909,579	-17,33
909,789	-19,91
910	-20,82
910,211	-19,01
910,421	-19,74
910,632	-18,78
910,843	-20,85
911,053	-18,56
911,264	-17,15
911,475	-17,47
911,685	-17,54
911,896	-19,55
912,106	-20,02
912,317	-21,57
912,527	-19,42
912,737	-19,99
912,948	-19,08
913,158	-17,92
913,369	-19,61
913,579	-18,2
913,789	-18,65
914	-15,81
914,21	-15,49
914,42	-16,76
914,63	-15,92
914,841	-15,92
915,051	-14,41
915,261	-13,93
915,471	-11,93
915,681	-11,02
915,891	-11,08
916,101	-12,06
916,311	-10,85
916,521	-10,78
916,731	-10,57
916,941	-9,04
917,151	-10,1
917,361	-8,72
917,571	-11,53
917,781	-14,02
917,991	-16,1
918,201	-16
918,411	-17,73
918,621	-17,59
918,83	-16,12
919,04	-17,63
919,25	-14,92
919,46	-15,38
919,669	-18,44
919,879	-19,04
920,089	-18,78
920,298	-18,73
920,508	-20,26
920,717	-19,74
920,927	-21,59
921,136	-21,85
921,346	-23,3
921,555	-26,28
921,765	-27,08
921,974	-28,58
922,184	-31,35
922,393	-32,28
922,603	-33,89
922,812	-31,59
923,021	-32,14
923,23	-34,47
923,44	-37,18
923,649	-36
923,858	-36,74
924,067	-36,83
924,277	-38,41
924,486	-35,58
924,695	-36,88
924,904	-35,03
925,113	-35,15
925,322	-34,21
925,531	-33,56
925,74	-35,56
925,949	-35,95
926,158	-33,4
926,367	-33,23
926,576	-32,63
926,785	-31,94
926,994	-31,42
927,203	-30,39
927,412	-30,07
927,621	-29,45
927,83	-26,92
928,038	-26,62
928,247	-26,82
928,456	-26,6
928,665	-26,48
928,873	-24,35
929,082	-20,99
929,291	-20,23
929,499	-18,42
929,708	-19,29
929,916	-17,37
930,125	-19,25
930,333	-19,77
930,542	-17,76
930,75	-15,06
930,959	-14,43
931,167	-13,6
931,376	-14,73
931,584	-13,29
931,793	-12,59
932,001	-13,53
932,209	-15,92
932,418	-17,49
932,626	-19,19
932,834	-20,16
933,042	-24,31
933,251	-25,84
933,459	-26,78
933,667	-28,55
933,875	-28,3
934,083	-29
934,291	-28,18
934,499	-28,1
934,707	-28,9
934,915	-29,04
935,123	-26,32
935,331	-27,1
935,539	-29,38
935,747	-31,99
935,955	-32,65
936,163	-31,94
936,371	-32,06
936,579	-30,04
936,787	-29,79
936,995	-31,16
937,202	-34,07
937,41	-33,78
937,618	-34,08
937,826	-32,91
938,033	-36,57
938,241	-38,93
938,449	-37,18
938,656	-34,5
938,864	-34,16
939,071	-34,06
939,279	-31,84
939,486	-29,2
939,694	-28,89
939,901	-29,39
940,109	-28,73
940,316	-28,17
940,524	-27,65
940,731	-29,2
940,939	-27,72
941,146	-27,52
941,353	-28,98
941,561	-28,48
941,768	-29,95
941,975	-28,72
942,182	-28,07
942,39	-26,89
942,597	-23,43
942,804	-23,71
943,011	-24,98
943,218	-23,87
943,425	-24,45
943,632	-23,75
943,839	-25,53
944,046	-26,15
944,253	-26,39
944,46	-25,72
944,667	-23,41
944,874	-23,81
945,081	-22,03
945,288	-21,15
945,495	-18,36
945,702	-18,93
945,909	-20,17
946,115	-19,3
946,322	-18,87
946,529	-19,37
946,736	-19,2
946,942	-18,5
947,149	-19,12
947,356	-21,23
947,562	-22,22
947,769	-20,89
947,976	-22,83
948,182	-21,45
948,389	-21,83
948,595	-21,76
948,802	-22,67
949,008	-25,23
949,215	-24,09
949,421	-24,61
949,628	-25,24
949,834	-24
950,04	-24,64
950,247	-21,8
950,453	-19,86
950,659	-21,25
950,865	-19,39
951,072	-21,63
951,278	-20,18
951,484	-21,9
951,69	-25,38
951,896	-26,63
952,103	-27,02
952,309	-27,03
952,515	-26,8
952,721	-26,58
952,927	-24,91
953,133	-26,79
953,339	-26,98
953,545	-27,04
953,751	-25,81
953,957	-23,53
954,163	-25,23
954,369	-24,59
954,574	-26,39
954,78	-26,8
954,986	-26,42
955,192	-24,2
955,398	-26,23
955,603	-27,79
955,809	-25,67
956,015	-25,51
956,22	-24,96
956,426	-23,14
956,632	-25,45
956,837	-27,44
957,043	-27,24
957,248	-26,48
957,454	-27,06
957,66	-27,92
957,865	-28
958,07	-25,51
958,276	-27,22
958,481	-28,53
958,687	-28,46
958,892	-28,84
959,097	-28,91
959,303	-30,5
959,508	-29,9
959,713	-29,46
959,919	-28,81
960,124	-29,6
960,329	-30,08
960,534	-26,18
960,739	-25,76
960,945	-23,12
961,15	-21,94
961,355	-22,29
961,56	-25,25
961,765	-24,37
961,97	-25,1
962,175	-24,29
962,38	-26,77
962,585	-26,57
962,79	-27,6
962,995	-28,47
963,2	-28,95
963,404	-28,04
963,609	-31,25
963,814	-32,54
964,019	-36,24
964,224	-38,33
964,428	-36,47
964,633	-35,44
964,838	-33,9
965,042	-32,69
965,247	-33,69
965,452	-33,61
965,656	-32
965,861	-31,63
966,066	-33,56
966,27	-32,52
966,475	-27,41
966,679	-29,55
966,884	-30,2
967,088	-30,99
967,292	-32,85
967,497	-33,14
967,701	-34,62
967,906	-33,06
968,11	-31,4
968,314	-28,47
968,518	-31,34
968,723	-27,64
968,927	-27,29
969,131	-27,45
969,335	-24,99
969,539	-25,26
969,744	-24,59
969,948	-21,47
970,152	-19,75
970,356	-18,11
970,56	-17,36
970,764	-18,11
970,968	-14,82
971,172	-14,34
971,376	-14,17
971,58	-12,59
971,784	-12,13
971,988	-13,68
972,192	-11,52
972,395	-11,4
972,599	-13,07
972,803	-16,19
973,007	-14,13
973,21	-14,11
973,414	-14,09
973,618	-13,36
973,822	-13,72
974,025	-11,54
974,229	-11,52
974,432	-13,83
974,636	-14,55
974,84	-12,46
975,043	-12,89
975,247	-14,93
975,45	-15
975,654	-13,85
975,857	-11,18
976,06	-11,43
976,264	-12,24
976,467	-11,43
976,671	-11,72
976,874	-11,24
977,077	-11,87
977,28	-12,88
977,484	-15,23
977,687	-16,82
977,89	-16,19
978,093	-16,76
978,297	-15,65
978,5	-17,7
978,703	-16,97
978,906	-15,91
979,109	-17,07
979,312	-16,43
979,515	-17,36
979,718	-16,82
979,921	-17,47
980,124	-19,44
980,327	-20,35
980,53	-20,72
980,733	-17,82
980,936	-17,07
981,138	-18,77
981,341	-18,74
981,544	-18,28
981,747	-18,66
981,949	-20,5
982,152	-20,26
982,355	-21,23
982,558	-19,57
982,76	-20,04
982,963	-20,82
983,165	-19,57
983,368	-18,87
983,571	-20,14
983,773	-17,82
983,976	-16,91
984,178	-17,62
984,381	-17,03
984,583	-19,16
984,785	-18,36
984,988	-17,74
985,19	-16,16
985,392	-16,73
985,595	-19,92
985,797	-20,09
985,999	-18,74
986,202	-17,28
986,404	-15,42
986,606	-12,36
986,808	-14,17
987,01	-14,47
987,212	-15,65
987,415	-16,35
987,617	-16,78
987,819	-16,36
988,021	-15,4
988,223	-17,15
988,425	-18,42
988,627	-18,06
988,829	-21,83
989,031	-20,85
989,232	-20,6
989,434	-20,71
989,636	-21,32
989,838	-20,69
990,04	-20,23
990,242	-21,17
990,443	-21,77
990,645	-19,81
990,847	-17,76
991,048	-17,98
991,25	-18,4
991,452	-20,51
991,653	-21,5
991,855	-20,57
992,057	-20,67
992,258	-20,68
992,46	-21,24
992,661	-21,04
992,863	-23,86
993,064	-22,11
993,265	-23,1
993,467	-23,51
993,668	-21,72
993,87	-21,79
994,071	-22,83
994,272	-21,83
994,473	-20,04
994,675	-19,73
994,876	-19,03
995,077	-18,1
995,278	-18,47
995,48	-18,4
995,681	-20,57
995,882	-20,03
996,083	-21,63
996,284	-24,74
996,485	-24,61
996,686	-26,22
996,887	-29,12
997,088	-32,34
997,289	-33,06
997,49	-33,38
997,691	-32,62
997,892	-31,93
998,092	-29
998,293	-29,04
998,494	-28,77
998,695	-29,12
998,896	-27,74
999,096	-27,69
999,297	-27,63
999,498	-28,85
999,698	-31,24
999,899	-33,25
1000,1	-35,45
1000,3	-34,27
1000,501	-36,51
1000,701	-37,61
1000,902	-38,56
1001,102	-38,85
1001,303	-37,65
1001,503	-38,22
1001,704	-36,34
1001,904	-35,63
1002,105	-35,32
1002,305	-34,86
1002,505	-36,07
1002,706	-35,72
1002,906	-35,39
1003,106	-34,31
1003,306	-32,88
1003,507	-32,17
1003,707	-32,1
1003,907	-31,53
1004,107	-29,86
1004,307	-30,25
1004,507	-29,51
1004,707	-29,97
1004,907	-30,79
1005,107	-32,77
1005,308	-31,14
1005,507	-32,47
1005,707	-30,31
1005,907	-29,13
1006,107	-27,19
1006,307	-26
1006,507	-27,62
1006,707	-25,77
1006,907	-24,78
1007,106	-24,01
1007,306	-25,46
1007,506	-24,72
1007,706	-25,16
1007,905	-27,34
1008,105	-26,88
1008,305	-28,58
1008,504	-27,71
1008,704	-22,92
1008,903	-22,33
1009,103	-20,76
1009,303	-21,95
1009,502	-21,42
1009,702	-21,27
1009,901	-21,32
1010,1	-23,15
1010,3	-21,04
1010,499	-23,33
1010,699	-25,23
1010,898	-27,6
1011,097	-26,27
1011,296	-26,19
1011,496	-27,77
1011,695	-26,92
1011,894	-28,51
1012,093	-25,11
1012,293	-25,15
1012,492	-24,94
1012,691	-24
1012,89	-24,55
1013,089	-26,53
1013,288	-26,12
1013,487	-24,59
1013,686	-25,11
1013,885	-26,54
1014,084	-25,82
1014,283	-25,9
1014,482	-26,23
1014,681	-25,29
1014,88	-27,98
1015,078	-26,65
1015,277	-28,58
1015,476	-29,86
1015,675	-28,83
1015,873	-27,63
1016,072	-27,9
1016,271	-25,77
1016,47	-30,48
1016,668	-28,57
1016,867	-28,39
1017,065	-29,65
1017,264	-31,63
1017,463	-30,16
1017,661	-30,65
1017,86	-30,41
1018,058	-28,64
1018,256	-31,05
1018,455	-32,83
1018,653	-32,51
1018,852	-32,35
1019,05	-33,72
1019,248	-35,02
1019,447	-34,64
1019,645	-35,28
1019,843	-37,12
1020,041	-35,44
1020,24	-34,9
1020,438	-31,18
1020,636	-32,28
1020,834	-35,65
1021,032	-33,94
1021,23	-34,96
1021,428	-32,99
1021,626	-29,6
1021,824	-30,28
1022,022	-32,6
1022,22	-31,87
1022,418	-29,73
1022,616	-29,89
1022,814	-29,95
1023,012	-30,31
1023,21	-28,69
1023,408	-28,27
1023,606	-29,56
1023,803	-25,1
1024,001	-25,04
1024,199	-28,23
1024,397	-27,69
1024,594	-27,63
1024,792	-28,42
1024,99	-27,2
1025,187	-26,42
1025,385	-21,89
1025,582	-22,86
1025,78	-22,38
1025,977	-21,28
1026,175	-21,15
1026,372	-21,29
1026,57	-23,53
1026,767	-19,97
1026,965	-18,8
1027,162	-18,02
1027,359	-18,51
1027,557	-19,09
1027,754	-22,05
1027,951	-23,55
1028,148	-21,94
1028,346	-24,16
1028,543	-27,48
1028,74	-27,34
1028,937	-28,78
1029,134	-28,49
1029,331	-28,26
1029,528	-27,58
1029,725	-27,95
1029,923	-31,44
1030,12	-28,49
1030,317	-27,41
1030,513	-26,95
1030,71	-26,58
1030,907	-25,71
1031,104	-27,37
1031,301	-28,68
1031,498	-29,69
1031,695	-29,94
1031,892	-29,8
1032,088	-29,36
1032,285	-31,39
1032,482	-31,83
1032,678	-35,13
1032,875	-37,37
1033,072	-36,66
1033,268	-37,99
1033,465	-38,36
1033,662	-38,89
1033,858	-38,73
1034,055	-38,57
1034,251	-37
1034,448	-36,13
1034,644	-36,07
1034,84	-33,51
1035,037	-33,26
1035,233	-33,78
1035,43	-32,68
1035,626	-34,18
1035,822	-33,43
1036,019	-33,56
1036,215	-37,88
1036,411	-38,22
1036,607	-39,09
1036,803	-40,03
1037	-39,39
1037,196	-39,96
1037,392	-40,87
1037,588	-42,5
1037,784	-41,93
1037,98	-42,36
1038,176	-42,95
1038,372	-43,58
1038,568	-41,84
1038,764	-40,43
1038,96	-37,86
1039,156	-39,07
1039,352	-39,76
1039,547	-37,98
1039,743	-37,08
1039,939	-34,6
1040,135	-34,37
1040,331	-35,65
1040,526	-32,72
1040,722	-33,63
1040,918	-35,5
1041,113	-37,37
1041,309	-36,23
1041,505	-38,2
1041,7	-37,37
1041,896	-38,27
1042,091	-39,43
1042,287	-38,9
1042,482	-37,75
1042,678	-37,9
1042,873	-36,97
1043,069	-38,19
1043,264	-37,56
1043,459	-35,59
1043,655	-34,61
1043,85	-35,2
1044,045	-35,27
1044,24	-35,12
1044,436	-31,55
1044,631	-34,1
1044,826	-33,42
1045,021	-36,42
1045,216	-35,69
