Data from FLMT021711__7__17-05-58-206.txt Node

Date: Tue Nov 05 17:05:58 CET 2024
User: Etudiants TP
Spectrometer: FLMT02171
Trigger mode: 0
Integration Time (sec): 1,000000E-1
Scans to average: 5
Electric dark correction enabled: true
Nonlinearity correction enabled: false
Boxcar width: 15
XAxis mode: Wavelengths
Number of Pixels in Spectrum: 3648
>>>>>Begin Spectral Data<<<<<
194,658	-55,54
194,923	-52,69
195,188	-45,36
195,453	-45,43
195,717	-40,13
195,982	-38,11
196,247	-36,46
196,512	-39,08
196,777	-36,7
197,042	-35,83
197,307	-34,53
197,572	-30,6
197,837	-30,79
198,101	-28,09
198,366	-25,42
198,631	-24,57
198,896	-19,49
199,161	-13,33
199,425	-7,79
199,69	0,13
199,955	-0,85
200,22	-3,48
200,484	-3,7
200,749	-3,25
201,014	-2,19
201,278	-1,35
201,543	-0,75
201,807	-1,36
202,072	-0,32
202,337	0,37
202,601	0,87
202,866	-1,01
203,13	0,19
203,395	-2,11
203,659	-0,81
203,924	-2,16
204,189	-2,38
204,453	-3,09
204,717	-0,93
204,982	-0,3
205,246	1,64
205,511	2,5
205,775	0,94
206,04	4,63
206,304	4,65
206,568	6,13
206,833	6,24
207,097	6,04
207,361	6,91
207,626	11,78
207,89	13,13
208,154	13,84
208,419	15,74
208,683	15,69
208,947	15,43
209,211	15,58
209,476	14,57
209,74	14,84
210,004	15,63
210,268	16,31
210,532	18,43
210,796	18,98
211,061	19,84
211,325	19,04
211,589	18,36
211,853	18,87
212,117	19,57
212,381	19,58
212,645	21,37
212,909	22,5
213,173	20,44
213,437	21,51
213,701	21,35
213,965	22,26
214,229	19,26
214,493	18,69
214,757	16,17
215,021	16,27
215,285	22,37
215,549	25,46
215,813	23,32
216,077	22,51
216,34	23,48
216,604	21,88
216,868	22,56
217,132	24,19
217,396	22,95
217,659	24,01
217,923	20,83
218,187	21,07
218,451	20,76
218,714	19,65
218,978	20,36
219,242	21,4
219,505	22,11
219,769	23,02
220,033	22,37
220,296	22,37
220,56	24
220,824	21,56
221,087	21,48
221,351	21,44
221,614	20,04
221,878	20,67
222,142	20,6
222,405	20,44
222,669	22,4
222,932	20,33
223,196	20,58
223,459	15,68
223,722	15,44
223,986	12,95
224,249	12,5
224,513	13,73
224,776	13,67
225,04	13,04
225,303	11,46
225,566	10,83
225,83	13,43
226,093	17,37
226,356	15,07
226,62	12,39
226,883	13,87
227,146	13,42
227,409	13,11
227,673	11,88
227,936	10,61
228,199	10,91
228,462	9,2
228,725	7,26
228,989	8,62
229,252	9,09
229,515	11,92
229,778	9,82
230,041	8,88
230,304	5,69
230,567	5,98
230,83	4,21
231,093	7,32
231,356	5,42
231,619	11,79
231,882	10,34
232,145	12,73
232,408	10,86
232,671	9,49
232,934	9,95
233,197	8,69
233,46	7,9
233,723	9,14
233,986	5,89
234,249	3,4
234,512	5,47
234,775	9,12
235,037	8,34
235,3	8,19
235,563	8,85
235,826	9,51
236,089	12,05
236,351	12,32
236,614	15,87
236,877	17,31
237,14	18,67
237,402	18,58
237,665	15,31
237,928	15,34
238,19	13,46
238,453	17
238,716	17
238,978	15,93
239,241	13,88
239,503	17,17
239,766	12,55
240,029	11,78
240,291	13,64
240,554	15,42
240,816	14,01
241,079	14,07
241,341	13,46
241,604	13,87
241,866	11,62
242,129	13,07
242,391	14,62
242,653	13,29
242,916	12,61
243,178	11,73
243,441	12,16
243,703	11,88
243,965	10,36
244,228	10,34
244,49	9,08
244,752	8,53
245,015	8,64
245,277	9,65
245,539	9,51
245,801	10,34
246,064	9,86
246,326	11,22
246,588	9,85
246,85	11,67
247,112	13,13
247,374	14,8
247,637	15,42
247,899	15,13
248,161	15,14
248,423	11,63
248,685	12,26
248,947	13,93
249,209	14,19
249,471	16,12
249,733	16,21
249,995	15,42
250,257	14,54
250,519	14,66
250,781	18,17
251,043	16,56
251,305	16,94
251,567	18,49
251,829	19,13
252,091	18,54
252,353	14,88
252,615	14,44
252,876	11,93
253,138	10,69
253,4	7,3
253,662	7,9
253,924	9,59
254,185	11,62
254,447	10,58
254,709	11,3
254,971	12,6
255,232	14,18
255,494	13,42
255,756	12,32
256,017	12,65
256,279	13,9
256,541	14,08
256,802	13,88
257,064	14,31
257,326	13,33
257,587	13,38
257,849	14,39
258,11	16,73
258,372	18,36
258,633	18,1
258,895	16,18
259,156	15,26
259,418	15,33
259,679	11,48
259,941	8,85
260,202	12,12
260,464	14,27
260,725	14,18
260,987	13,48
261,248	12,95
261,509	14,27
261,771	13,02
262,032	13,38
262,293	12,62
262,555	13,52
262,816	10,81
263,077	9,02
263,338	6,29
263,6	6,75
263,861	4,99
264,122	4
264,383	5,45
264,645	6,84
264,906	5
265,167	5,42
265,428	3,9
265,689	5,37
265,95	4,12
266,211	4,43
266,473	4,65
266,734	1,82
266,995	-0,86
267,256	-0,02
267,517	3,04
267,778	6,33
268,039	6,78
268,3	4,91
268,561	3,25
268,822	6,21
269,083	5,03
269,344	4,56
269,604	3,69
269,865	4,34
270,126	1,53
270,387	1,97
270,648	3,89
270,909	4,04
271,17	3,37
271,43	1,3
271,691	-1,76
271,952	-1,87
272,213	0,7
272,473	-2,14
272,734	-1,47
272,995	0,64
273,256	-0,36
273,516	3,48
273,777	0,76
274,038	2,29
274,298	0,62
274,559	-0,91
274,82	3,74
275,08	7,85
275,341	10,42
275,601	7,93
275,862	5,02
276,122	6,31
276,383	6,67
276,643	8,1
276,904	7,51
277,164	10,64
277,425	10,88
277,685	15,01
277,946	14,45
278,206	15,59
278,467	17,84
278,727	17,03
278,987	17,91
279,248	17,01
279,508	18,58
279,768	21,44
280,029	23,05
280,289	18,54
280,549	16,68
280,81	16,89
281,07	16,17
281,33	18,12
281,59	15,11
281,851	17,91
282,111	17,77
282,371	17,17
282,631	17,83
282,891	15,71
283,151	13,44
283,412	10,46
283,672	10,48
283,932	12,4
284,192	13,69
284,452	11,95
284,712	10,55
284,972	9,9
285,232	7,39
285,492	9,71
285,752	6,87
286,012	12,16
286,272	14,74
286,532	12,38
286,792	11,99
287,052	12,58
287,312	13,2
287,571	12,08
287,831	12,03
288,091	10,05
288,351	11,55
288,611	15,41
288,871	14,55
289,13	13,32
289,39	10,8
289,65	12,74
289,91	9,81
290,17	10,81
290,429	13,93
290,689	13,29
290,949	11,19
291,208	12,64
291,468	16,7
291,728	17,38
291,987	18,16
292,247	15,83
292,506	18,32
292,766	19,11
293,026	17,39
293,285	18,78
293,545	19,7
293,804	18,54
294,064	16,01
294,323	12,59
294,583	13,19
294,842	13,58
295,102	14,08
295,361	14,34
295,621	15,59
295,88	15,83
296,139	15,6
296,399	17,47
296,658	13,34
296,917	13,51
297,177	10,6
297,436	11,62
297,695	10,57
297,955	12,86
298,214	11,28
298,473	11,86
298,732	12,92
298,992	15,53
299,251	15,45
299,51	10,79
299,769	11,89
300,028	12,17
300,287	13,34
300,547	14,04
300,806	12,56
301,065	15,95
301,324	16,74
301,583	14,46
301,842	12,98
302,101	10,63
302,36	11,18
302,619	11,28
302,878	11,07
303,137	9,37
303,396	11,09
303,655	12,65
303,914	9,41
304,173	10,2
304,432	9,6
304,691	12,67
304,95	10,91
305,208	16,38
305,467	16,34
305,726	15,88
305,985	16,69
306,244	18,21
306,503	16,52
306,761	15,24
307,02	12,16
307,279	12,22
307,537	13,27
307,796	10,14
308,055	7,6
308,314	8,6
308,572	6,35
308,831	8,51
309,09	8,47
309,348	10,19
309,607	9,95
309,865	12,74
310,124	12,07
310,382	14,93
310,641	15,2
310,9	13,47
311,158	14,55
311,417	14,16
311,675	14,56
311,933	16,16
312,192	16,36
312,45	16,02
312,709	16,08
312,967	15,93
313,226	15,77
313,484	15,37
313,742	13,53
314,001	10,76
314,259	9,33
314,517	10,27
314,776	10,98
315,034	13,19
315,292	10,7
315,55	9,72
315,809	10,16
316,067	10,93
316,325	10,16
316,583	10,43
316,841	9,8
317,1	8,26
317,358	5,07
317,616	4,05
317,874	2,99
318,132	3,52
318,39	1,75
318,648	1,54
318,906	2,24
319,164	2,19
319,422	-0,27
319,68	-2,52
319,938	-2,9
320,196	-3,03
320,454	-1,99
320,712	-1,89
320,97	-2,15
321,228	-3,89
321,486	-2,72
321,744	-0,84
322,002	1,37
322,26	1,13
322,517	1,88
322,775	0,68
323,033	-0,14
323,291	2,58
323,549	4,27
323,806	5,28
324,064	5,58
324,322	6,22
324,58	6,03
324,837	7,32
325,095	5,18
325,353	7
325,61	8,66
325,868	9,23
326,126	10,74
326,383	8,79
326,641	7,71
326,898	8,73
327,156	8,47
327,413	10,07
327,671	9,85
327,928	11,43
328,186	12,29
328,443	11,03
328,701	13,35
328,958	14,34
329,216	14,73
329,473	13,04
329,731	14,18
329,988	14,46
330,245	15,73
330,503	16,25
330,76	16,27
331,017	17,6
331,275	15,15
331,532	13,82
331,789	11,58
332,047	11,53
332,304	8,85
332,561	9,33
332,818	8,28
333,076	10,63
333,333	10,92
333,59	10,85
333,847	11,49
334,104	10,81
334,361	11,95
334,618	11,24
334,876	9,4
335,133	9,63
335,39	7,09
335,647	9,19
335,904	6,5
336,161	5,08
336,418	5,2
336,675	1,67
336,932	3,68
337,189	3,1
337,446	4,23
337,703	2,44
337,96	-0,86
338,216	-2,19
338,473	-5,87
338,73	-5,55
338,987	-6
339,244	-3,23
339,501	-3,78
339,757	-1,33
340,014	-1,6
340,271	0,07
340,528	0,73
340,785	4,63
341,041	4,51
341,298	2,52
341,555	2,31
341,811	1,22
342,068	-1,93
342,325	-1,91
342,581	0,36
342,838	2,22
343,094	1,38
343,351	1,41
343,608	-0,68
343,864	1,5
344,121	2,07
344,377	1,08
344,634	1,21
344,89	-0,5
345,147	-1,29
345,403	-3,25
345,66	-2,81
345,916	-0,34
346,172	-0,32
346,429	-1,13
346,685	-2,16
346,942	-1,68
347,198	-3,97
347,454	-2,21
347,711	-2,75
347,967	-3,79
348,223	-2,63
348,48	-4,08
348,736	-2,66
348,992	-2,73
349,248	-1,68
349,504	-0,92
349,761	-0,97
350,017	-0,05
350,273	0,27
350,529	-0,44
350,785	0,34
351,041	-0,12
351,297	2,13
351,554	1,7
351,81	0,55
352,066	0,16
352,322	0,96
352,578	1,17
352,834	-0,78
353,09	-0,39
353,346	0,35
353,602	-0,18
353,858	-1,08
354,114	-2,23
354,369	-0,16
354,625	0,98
354,881	-0,5
355,137	0,61
355,393	-0,47
355,649	-0,95
355,905	-0,6
356,16	-0,71
356,416	0,88
356,672	-5,39
356,928	-5,06
357,183	-4,55
357,439	-4,7
357,695	-4,98
357,951	-1,44
358,206	-2,75
358,462	-3,45
358,718	-6,62
358,973	-4,4
359,229	-4,04
359,484	-4,54
359,74	-1,61
359,996	-1,83
360,251	0,65
360,507	-0,04
360,762	1,54
361,018	3,14
361,273	1,97
361,529	1,64
361,784	1,02
362,04	3,23
362,295	3,09
362,55	3,73
362,806	5,29
363,061	5,15
363,316	6,98
363,572	6,68
363,827	8,12
364,082	5,4
364,338	5,72
364,593	7,58
364,848	7,4
365,104	5,97
365,359	7,68
365,614	8,07
365,869	6,82
366,124	7,43
366,38	7,17
366,635	9,37
366,89	8,93
367,145	8,36
367,4	11,92
367,655	10,54
367,91	10,86
368,165	8,82
368,42	7,15
368,675	7,47
368,93	7,68
369,185	6,25
369,44	7,39
369,695	10,18
369,95	9,15
370,205	9,46
370,46	9,15
370,715	8,96
370,97	10,1
371,225	8,13
371,48	10,35
371,734	10,68
371,989	11,62
372,244	10,03
372,499	10,79
372,754	10,67
373,008	9,34
373,263	5,46
373,518	8,04
373,773	6,11
374,027	5,45
374,282	7,31
374,537	7,61
374,791	8,74
375,046	7,39
375,301	5,94
375,555	5,27
375,81	6,71
376,064	8,02
376,319	11,1
376,573	10,21
376,828	8,1
377,082	12,5
377,337	10,58
377,591	7,76
377,846	8,96
378,1	9,84
378,355	9,71
378,609	9,83
378,863	7,18
379,118	8,35
379,372	7,33
379,627	6,28
379,881	4,94
380,135	6,12
380,389	4,56
380,644	4,26
380,898	5,09
381,152	6,5
381,407	3,57
381,661	5,52
381,915	6,25
382,169	6,49
382,423	5,19
382,677	3,23
382,932	4,61
383,186	5,63
383,44	6,62
383,694	8,72
383,948	7,4
384,202	6,39
384,456	9,02
384,71	10,57
384,964	7,86
385,218	9,19
385,472	9,4
385,726	7,57
385,98	8,35
386,234	7,19
386,488	4,13
386,742	4,86
386,996	3,81
387,249	3,51
387,503	5,7
387,757	7,28
388,011	7
388,265	9,15
388,518	10,5
388,772	12,27
389,026	13
389,28	13,59
389,533	12,04
389,787	14,48
390,041	11,54
390,295	11,15
390,548	11,29
390,802	13,2
391,055	10,87
391,309	9,8
391,563	7,65
391,816	8,59
392,07	7,65
392,323	7,22
392,577	6,71
392,83	8,93
393,084	13,8
393,337	17,32
393,591	18,36
393,844	17,86
394,098	22,47
394,351	26,68
394,604	29,32
394,858	30,58
395,111	31,53
395,364	28,2
395,618	30,02
395,871	29,37
396,124	26,16
396,378	25,35
396,631	24,77
396,884	22,31
397,137	21,62
397,391	22,88
397,644	20,77
397,897	22,6
398,15	22,97
398,403	25,69
398,657	24,8
398,91	25,93
399,163	27,31
399,416	26,98
399,669	24,95
399,922	24,65
400,175	23,5
400,428	23,59
400,681	22,75
400,934	18,45
401,187	16,49
401,44	16,87
401,693	15,22
401,946	11,58
402,199	7,34
402,452	5,2
402,704	1,88
402,957	-0,08
403,21	1,81
403,463	-0,1
403,716	1,04
403,969	3,65
404,221	2,49
404,474	4,43
404,727	7,45
404,98	9,58
405,232	9,47
405,485	10,28
405,738	11,31
405,99	11,63
406,243	10,68
406,496	11,27
406,748	10,58
407,001	8,98
407,253	9,75
407,506	10,5
407,759	10,61
408,011	9,72
408,264	9,91
408,516	10,48
408,769	9,14
409,021	10,78
409,274	10,03
409,526	11,26
409,778	11,89
410,031	15
410,283	16,34
410,536	21,64
410,788	21,19
411,04	19,8
411,293	21,64
411,545	22,5
411,797	21,71
412,049	22,04
412,302	22,57
412,554	23,55
412,806	22,11
413,058	21,1
413,311	21,72
413,563	21,03
413,815	21,99
414,067	20,77
414,319	20,74
414,571	22,14
414,823	21,08
415,075	19,02
415,328	19,75
415,58	23,38
415,832	24,61
416,084	25,59
416,336	25,04
416,588	29,05
416,84	26,13
417,091	28,8
417,343	26,98
417,595	28,23
417,847	29,1
418,099	30,33
418,351	30,21
418,603	34,24
418,855	36,02
419,106	36,15
419,358	36,08
419,61	36,18
419,862	37,15
420,114	34,18
420,365	35,02
420,617	35,32
420,869	35,22
421,12	35,23
421,372	36,72
421,624	36,41
421,875	38,51
422,127	37,1
422,379	37,34
422,63	40,24
422,882	40,76
423,133	41,62
423,385	42,59
423,636	44,1
423,888	45,81
424,139	48,65
424,391	47,01
424,642	47,62
424,894	47,98
425,145	48,72
425,396	46,96
425,648	49,69
425,899	48,23
426,151	47,79
426,402	47,02
426,653	48,28
426,905	47,93
427,156	47,1
427,407	49,33
427,658	50,29
427,91	51,27
428,161	50,65
428,412	55,08
428,663	58,12
428,914	59,95
429,166	61,76
429,417	63,38
429,668	62,84
429,919	61,74
430,17	62,57
430,421	64,12
430,672	67,33
430,923	68,86
431,174	68,64
431,425	69,52
431,676	70,88
431,927	69,02
432,178	72,25
432,429	74,67
432,68	74,75
432,931	79,89
433,182	85,57
433,433	84,19
433,683	87,94
433,934	89,51
434,185	89,73
434,436	91,4
434,687	94,44
434,937	98,49
435,188	99,15
435,439	100,36
435,69	103,86
435,94	105,5
436,191	107,12
436,442	108,07
436,692	108,93
436,943	109,27
437,194	111,09
437,444	114,9
437,695	120,35
437,945	123,95
438,196	125,58
438,447	128,13
438,697	130,24
438,948	131,58
439,198	132,51
439,449	131,36
439,699	136,29
439,949	137,3
440,2	139,28
440,45	143,53
440,701	145,49
440,951	147,75
441,201	152,32
441,452	154,17
441,702	157,31
441,952	161,5
442,203	165,15
442,453	166,79
442,703	169,77
442,953	172,83
443,204	177,33
443,454	178,77
443,704	182,43
443,954	182,88
444,204	186,48
444,455	191,13
444,705	195,57
444,955	200
445,205	202,91
445,455	204,66
445,705	208,5
445,955	212,6
446,205	216,24
446,455	220,16
446,705	224,96
446,955	229,46
447,205	235,17
447,455	239,13
447,705	241,19
447,955	243,89
448,205	248,25
448,454	251,15
448,704	253,43
448,954	254,45
449,204	257,43
449,454	259,45
449,704	261,88
449,953	263,91
450,203	269,97
450,453	271,62
450,703	277,05
450,952	277,45
451,202	281,28
451,452	282,79
451,701	286,29
451,951	291,26
452,201	293,1
452,45	293,21
452,7	294,99
452,949	294,9
453,199	296,28
453,448	298,03
453,698	298,34
453,947	297,28
454,197	296,85
454,446	295,67
454,696	297,74
454,945	295,91
455,195	293,14
455,444	294,38
455,693	297,36
455,943	294,5
456,192	293,85
456,442	293,05
456,691	292,09
456,94	290,11
457,189	287,76
457,439	286,95
457,688	285,63
457,937	280,78
458,186	278,21
458,436	273,73
458,685	273,52
458,934	269,18
459,183	265,21
459,432	264,56
459,681	261,27
459,93	257,45
460,179	255,05
460,429	250,31
460,678	251,01
460,927	249,63
461,176	245,16
461,425	241,42
461,674	239,98
461,923	237,86
462,172	234,22
462,42	229,28
462,669	228,84
462,918	226,26
463,167	223,14
463,416	216,68
463,665	214,19
463,914	210,65
464,162	206,56
464,411	203,79
464,66	201,99
464,909	197,46
465,158	194,91
465,406	192,7
465,655	191,86
465,904	190,81
466,152	189,14
466,401	186,81
466,65	186,81
466,898	184,3
467,147	178,5
467,395	174,41
467,644	173,3
467,893	170,99
468,141	168,8
468,39	163,8
468,638	160,65
468,887	157,26
469,135	156,22
469,384	154,42
469,632	151,25
469,88	149,56
470,129	148,39
470,377	143,23
470,626	143,63
470,874	142,25
471,122	142,34
471,371	139,21
471,619	137,25
471,867	137,85
472,115	137,45
472,364	134,64
472,612	137,17
472,86	134,89
473,108	133,51
473,356	132,24
473,605	129,52
473,853	126,49
474,101	124,28
474,349	122,03
474,597	122,8
474,845	121,41
475,093	120,15
475,341	115,97
475,589	113,99
475,837	114,9
476,085	115,52
476,333	112,82
476,581	113,25
476,829	111,82
477,077	113,03
477,325	113,33
477,573	114,02
477,821	111,7
478,069	113,66
478,317	113,62
478,564	115,04
478,812	112,55
479,06	111,6
479,308	109,39
479,555	109,02
479,803	107,71
480,051	108,8
480,299	107,93
480,546	106,84
480,794	103,82
481,042	103,25
481,289	102,69
481,537	104
481,784	103,42
482,032	105,5
482,28	104,19
482,527	103,98
482,775	103,9
483,022	106
483,27	108,24
483,517	109,71
483,765	108,21
484,012	108,94
484,259	106,58
484,507	108,05
484,754	107,87
485,002	106,81
485,249	105,72
485,496	108,53
485,744	107,29
485,991	106,23
486,238	104,29
486,486	108,24
486,733	109,26
486,98	111,4
487,227	109,26
487,474	110,28
487,722	111,16
487,969	108,74
488,216	109,34
488,463	108,55
488,71	106,64
488,957	105,38
489,204	103,24
489,451	102,89
489,699	101,91
489,946	100,56
490,193	99,46
490,44	100,49
490,687	101,74
490,934	98,89
491,18	95,37
491,427	95,77
491,674	98,98
491,921	99,97
492,168	99,27
492,415	97,17
492,662	99,56
492,909	101,92
493,155	100,37
493,402	98,8
493,649	97,02
493,896	97,65
494,142	93,64
494,389	92,19
494,636	92,29
494,883	90,14
495,129	88,26
495,376	86,5
495,623	87,97
495,869	89,57
496,116	93,41
496,362	94,76
496,609	98,87
496,855	103,76
497,102	103,43
497,348	102,68
497,595	104,26
497,841	108,43
498,088	106,17
498,334	105,11
498,581	104,42
498,827	104,16
499,074	105,71
499,32	104,81
499,566	108,14
499,813	108,99
500,059	108,25
500,305	108,02
500,552	106,79
500,798	107,05
501,044	111,01
501,29	110,15
501,537	108,49
501,783	111,33
502,029	115,83
502,275	113,2
502,521	113,79
502,767	114,95
503,013	119,16
503,26	118,5
503,506	114,62
503,752	114,99
503,998	114,47
504,244	114,14
504,49	112,11
504,736	115,73
504,982	116,06
505,228	117,53
505,474	117,67
505,72	119,56
505,966	119,64
506,211	122,74
506,457	123,63
506,703	120,87
506,949	120,73
507,195	119,18
507,441	115,18
507,686	117,01
507,932	116,37
508,178	117,74
508,424	116,39
508,669	114,13
508,915	113,38
509,161	115,03
509,406	115,35
509,652	113,45
509,898	115,83
510,143	116,04
510,389	114,75
510,634	110,08
510,88	113,67
511,125	117,5
511,371	117,08
511,616	117,62
511,862	114,73
512,107	113,4
512,353	113,29
512,598	113,2
512,844	111,37
513,089	108,45
513,335	108,97
513,58	107,67
513,825	108,65
514,071	107,39
514,316	107,52
514,561	108,71
514,806	108,37
515,052	111,26
515,297	110,62
515,542	110,87
515,787	110,57
516,033	112,29
516,278	112,59
516,523	113,15
516,768	111,91
517,013	110,3
517,258	110,53
517,503	110,3
517,748	111,48
517,993	111,55
518,238	110,74
518,483	107,12
518,728	105,38
518,973	103,85
519,218	103,05
519,463	103,02
519,708	100,39
519,953	97,68
520,198	96,71
520,443	97,97
520,688	100,73
520,933	99,78
521,177	99,37
521,422	95,88
521,667	99,79
521,912	98,93
522,157	93,93
522,401	94,9
522,646	93,68
522,891	93,64
523,135	91,85
523,38	91,12
523,625	90,59
523,869	92,81
524,114	94,73
524,358	94,8
524,603	92,48
524,848	88,9
525,092	87,39
525,337	86,56
525,581	87,81
525,826	90,42
526,07	91,71
526,315	93,26
526,559	91,98
526,803	91,04
527,048	95,28
527,292	96,18
527,537	95,99
527,781	95,17
528,025	92,93
528,269	93,07
528,514	93,34
528,758	91,83
529,002	91,88
529,247	92,45
529,491	93,26
529,735	98,32
529,979	98,01
530,223	101,01
530,467	97,97
530,712	97,74
530,956	98,09
531,2	97,64
531,444	96,59
531,688	96,94
531,932	96,15
532,176	97,77
532,42	99,09
532,664	100,66
532,908	100,71
533,152	98,9
533,396	98,58
533,64	96,06
533,884	92,35
534,128	92,37
534,371	92,99
534,615	92,54
534,859	92,4
535,103	91,54
535,347	92,69
535,59	94,37
535,834	91,97
536,078	91,85
536,322	94,22
536,565	96,34
536,809	95,04
537,053	96,22
537,296	93,98
537,54	92,53
537,784	90,51
538,027	92,81
538,271	91,15
538,514	88,69
538,758	88,66
539,001	85,32
539,245	85
539,488	85,59
539,732	86,02
539,975	86,09
540,219	87,65
540,462	88,2
540,706	89,94
540,949	88,97
541,192	91,26
541,436	97,3
541,679	100,75
541,922	101,37
542,166	98,89
542,409	99,38
542,652	99,28
542,895	99,61
543,139	99,81
543,382	103,47
543,625	103,37
543,868	103,04
544,111	102,88
544,354	100,21
544,598	98,61
544,841	98,13
545,084	98,27
545,327	97,48
545,57	97,75
545,813	100,21
546,056	100,56
546,299	100,96
546,542	102,37
546,785	103,9
547,028	104,12
547,271	103,91
547,514	103,66
547,756	100,64
547,999	101,07
548,242	102,51
548,485	100,15
548,728	98,73
548,971	95,15
549,213	95,68
549,456	95,47
549,699	95,19
549,942	95,5
550,184	95,06
550,427	95,03
550,67	94,95
550,912	90,32
551,155	92,09
551,398	91,51
551,64	90,91
551,883	92,43
552,125	91,72
552,368	91,92
552,61	90,2
552,853	92,09
553,095	90,29
553,338	90,12
553,58	90,92
553,823	89,75
554,065	92,04
554,308	87,98
554,55	85,52
554,792	84,45
555,035	83,8
555,277	83,68
555,519	83
555,762	79,52
556,004	81,36
556,246	80,84
556,488	80,19
556,731	76,96
556,973	77,68
557,215	77,16
557,457	77,35
557,699	80,52
557,941	77,63
558,183	76,48
558,426	78,27
558,668	75,36
558,91	76,65
559,152	74,96
559,394	75,35
559,636	77,21
559,878	78,61
560,12	78,4
560,362	78,44
560,604	78,64
560,845	77,16
561,087	76,49
561,329	78,03
561,571	75,27
561,813	76,32
562,055	76,7
562,297	77,72
562,538	78,41
562,78	81,74
563,022	80,09
563,264	82,63
563,505	81,72
563,747	81,5
563,989	79,7
564,23	79,71
564,472	78,03
564,714	79,75
564,955	80,21
565,197	77,78
565,438	79,73
565,68	82,45
565,921	81,38
566,163	81,97
566,404	80,56
566,646	83,54
566,887	85,48
567,129	86,54
567,37	85,47
567,612	86,82
567,853	84,61
568,094	86,3
568,336	86,73
568,577	86,47
568,818	86,62
569,06	86,73
569,301	85,05
569,542	86,03
569,783	86,62
570,025	87,7
570,266	86,03
570,507	87,57
570,748	86,26
570,989	87,37
571,23	88,79
571,472	88,57
571,713	87,11
571,954	87,72
572,195	86,42
572,436	88,28
572,677	90,02
572,918	92,15
573,159	91,04
573,4	89,38
573,641	88,95
573,882	89,46
574,123	87,73
574,364	81,8
574,604	81,37
574,845	79,2
575,086	79,47
575,327	80,62
575,568	79,15
575,809	79,09
576,049	79,82
576,29	78,47
576,531	82,77
576,771	87,98
577,012	88,76
577,253	90,37
577,494	90,24
577,734	91,01
577,975	92,52
578,215	93,24
578,456	91,89
578,697	92,82
578,937	96,41
579,178	97,01
579,418	98,43
579,659	98,27
579,899	94,96
580,14	95,45
580,38	94,11
580,62	95,38
580,861	98,66
581,101	98,61
581,342	98,78
581,582	96,06
581,822	99,13
582,063	100,03
582,303	103,06
582,543	103,04
582,783	104,14
583,024	108,92
583,264	112,87
583,504	112,09
583,744	113,41
583,984	111,66
584,224	111,35
584,465	111,69
584,705	111,97
584,945	113,38
585,185	114,06
585,425	114,82
585,665	115,5
585,905	117,38
586,145	118,12
586,385	117,53
586,625	121,68
586,865	120,72
587,105	121,54
587,345	124,03
587,585	124,15
587,824	125,33
588,064	125,6
588,304	126,11
588,544	128,9
588,784	129,79
589,024	135,17
589,263	137,07
589,503	136,46
589,743	138,24
589,982	139,09
590,222	140,76
590,462	138,09
590,701	137,02
590,941	141,19
591,181	141,68
591,42	141,34
591,66	143,67
591,899	148,9
592,139	149,55
592,378	151,2
592,618	151,69
592,857	151,83
593,097	154,43
593,336	155,13
593,576	156,94
593,815	157,77
594,055	157,95
594,294	161,06
594,533	161,82
594,773	162,74
595,012	166,67
595,251	169,15
595,491	171,93
595,73	174,91
595,969	175,54
596,208	177,84
596,447	181,36
596,687	183,11
596,926	185,5
597,165	186,75
597,404	190,31
597,643	190,28
597,882	191,56
598,121	194,34
598,36	195,88
598,599	199,31
598,838	202,1
599,077	201,38
599,316	201,02
599,555	202,62
599,794	204,86
600,033	208,02
600,272	211,21
600,511	209,99
600,75	213,7
600,989	214,99
601,228	217,72
601,466	218,64
601,705	219,66
601,944	222,95
602,183	226,43
602,422	225,71
602,66	225,04
602,899	224,96
603,138	226,27
603,376	228,31
603,615	228,99
603,854	227,34
604,092	228,65
604,331	231,38
604,569	231,14
604,808	231,6
605,047	233,52
605,285	233,63
605,524	233,57
605,762	232,76
606	233,75
606,239	235,99
606,477	235,91
606,716	234,41
606,954	233,78
607,193	230,95
607,431	228,24
607,669	228,11
607,908	228,31
608,146	229,18
608,384	228,3
608,622	228,6
608,861	229,97
609,099	229,95
609,337	228,75
609,575	227,99
609,813	229,36
610,052	229,62
610,29	227,74
610,528	225,33
610,766	223,32
611,004	224,71
611,242	224,6
611,48	224,11
611,718	219,96
611,956	221,65
612,194	220,63
612,432	220,96
612,67	221,36
612,908	223,26
613,146	221,21
613,384	220,44
613,621	218,6
613,859	220,02
614,097	219
614,335	219,07
614,573	220,96
614,811	222,86
615,048	221,58
615,286	222,29
615,524	221,67
615,761	220,65
615,999	221,07
616,237	219,38
616,474	221,27
616,712	222,08
616,95	221,62
617,187	220,84
617,425	223,05
617,662	224
617,9	223,69
618,137	224,12
618,375	221,96
618,612	220,74
618,85	221,33
619,087	224,12
619,325	222,93
619,562	221,68
619,799	220,44
620,037	219,44
620,274	218,55
620,511	220,06
620,749	217,9
620,986	217,26
621,223	214,5
621,461	214,13
621,698	214,87
621,935	213,83
622,172	212,89
622,409	214,52
622,647	213,27
622,884	211,44
623,121	213,32
623,358	210,61
623,595	211,64
623,832	210,64
624,069	209,12
624,306	208,92
624,543	210,05
624,78	209,03
625,017	209,29
625,254	211,26
625,491	212,72
625,728	214,64
625,965	214,84
626,202	214,7
626,438	213,68
626,675	212,49
626,912	214,55
627,149	214,19
627,386	214,16
627,622	211,7
627,859	211,63
628,096	211,62
628,333	209,95
628,569	210,28
628,806	212,23
629,043	212,52
629,279	212,82
629,516	213,6
629,752	209,18
629,989	209,83
630,225	208,37
630,462	206,43
630,699	207,5
630,935	206,2
631,171	203,88
631,408	204,41
631,644	202,63
631,881	198,98
632,117	197,22
632,354	196,38
632,59	194,75
632,826	192,93
633,063	192,14
633,299	192,41
633,535	190,29
633,771	188,81
634,008	189,72
634,244	189,12
634,48	187,47
634,716	188,46
634,953	187,51
635,189	187,18
635,425	189,97
635,661	193,89
635,897	192,05
636,133	190,62
636,369	187,62
636,605	183,89
636,841	182,45
637,077	183,98
637,313	183,4
637,549	182,86
637,785	183,52
638,021	182,6
638,257	180,54
638,493	182,44
638,729	179,52
638,965	181,84
639,2	183,11
639,436	180,73
639,672	179,75
639,908	176,72
640,144	179,9
640,379	180,5
640,615	177,85
640,851	177,66
641,086	178,34
641,322	176,62
641,558	175,3
641,793	176,02
642,029	173,65
642,264	173,31
642,5	172,35
642,736	167,38
642,971	165,4
643,207	163,75
643,442	162,3
643,678	163,16
643,913	164,87
644,148	163,25
644,384	164,38
644,619	164,09
644,855	164,79
645,09	163,05
645,325	162,45
645,561	163,08
645,796	160,01
646,031	162,4
646,266	158,89
646,502	156,92
646,737	158,92
646,972	158,55
647,207	157,99
647,442	154,1
647,678	150,71
647,913	152,2
648,148	152,41
648,383	150,89
648,618	150,08
648,853	150,37
649,088	150,97
649,323	152,65
649,558	153,62
649,793	152,41
650,028	152,2
650,263	149,33
650,498	150,76
650,733	150,42
650,968	147,41
651,202	147,65
651,437	146,1
651,672	143,81
651,907	141,77
652,142	141,74
652,376	142,73
652,611	143,85
652,846	144,4
653,081	144,96
653,315	143,45
653,55	143,51
653,785	143,27
654,019	144
654,254	142,03
654,488	143,52
654,723	140,64
654,958	138,83
655,192	137,22
655,427	134,77
655,661	135,91
655,896	137,82
656,13	137,66
656,364	134,83
656,599	131,61
656,833	136,18
657,068	137,51
657,302	137,82
657,536	135,16
657,771	135,07
658,005	134,72
658,239	136,53
658,474	133,65
658,708	133,97
658,942	132,3
659,176	131
659,41	128,13
659,645	126,04
659,879	123,92
660,113	118,58
660,347	116,07
660,581	113,55
660,815	112,49
661,049	109,78
661,283	106,68
661,517	105,05
661,751	103,31
661,985	102,27
662,219	103,54
662,453	102,47
662,687	103,25
662,921	99,04
663,155	97,57
663,389	92,09
663,622	90,05
663,856	91,69
664,09	84,31
664,324	83,67
664,558	82,21
664,791	81,5
665,025	81,72
665,259	80,62
665,492	78,33
665,726	79,62
665,96	79,41
666,193	78,41
666,427	78,69
666,661	77,2
666,894	74,61
667,128	72,95
667,361	75,28
667,595	73,25
667,828	72,01
668,062	71
668,295	72,22
668,529	72,13
668,762	72,01
668,995	70,19
669,229	73,28
669,462	72,43
669,695	71,53
669,929	68,91
670,162	68,97
670,395	66,68
670,629	68
670,862	69,56
671,095	66,13
671,328	65,7
671,561	62,52
671,795	62,7
672,028	63,22
672,261	63,17
672,494	63,71
672,727	61,66
672,96	62,56
673,193	61,13
673,426	64,25
673,659	65,19
673,892	65,51
674,125	65,99
674,358	65,94
674,591	64,66
674,824	64,58
675,057	64,42
675,29	63,22
675,523	64,4
675,755	61,7
675,988	61,96
676,221	65,07
676,454	62,49
676,687	63,68
676,919	62,1
677,152	62,44
677,385	62,33
677,617	63,19
677,85	63,25
678,083	61,71
678,315	63,72
678,548	62,06
678,78	61,11
679,013	60,99
679,246	61,55
679,478	60,82
679,711	58,03
679,943	60,5
680,175	57,2
680,408	60,47
680,64	54,96
680,873	54,02
681,105	54,71
681,338	56,85
681,57	55,64
681,802	55,35
682,034	54,96
682,267	57
682,499	58,37
682,731	54,87
682,964	55,2
683,196	52,8
683,428	49,57
683,66	48,37
683,892	49,88
684,124	51,85
684,356	54,02
684,589	54,07
684,821	51,21
685,053	50,63
685,285	50,51
685,517	49,46
685,749	50,72
685,981	51,94
686,213	51,51
686,445	51,58
686,676	49,48
686,908	50,98
687,14	48,03
687,372	49,08
687,604	44,7
687,836	45,98
688,068	45,81
688,299	44,92
688,531	43,14
688,763	45,84
688,995	45,3
689,226	49,08
689,458	47,79
689,69	45,66
689,921	43,25
690,153	42,97
690,384	45,47
690,616	44,19
690,848	44,12
691,079	40,24
691,311	37,44
691,542	34,14
691,774	31,9
692,005	34,47
692,237	37,29
692,468	35,65
692,699	36,33
692,931	35,36
693,162	33,48
693,393	32,23
693,625	30,9
693,856	31,89
694,087	30,86
694,319	33,41
694,55	32,36
694,781	32,88
695,012	33,57
695,243	32,43
695,475	31,76
695,706	30,94
695,937	30,34
696,168	28,74
696,399	25,44
696,63	25,21
696,861	25,26
697,092	31,63
697,323	33,96
697,554	34,27
697,785	36
698,016	36,78
698,247	35,14
698,478	37,31
698,709	38,6
698,94	41
699,171	40,56
699,401	37,09
699,632	39,18
699,863	35,23
700,094	35,16
700,325	37,31
700,555	39
700,786	39,76
701,017	39,55
701,247	39,27
701,478	38,13
701,709	37,83
701,939	35,58
702,17	35,42
702,401	36,23
702,631	36,25
702,862	35,43
703,092	32,46
703,323	36,06
703,553	35,89
703,784	35,51
704,014	36,09
704,244	29,83
704,475	28,31
704,705	28,27
704,936	26,71
705,166	24,75
705,396	27,19
705,627	26,12
705,857	26,07
706,087	26,02
706,317	23,92
706,548	21,29
706,778	20,5
707,008	21,31
707,238	21,8
707,468	20,02
707,698	17,73
707,928	18,16
708,158	17,73
708,389	17,14
708,619	15,79
708,849	15,23
709,079	17,05
709,309	16,57
709,539	14,27
709,768	14,2
709,998	16,52
710,228	16,79
710,458	14,57
710,688	13,17
710,918	12,69
711,148	11,84
711,378	13,77
711,607	11,9
711,837	11,24
712,067	11,31
712,297	12,84
712,526	11,95
712,756	13,45
712,986	11,04
713,215	9,85
713,445	11,09
713,674	13,77
713,904	12,84
714,134	16,4
714,363	15,15
714,593	13,18
714,822	13,12
715,052	11,21
715,281	11,05
715,511	10,96
715,74	11,15
715,969	9,8
716,199	8,52
716,428	7,91
716,657	8,48
716,887	9,74
717,116	6,87
717,345	8,68
717,575	9,59
717,804	10,49
718,033	8,83
718,262	9,49
718,492	9,4
718,721	12,05
718,95	11,43
719,179	10,36
719,408	10,16
719,637	6,38
719,866	3,42
720,095	5,36
720,324	5,09
720,553	0,78
720,782	-1,8
721,011	-1,78
721,24	-4,8
721,469	-5,35
721,698	-4,14
721,927	-4,46
722,156	-6,38
722,385	-7,39
722,613	-5,31
722,842	-4,6
723,071	-1,61
723,3	-0,42
723,529	-0,84
723,757	-0,12
723,986	-2,73
724,215	-3,14
724,443	-2,41
724,672	-0,68
724,901	0,43
725,129	2,89
725,358	5,32
725,586	4,35
725,815	2,18
726,043	1,64
726,272	0,55
726,5	-0,02
726,729	1,32
726,957	-0,39
727,186	-1,44
727,414	-1,48
727,642	1,59
727,871	4,3
728,099	3,56
728,327	4,48
728,556	5,34
728,784	6,56
729,012	4,46
729,241	8,79
729,469	7,64
729,697	4,24
729,925	4,04
730,153	2,93
730,381	2,03
730,61	3
730,838	0,87
731,066	2,07
731,294	2,83
731,522	-0,01
731,75	-3,96
731,978	-5,31
732,206	-6,33
732,434	-9,62
732,662	-8,66
732,89	-8,97
733,118	-10,39
733,346	-9,43
733,573	-10,34
733,801	-8,68
734,029	-3,37
734,257	-2,84
734,485	-0,35
734,712	0,08
734,94	-3,69
735,168	-0,59
735,396	-0,35
735,623	-0,82
735,851	-1,38
736,078	0,01
736,306	-0,26
736,534	-0,21
736,761	1,46
736,989	0,73
737,216	0,02
737,444	-1,72
737,671	-1,36
737,899	2,74
738,126	1,29
738,354	0,43
738,581	1,46
738,809	2,7
739,036	0,87
739,263	1,39
739,491	0,41
739,718	-0,71
739,945	3,95
740,173	5,98
740,4	5,9
740,627	5,81
740,854	5,16
741,081	3,48
741,309	2,18
741,536	-1,93
741,763	-2,72
741,99	1,33
742,217	0,99
742,444	-0,76
742,671	0,91
742,898	0,74
743,125	-0,68
743,352	-3,6
743,579	-3,29
743,806	-4,77
744,033	-3,23
744,26	-2,74
744,487	-1,17
744,714	-1,04
744,941	-1,31
745,167	2,18
745,394	2,66
745,621	2,2
745,848	1,37
746,075	4,48
746,301	7,64
746,528	11,43
746,755	10,5
746,981	9,42
747,208	10,68
747,435	12,32
747,661	13,84
747,888	14,25
748,114	11,89
748,341	13,54
748,567	15,53
748,794	14,13
749,02	11,44
749,247	8,16
749,473	8,98
749,7	7,61
749,926	7,08
750,152	10,95
750,379	11,14
750,605	12,18
750,831	12,33
751,058	11,57
751,284	10,34
751,51	11,89
751,737	12,35
751,963	10,84
752,189	8,96
752,415	6,55
752,641	5,7
752,867	5,68
753,094	3,84
753,32	1,33
753,546	-0,01
753,772	1,97
753,998	-0,25
754,224	-0,59
754,45	-0,99
754,676	-2,11
754,902	-1,98
755,128	-2,04
755,354	-1,95
755,579	-1,62
755,805	1,33
756,031	1,13
756,257	1,98
756,483	0,35
756,709	0,39
756,934	0,43
757,16	-0,62
757,386	-0,15
757,612	-2,85
757,837	-2,94
758,063	-0,67
758,289	1,17
758,514	-1,44
758,74	-4,1
758,965	-7,33
759,191	-5,08
759,416	-2,8
759,642	-1,29
759,868	-0,87
760,093	0,76
760,318	-1,13
760,544	-1,63
760,769	-2,69
760,995	-2,79
761,22	-3,96
761,445	-2,39
761,671	-0,42
761,896	1,07
762,121	2,24
762,347	1,08
762,572	-0,61
762,797	-2,64
763,022	-2,22
763,248	1,24
763,473	3,29
763,698	1,59
763,923	2,6
764,148	0,95
764,373	0,15
764,598	2,78
764,823	4,37
765,048	0,79
765,273	-1,61
765,498	-0,76
765,723	0,17
765,948	1,6
766,173	0,11
766,398	0,62
766,623	-0,19
766,848	-1,14
767,073	-2,03
767,298	-1,33
767,522	-2,84
767,747	-0,9
767,972	-1,77
768,197	-0,52
768,421	-2,38
768,646	-4,24
768,871	-7,2
769,095	-6,69
769,32	-6,72
769,545	-6,18
769,769	-4,37
769,994	-2,86
770,218	-5,36
770,443	-5,74
770,667	-3,41
770,892	-3,08
771,116	-2,8
771,341	-0,32
771,565	-2,03
771,79	-2,25
772,014	-2,51
772,238	-3,33
772,463	-1,74
772,687	-1,54
772,911	-1,91
773,136	-4,45
773,36	-3,23
773,584	-3,14
773,808	-4,01
774,033	-4,38
774,257	-3,97
774,481	-2,99
774,705	-5,44
774,929	-4,54
775,153	-5,07
775,377	-4,52
775,602	-4,57
775,826	-2,45
776,05	-1,09
776,274	-1,48
776,498	-2,19
776,722	-3,8
776,945	-4,05
777,169	-4,63
777,393	-4,02
777,617	-6,43
777,841	-5,87
778,065	-5,56
778,289	-7,39
778,512	-8,04
778,736	-8,02
778,96	-8,65
779,184	-6,59
779,407	-8,33
779,631	-7,29
779,855	-7,49
780,078	-4,78
780,302	-6,88
780,526	-8,82
780,749	-7,15
780,973	-6,33
781,196	-5,83
781,42	-6,89
781,643	-5,39
781,867	-4,29
782,09	-7,29
782,314	-8,34
782,537	-9,87
782,76	-11,5
782,984	-10,66
783,207	-11,55
783,431	-11,26
783,654	-11,9
783,877	-13,93
784,1	-14,26
784,324	-16,08
784,547	-15,93
784,77	-19,53
784,993	-20,8
785,216	-21,36
785,44	-20,02
785,663	-21,36
785,886	-18,23
786,109	-19,08
786,332	-19,02
786,555	-18,8
786,778	-17,63
787,001	-18,59
787,224	-16,46
787,447	-14,77
787,67	-14,21
787,893	-14,45
788,116	-15,76
788,339	-15,42
788,561	-15,5
788,784	-19,06
789,007	-19,32
789,23	-19,34
789,453	-18,37
789,675	-19,35
789,898	-21,87
790,121	-21,82
790,344	-20,72
790,566	-19,33
790,789	-18,91
791,012	-18,37
791,234	-15,08
791,457	-12,7
791,679	-12,33
791,902	-10,66
792,124	-11,18
792,347	-12,19
792,569	-11,69
792,792	-14,64
793,014	-11,52
793,237	-8,91
793,459	-9,95
793,681	-9,88
793,904	-9,48
794,126	-10,85
794,348	-11,37
794,571	-11,01
794,793	-12,4
795,015	-11,62
795,237	-12,32
795,46	-12,46
795,682	-11,37
795,904	-8,35
796,126	-9,31
796,348	-9,9
796,57	-7,07
796,792	-6,42
797,014	-2,56
797,237	-1,08
797,459	0,3
797,681	1,56
797,903	-0,53
798,124	-1,18
798,346	9,74
798,568	11,57
798,79	14,88
799,012	17,65
799,234	18,58
799,456	20,17
799,678	21,69
799,899	19,69
800,121	16,34
800,343	15,4
800,565	14,96
800,786	15,24
801,008	17,33
801,23	17,38
801,451	18,11
801,673	17,33
801,895	16,8
802,116	18,96
802,338	20,66
802,559	20,88
802,781	18,92
803,002	20,33
803,224	22,41
803,445	19,78
803,667	21,21
803,888	17,84
804,109	17,77
804,331	16,2
804,552	17,07
804,773	19,3
804,995	16,94
805,216	4,3
805,437	2,42
805,658	-0,49
805,88	-3,43
806,101	-2,04
806,322	-3,12
806,543	-3,87
806,764	-6,87
806,985	-4,52
807,207	-3,26
807,428	-1,46
807,649	-4,41
807,87	-7,64
808,091	-7,57
808,312	-7,02
808,533	-1,9
808,754	-0,14
808,975	-1,71
809,195	-2,1
809,416	-2,31
809,637	-1,17
809,858	-2,21
810,079	-3,52
810,3	-1,59
810,52	-2,42
810,741	-3,36
810,962	-6,04
811,183	-5,47
811,403	-6,51
811,624	-7,25
811,845	-5,83
812,065	-4,71
812,286	-3,67
812,506	-4,13
812,727	-3,34
812,948	-3,76
813,168	-1,4
813,389	-1,87
813,609	1,48
813,83	0,82
814,05	-0,9
814,27	-1,04
814,491	2,22
814,711	1,7
814,931	-1,17
815,152	-2,46
815,372	-5,33
815,592	-7,11
815,813	-8,58
816,033	-8,63
816,253	-7,38
816,473	-8,54
816,694	-6,56
816,914	-5,22
817,134	-5,58
817,354	-7,36
817,574	-6,58
817,794	-6,56
818,014	-8,39
818,234	-7,7
818,454	-8,84
818,674	-10,69
818,894	-12,7
819,114	-9,77
819,334	-9,68
819,554	-8,41
819,774	-6,73
819,994	-9,54
820,214	-9,86
820,433	-10,11
820,653	-11,78
820,873	-10,07
821,093	-9,71
821,312	-11,15
821,532	-8,68
821,752	-4,29
821,972	-5,27
822,191	-3,49
822,411	-3,8
822,63	-3,32
822,85	-3,77
823,07	-5,35
823,289	-4,79
823,509	-6,59
823,728	-4,41
823,948	-5,86
824,167	-6,99
824,387	-6,73
824,606	-5,18
824,825	-6,04
825,045	-6,63
825,264	-7,51
825,483	-5,55
825,703	-4,31
825,922	-7,34
826,141	-8,19
826,361	-8,73
826,58	-11,98
826,799	-14,52
827,018	-13,05
827,237	-12,64
827,456	-9,72
827,676	-9,25
827,895	-8,97
828,114	-8,51
828,333	-8,41
828,552	-9,18
828,771	-7,12
828,99	-9,17
829,209	-8,36
829,428	-5,09
829,647	-4,64
829,866	-4,15
830,084	-4,37
830,303	-4,05
830,522	-5,63
830,741	-4,77
830,96	-2,99
831,179	-4,17
831,397	-5,66
831,616	-5,13
831,835	-5,36
832,053	-3,67
832,272	-3,62
832,491	-3,35
832,709	-3,87
832,928	-2,68
833,147	-1,47
833,365	-1,63
833,584	2,2
833,802	4,04
834,021	3,55
834,239	2,52
834,458	0,18
834,676	-3,87
834,894	-3,08
835,113	-4,37
835,331	-5,73
835,55	-6,98
835,768	-6,2
835,986	-5,22
836,204	-7,53
836,423	-7,66
836,641	-8,42
836,859	-9,03
837,077	-9
837,296	-9,46
837,514	-10,48
837,732	-11,69
837,95	-11,34
838,168	-9,17
838,386	-10,43
838,604	-7,59
838,822	-7,13
839,04	-7,92
839,258	-7,21
839,476	-6,18
839,694	-6,76
839,912	-8,94
840,13	-7,31
840,348	-4,63
840,566	-7,58
840,783	-5,29
841,001	-7,04
841,219	-4,65
841,437	-1,96
841,655	-2,28
841,872	-1,72
842,09	-2,29
842,308	-2,02
842,525	-2,9
842,743	-3,17
842,961	-4,57
843,178	-5,72
843,396	-3,45
843,613	-3,24
843,831	-2,4
844,048	-3,33
844,266	-1,4
844,483	-1,6
844,701	-2,37
844,918	-3,49
845,136	-1,59
845,353	-4,84
845,57	-3,84
845,788	-1,24
846,005	-2,82
846,222	-3,53
846,439	-0,85
846,657	-0,13
846,874	0,46
847,091	-1,98
847,308	0,04
847,526	-1,34
847,743	-0,64
847,96	-1,89
848,177	-2,86
848,394	-3,92
848,611	-4,65
848,828	-3,75
849,045	-3,89
849,262	-3,54
849,479	-3,59
849,696	-3,46
849,913	-4,18
850,13	-6,76
850,347	-3,11
850,564	-4,02
850,78	-5,35
850,997	-7,96
851,214	-7,22
851,431	-6,5
851,647	-8,11
851,864	-7,97
852,081	-6,24
852,298	-9,18
852,514	-10,2
852,731	-9
852,948	-6,44
853,164	-7,61
853,381	-7,79
853,597	-10,21
853,814	-12,58
854,03	-15,75
854,247	-15,16
854,463	-14,37
854,68	-14,69
854,896	-13,67
855,113	-12,48
855,329	-10,41
855,545	-9,39
855,762	-10,48
855,978	-13,43
856,194	-14,81
856,411	-11,81
856,627	-10,71
856,843	-10,97
857,059	-10,41
857,275	-11,44
857,492	-10,18
857,708	-7,76
857,924	-6,89
858,14	-4,83
858,356	-5,49
858,572	-6
858,788	-7,31
859,004	-5,55
859,22	-7,99
859,436	-7,72
859,652	-10,41
859,868	-11,53
860,084	-12,15
860,3	-10,25
860,516	-9,79
860,731	-9,9
860,947	-12,55
861,163	-12,13
861,379	-11,46
861,595	-11,02
861,81	-11,63
862,026	-12,75
862,242	-11,8
862,457	-12,13
862,673	-9,05
862,889	-7,89
863,104	-8,5
863,32	-8,75
863,535	-7,64
863,751	-12,28
863,966	-9,55
864,182	-7,33
864,397	-8,44
864,613	-9,45
864,828	-10,34
865,044	-8,42
865,259	-7,22
865,474	-6,89
865,69	-5,24
865,905	-4,7
866,12	-6,72
866,336	-6,3
866,551	-4,98
866,766	-5,07
866,981	-6,53
867,196	-5,36
867,412	-3,52
867,627	-3,08
867,842	-3,75
868,057	-4,45
868,272	-4,37
868,487	-5
868,702	-7,23
868,917	-7,89
869,132	-6,53
869,347	-6,44
869,562	-7,76
869,777	-8,24
869,992	-8,43
870,207	-7,96
870,422	-8,14
870,636	-9,86
870,851	-11,28
871,066	-11,75
871,281	-12,64
871,495	-14,08
871,71	-12,67
871,925	-13,85
872,14	-16,12
872,354	-18,48
872,569	-18,52
872,783	-16,43
872,998	-16,11
873,213	-17,32
873,427	-13,99
873,642	-13,59
873,856	-13,91
874,071	-13,38
874,285	-13,82
874,5	-15,02
874,714	-16,34
874,928	-16,55
875,143	-17,53
875,357	-17,02
875,571	-18,49
875,786	-18,05
876	-15,93
876,214	-15,63
876,429	-17,34
876,643	-17,19
876,857	-17,01
877,071	-15,2
877,285	-14,59
877,499	-16,53
877,714	-14,36
877,928	-12,15
878,142	-13,87
878,356	-15,72
878,57	-15,37
878,784	-13,31
878,998	-13,44
879,212	-10,84
879,426	-12,45
879,639	-10,43
879,853	-11,68
880,067	-12,76
880,281	-13,14
880,495	-11,07
880,709	-9,39
880,922	-7,93
881,136	-6,49
881,35	-4,49
881,564	-6,16
881,777	-7,46
881,991	-6,2
882,205	-4,41
882,418	-4,87
882,632	-7,96
882,845	-6,55
883,059	-5,43
883,273	-6,13
883,486	-7,22
883,7	-5,49
883,913	-6,81
884,126	-6,86
884,34	-9,85
884,553	-11,66
884,767	-6,9
884,98	-6,19
885,193	-7,27
885,407	-7,04
885,62	-5,41
885,833	-6,94
886,046	-6,33
886,26	-8,77
886,473	-7,65
886,686	-9,09
886,899	-8,06
887,112	-11,53
887,326	-15,33
887,539	-14,88
887,752	-13,15
887,965	-14,43
888,178	-14
888,391	-12,87
888,604	-12,58
888,817	-12,92
889,03	-11,35
889,243	-11,7
889,455	-15,41
889,668	-15,94
889,881	-13,38
890,094	-13,1
890,307	-15,97
890,52	-13,84
890,732	-11,8
890,945	-12,19
891,158	-12,44
891,37	-15,93
891,583	-16,1
891,796	-14,16
892,008	-15,12
892,221	-16,42
892,434	-19,18
892,646	-20,78
892,859	-20,62
893,071	-20,51
893,284	-17,69
893,496	-17,64
893,709	-17,24
893,921	-15,62
894,133	-17,43
894,346	-18,06
894,558	-18,53
894,771	-17,4
894,983	-14,98
895,195	-14,5
895,407	-15,58
895,62	-18,53
895,832	-17,9
896,044	-14,47
896,256	-14,51
896,468	-16,29
896,681	-14,96
896,893	-13,31
897,105	-15,43
897,317	-16,95
897,529	-15,06
897,741	-13,85
897,953	-10,94
898,165	-12,89
898,377	-14,38
898,589	-12,73
898,801	-12,62
899,013	-9,71
899,224	-6,07
899,436	-4,8
899,648	-5,52
899,86	-7,66
900,072	-5,74
900,283	-3,4
900,495	-3,16
900,707	-1,56
900,919	-4,57
901,13	-3,6
901,342	-5,49
901,554	-6,04
901,765	-6,43
901,977	-8,22
902,188	-8,93
902,4	-9,73
902,611	-11,94
902,823	-13,6
903,034	-15,08
903,246	-16,72
903,457	-17,22
903,669	-16,69
903,88	-16,28
904,091	-16,96
904,303	-16,16
904,514	-17,57
904,725	-15,51
904,936	-14,19
905,148	-15,19
905,359	-13,5
905,57	-15,19
905,781	-17,75
905,992	-19,25
906,204	-18,63
906,415	-18,92
906,626	-20,42
906,837	-19,27
907,048	-19,37
907,259	-20,38
907,47	-21,01
907,681	-22,12
907,892	-19,95
908,103	-21,39
908,314	-22,4
908,525	-20,08
908,735	-18,16
908,946	-18,46
909,157	-18,99
909,368	-17,77
909,579	-15,77
909,789	-17,78
910	-19,3
910,211	-17,22
910,421	-17,73
910,632	-15,75
910,843	-18,31
911,053	-15,26
911,264	-13,01
911,475	-14,07
911,685	-14,42
911,896	-14,12
912,106	-12,33
912,317	-12,1
912,527	-9,89
912,737	-9,29
912,948	-8,61
913,158	-8,56
913,369	-10,58
913,579	-8,27
913,789	-8,2
914	-3,95
914,21	-2,43
914,42	-2,71
914,63	-3,28
914,841	-3,53
915,051	-2,81
915,261	-3,28
915,471	0,16
915,681	1,08
915,891	3,1
916,101	1,75
916,311	2,61
916,521	4,61
916,731	4,13
916,941	6,03
917,151	4,07
917,361	6,8
917,571	3,32
917,781	2,76
917,991	0,72
918,201	0,93
918,411	-1,64
918,621	-2,33
918,83	-1,72
919,04	-2,49
919,25	-0,62
919,46	0,42
919,669	-2,71
919,879	-2,76
920,089	-4,44
920,298	-3,94
920,508	-5,59
920,717	-5,01
920,927	-5,51
921,136	-4,64
921,346	-6,02
921,555	-8,87
921,765	-8,28
921,974	-11,97
922,184	-13,66
922,393	-14,3
922,603	-14,99
922,812	-13,24
923,021	-14,97
923,23	-16,16
923,44	-19,28
923,649	-18,46
923,858	-20,18
924,067	-20,65
924,277	-23,55
924,486	-20,81
924,695	-20,99
924,904	-20,24
925,113	-21,07
925,322	-21,01
925,531	-22,19
925,74	-25,19
925,949	-27,21
926,158	-24,54
926,367	-25,78
926,576	-25,5
926,785	-27,46
926,994	-28,11
927,203	-27,98
927,412	-29,14
927,621	-29,59
927,83	-26,6
928,038	-25,41
928,247	-25,73
928,456	-24,88
928,665	-23,93
928,873	-22,95
929,082	-21,59
929,291	-20,62
929,499	-18,92
929,708	-19,9
929,916	-18,24
930,125	-20,16
930,333	-19,49
930,542	-16,86
930,75	-13,04
930,959	-13,06
931,167	-13,02
931,376	-13,33
931,584	-12,72
931,793	-11,69
932,001	-11,72
932,209	-13,25
932,418	-14,78
932,626	-16,12
932,834	-16,1
933,042	-18,94
933,251	-18,3
933,459	-18,06
933,667	-19,5
933,875	-19,93
934,083	-18,47
934,291	-17,14
934,499	-16,27
934,707	-16,27
934,915	-15,17
935,123	-12,2
935,331	-13,67
935,539	-14,78
935,747	-16,67
935,955	-18,49
936,163	-17,79
936,371	-17,18
936,579	-14,19
936,787	-13,73
936,995	-16,01
937,202	-19,11
937,41	-19,76
937,618	-19,96
937,826	-19,37
938,033	-22,62
938,241	-25,2
938,449	-22,9
938,656	-19,49
938,864	-19,24
939,071	-19,13
939,279	-16,23
939,486	-13,67
939,694	-14,57
939,901	-16,16
940,109	-14,41
940,316	-13,79
940,524	-14,82
940,731	-17,56
940,939	-18,09
941,146	-18,47
941,353	-20,02
941,561	-21,69
941,768	-22,53
941,975	-21,26
942,182	-21,92
942,39	-20,63
942,597	-18,64
942,804	-19,38
943,011	-21,07
943,218	-21,28
943,425	-21,22
943,632	-20,67
943,839	-20,71
944,046	-21,27
944,253	-20,74
944,46	-19,92
944,667	-15,9
944,874	-16,58
945,081	-16,61
945,288	-14,7
945,495	-12,76
945,702	-14,21
945,909	-15,36
946,115	-13,47
946,322	-13
946,529	-13,56
946,736	-13,28
946,942	-11,77
947,149	-10,95
947,356	-11,29
947,562	-12,93
947,769	-13,44
947,976	-13,74
948,182	-12,14
948,389	-13,73
948,595	-12,21
948,802	-12,24
949,008	-14,24
949,215	-13,02
949,421	-12,76
949,628	-14,08
949,834	-13,22
950,04	-13,91
950,247	-10,34
950,453	-10,18
950,659	-12,02
950,865	-9,65
951,072	-14,47
951,278	-12,27
951,484	-13,59
951,69	-16,09
951,896	-17,38
952,103	-17,75
952,309	-16,75
952,515	-16,86
952,721	-15,55
952,927	-14,54
953,133	-15,38
953,339	-16,98
953,545	-18,77
953,751	-17,74
953,957	-14,39
954,163	-13,81
954,369	-14,2
954,574	-15,79
954,78	-15,14
954,986	-13,74
955,192	-12,62
955,398	-12,57
955,603	-14,72
955,809	-14,12
956,015	-12,99
956,22	-12,48
956,426	-12,18
956,632	-15,34
956,837	-14,46
957,043	-13,62
957,248	-12,73
957,454	-11,89
957,66	-14,97
957,865	-15,85
958,07	-13,83
958,276	-15,85
958,481	-17,62
958,687	-18,75
958,892	-19,25
959,097	-18,66
959,303	-19,1
959,508	-19,09
959,713	-18,72
959,919	-17,44
960,124	-17,57
960,329	-18,68
960,534	-16,42
960,739	-14,89
960,945	-12,99
961,15	-12,92
961,355	-15,67
961,56	-18,74
961,765	-20,81
961,97	-21,01
962,175	-19,09
962,38	-22,79
962,585	-22,85
962,79	-23,24
962,995	-24,01
963,2	-24,81
963,404	-24,87
963,609	-27,68
963,814	-28,8
964,019	-30,55
964,224	-31,78
964,428	-30,11
964,633	-26,98
964,838	-24,29
965,042	-24,37
965,247	-25,43
965,452	-26,94
965,656	-25,97
965,861	-25,81
966,066	-26,61
966,27	-24,9
966,475	-22,86
966,679	-25,79
966,884	-26,4
967,088	-27,99
967,292	-28,1
967,497	-27,74
967,701	-27,18
967,906	-24,55
968,11	-22,29
968,314	-18,35
968,518	-20,59
968,723	-15,74
968,927	-14,8
969,131	-13,74
969,335	-11,43
969,539	-12,1
969,744	-11,3
969,948	-8,99
970,152	-7,46
970,356	-6,18
970,56	-5,58
970,764	-7,04
970,968	-5,81
971,172	-5,58
971,376	-5,21
971,58	-4,55
971,784	-3,44
971,988	-5,08
972,192	-2,29
972,395	-3,11
972,599	-5,32
972,803	-6,27
973,007	-3,78
973,21	-3,59
973,414	-2,85
973,618	-3,67
973,822	-3,34
974,025	-3,14
974,229	-4,49
974,432	-6,36
974,636	-9,57
974,84	-7,89
975,043	-8,97
975,247	-9,95
975,45	-11,62
975,654	-11,04
975,857	-8,26
976,06	-8,88
976,264	-10,02
976,467	-8,23
976,671	-7,85
976,874	-5,94
977,077	-6,78
977,28	-8,87
977,484	-11,87
977,687	-12,78
977,89	-10,25
978,093	-10,23
978,297	-9,78
978,5	-12,07
978,703	-9,68
978,906	-9,04
979,109	-9,79
979,312	-9,96
979,515	-10,65
979,718	-12,3
979,921	-13,1
980,124	-14,27
980,327	-13,75
980,53	-12,11
980,733	-10,2
980,936	-6,87
981,138	-9,29
981,341	-8,89
981,544	-9,44
981,747	-9,01
981,949	-10
982,152	-9,48
982,355	-10,43
982,558	-7,75
982,76	-9,88
982,963	-10,17
983,165	-10,26
983,368	-9,25
983,571	-7,92
983,773	-4,83
983,976	-3,67
984,178	-3,58
984,381	-4,62
984,583	-6,52
984,785	-6,22
984,988	-5,32
985,19	-3,17
985,392	-4,62
985,595	-5,9
985,797	-4,7
985,999	-1,17
986,202	0,71
986,404	-0,34
986,606	1,06
986,808	-0,66
987,01	0,67
987,212	-1,91
987,415	-1,87
987,617	-3,03
987,819	-2,22
988,021	-0,04
988,223	-1,74
988,425	-3,59
988,627	-2,49
988,829	-6,15
989,031	-4,69
989,232	-6,04
989,434	-5,41
989,636	-6,13
989,838	-7,24
990,04	-6,33
990,242	-8,09
990,443	-10,74
990,645	-7,15
990,847	-4,63
991,048	-3,7
991,25	-4,7
991,452	-5,72
991,653	-5,76
991,855	-5,56
992,057	-7,71
992,258	-7,14
992,46	-7,49
992,661	-5,3
992,863	-7,07
993,064	-6,89
993,265	-7,39
993,467	-8,45
993,668	-6,95
993,87	-5,49
994,071	-7,38
994,272	-9,3
994,473	-8,09
994,675	-6,62
994,876	-5,83
995,077	-5,13
995,278	-5,14
995,48	-4,53
995,681	-6,64
995,882	-5,5
996,083	-5,34
996,284	-9,12
996,485	-6,88
996,686	-6,9
996,887	-9,65
997,088	-13,27
997,289	-15,55
997,49	-15,54
997,691	-17,39
997,892	-17,22
998,092	-13,59
998,293	-13,31
998,494	-15,13
998,695	-15,64
998,896	-15,16
999,096	-15,38
999,297	-14,7
999,498	-16,2
999,698	-17,53
999,899	-19,7
1000,1	-21,27
1000,3	-20,68
1000,501	-20,53
1000,701	-21,49
1000,902	-23,26
1001,102	-24,46
1001,303	-23,34
1001,503	-23,77
1001,704	-23,06
1001,904	-22,65
1002,105	-22,72
1002,305	-22,86
1002,505	-24,03
1002,706	-25,31
1002,906	-25,47
1003,106	-25,02
1003,306	-23,58
1003,507	-21,11
1003,707	-22,03
1003,907	-19,51
1004,107	-18,42
1004,307	-20,21
1004,507	-18,85
1004,707	-19,56
1004,907	-21,4
1005,107	-21,28
1005,308	-19,62
1005,507	-20,23
1005,707	-18,4
1005,907	-18,25
1006,107	-15,66
1006,307	-14,77
1006,507	-14,86
1006,707	-13,71
1006,907	-11,75
1007,106	-11,8
1007,306	-11,15
1007,506	-11,26
1007,706	-11,78
1007,905	-13,34
1008,105	-14,14
1008,305	-15,91
1008,504	-14,46
1008,704	-9,52
1008,903	-9,69
1009,103	-7,64
1009,303	-10,08
1009,502	-10,04
1009,702	-10,85
1009,901	-11,33
1010,1	-14,16
1010,3	-13,5
1010,499	-13,94
1010,699	-15,17
1010,898	-15,96
1011,097	-14,76
1011,296	-16,35
1011,496	-17,97
1011,695	-18,84
1011,894	-21,04
1012,093	-18,38
1012,293	-18,04
1012,492	-18,55
1012,691	-18,14
1012,89	-19,2
1013,089	-22,55
1013,288	-20,46
1013,487	-20,61
1013,686	-20,07
1013,885	-20,94
1014,084	-19,06
1014,283	-17,2
1014,482	-17,24
1014,681	-18,42
1014,88	-20,51
1015,078	-18,33
1015,277	-20,38
1015,476	-20,64
1015,675	-19,94
1015,873	-18,78
1016,072	-18,37
1016,271	-14,82
1016,47	-16,84
1016,668	-15,9
1016,867	-16,63
1017,065	-17,55
1017,264	-18,34
1017,463	-17,13
1017,661	-16,85
1017,86	-15,96
1018,058	-13,91
1018,256	-14,56
1018,455	-16,83
1018,653	-16,09
1018,852	-15,99
1019,05	-16,52
1019,248	-17,32
1019,447	-18,78
1019,645	-18,21
1019,843	-19,47
1020,041	-19,21
1020,24	-20,31
1020,438	-17,87
1020,636	-17,09
1020,834	-18,24
1021,032	-17,38
1021,23	-18,06
1021,428	-16,49
1021,626	-11,88
1021,824	-12,97
1022,022	-14,94
1022,22	-13,61
1022,418	-13,91
1022,616	-15,21
1022,814	-15,92
1023,012	-16,46
1023,21	-14,6
1023,408	-14,79
1023,606	-15,88
1023,803	-13,36
1024,001	-14,07
1024,199	-16,54
1024,397	-15,91
1024,594	-15,03
1024,792	-16,95
1024,99	-16,5
1025,187	-16,87
1025,385	-12,91
1025,582	-14,14
1025,78	-14,63
1025,977	-14,21
1026,175	-12,61
1026,372	-12,23
1026,57	-15,38
1026,767	-13,27
1026,965	-13,15
1027,162	-12
1027,359	-13,67
1027,557	-13,67
1027,754	-18,04
1027,951	-17,63
1028,148	-16,17
1028,346	-18,15
1028,543	-20,72
1028,74	-19,75
1028,937	-21,51
1029,134	-21,25
1029,331	-21,73
1029,528	-20,85
1029,725	-20,79
1029,923	-23,72
1030,12	-19,03
1030,317	-18,64
1030,513	-17,04
1030,71	-16,16
1030,907	-13,59
1031,104	-13,02
1031,301	-13,45
1031,498	-13,02
1031,695	-12,32
1031,892	-12,56
1032,088	-12,67
1032,285	-14,28
1032,482	-14,97
1032,678	-16,14
1032,875	-19,25
1033,072	-18,67
1033,268	-20,11
1033,465	-19,18
1033,662	-21,4
1033,858	-19,89
1034,055	-20,06
1034,251	-17,09
1034,448	-17,17
1034,644	-17,27
1034,84	-14,05
1035,037	-12,95
1035,233	-12,45
1035,43	-12,14
1035,626	-11,4
1035,822	-11,68
1036,019	-10,75
1036,215	-15,11
1036,411	-14,99
1036,607	-16,17
1036,803	-18,48
1037	-18,65
1037,196	-20,11
1037,392	-20,9
1037,588	-24,52
1037,784	-24,96
1037,98	-25,29
1038,176	-26,29
1038,372	-25,73
1038,568	-23,64
1038,764	-21,62
1038,96	-19,56
1039,156	-20,93
1039,352	-22,37
1039,547	-21,82
1039,743	-20,83
1039,939	-19,36
1040,135	-19,71
1040,331	-23,28
1040,526	-21,21
1040,722	-21,13
1040,918	-24,27
1041,113	-26,3
1041,309	-26,29
1041,505	-27,68
1041,7	-28,74
1041,896	-27,67
1042,091	-27,7
1042,287	-27,01
1042,482	-26,28
1042,678	-27,66
1042,873	-26,88
1043,069	-28,34
1043,264	-28,28
1043,459	-26,48
1043,655	-24,33
1043,85	-23,44
1044,045	-22,95
1044,24	-21,6
1044,436	-21,28
1044,631	-23,19
1044,826	-24,84
1045,021	-26,86
1045,216	-25,49
