Data from FLMT021711__6__17-05-52-935.txt Node

Date: Tue Nov 05 17:05:52 CET 2024
User: Etudiants TP
Spectrometer: FLMT02171
Trigger mode: 0
Integration Time (sec): 1,000000E-1
Scans to average: 5
Electric dark correction enabled: true
Nonlinearity correction enabled: false
Boxcar width: 15
XAxis mode: Wavelengths
Number of Pixels in Spectrum: 3648
>>>>>Begin Spectral Data<<<<<
194,658	-53,91
194,923	-51,43
195,188	-44,84
195,453	-45,07
195,717	-38,79
195,982	-36,74
196,247	-35
196,512	-37,36
196,777	-36,54
197,042	-34,97
197,307	-33,6
197,572	-30,92
197,837	-31,38
198,101	-29,53
198,366	-27,87
198,631	-26,05
198,896	-21,21
199,161	-15,59
199,425	-9,7
199,69	-1,32
199,955	-2,92
200,22	-4,61
200,484	-4,27
200,749	-5,33
201,014	-3,31
201,278	-3,07
201,543	-2,28
201,807	-3,48
202,072	-1,32
202,337	-2,03
202,601	-1,63
202,866	-3,85
203,13	-2,92
203,395	-6,43
203,659	-6,36
203,924	-8,43
204,189	-8,55
204,453	-7,04
204,717	-5,37
204,982	-3,76
205,246	-2,32
205,511	-1,3
205,775	-0,72
206,04	3,83
206,304	4,95
206,568	7,67
206,833	8,14
207,097	9,47
207,361	12,05
207,626	16,81
207,89	17,15
208,154	17,91
208,419	18,94
208,683	18,9
208,947	22,06
209,211	20,51
209,476	22,16
209,74	21,61
210,004	20,91
210,268	20,92
210,532	23,01
210,796	22,9
211,061	23,98
211,325	24,71
211,589	24,28
211,853	25,35
212,117	24,03
212,381	24,44
212,645	24,32
212,909	25,86
213,173	24,05
213,437	24,08
213,701	23,69
213,965	24,02
214,229	20,17
214,493	19,77
214,757	17,42
215,021	16,97
215,285	19,65
215,549	19,58
215,813	16,11
216,077	15,4
216,34	16,41
216,604	15,24
216,868	15,59
217,132	15,64
217,396	15,92
217,659	15,43
217,923	13,29
218,187	13,31
218,451	12,83
218,714	11,46
218,978	12,41
219,242	13,87
219,505	13,4
219,769	15,47
220,033	14,69
220,296	15,83
220,56	16,15
220,824	12,49
221,087	12,01
221,351	11,47
221,614	10,24
221,878	10,94
222,142	8,56
222,405	8,28
222,669	10,38
222,932	7,45
223,196	5,3
223,459	3,27
223,722	5,64
223,986	4,24
224,249	2,63
224,513	4,35
224,776	4,74
225,04	4,87
225,303	4,24
225,566	3,59
225,83	4,64
226,093	7,57
226,356	6,46
226,62	5,18
226,883	6,81
227,146	6,19
227,409	4,79
227,673	3,05
227,936	1,35
228,199	2,94
228,462	1,78
228,725	0,53
228,989	0,72
229,252	1,42
229,515	5,8
229,778	5,23
230,041	4,35
230,304	3,31
230,567	5,03
230,83	1,59
231,093	4,8
231,356	5,43
231,619	11,85
231,882	9,42
232,145	11,9
232,408	11,77
232,671	9,46
232,934	9,22
233,197	7,11
233,46	6,14
233,723	7,44
233,986	5,35
234,249	2,59
234,512	4,23
234,775	8,06
235,037	6,62
235,3	6,93
235,563	8,37
235,826	10,2
236,089	12,68
236,351	11,14
236,614	13,77
236,877	14,94
237,14	18,12
237,402	17,83
237,665	13,36
237,928	13,22
238,19	11,7
238,453	14,43
238,716	13,85
238,978	14,01
239,241	12,19
239,503	12,99
239,766	8,06
240,029	7,93
240,291	11,77
240,554	10,76
240,816	9,65
241,079	9,39
241,341	10,77
241,604	9,75
241,866	8,11
242,129	10,41
242,391	11,63
242,653	11,82
242,916	9,88
243,178	10,18
243,441	10,17
243,703	8,14
243,965	6,37
244,228	6,47
244,49	7,24
244,752	7,17
245,015	7,75
245,277	10,01
245,539	9,53
245,801	9,91
246,064	9,21
246,326	8,06
246,588	7,72
246,85	10,2
247,112	11,99
247,374	13,66
247,637	15,56
247,899	14,63
248,161	13,29
248,423	8
248,685	8,67
248,947	9,51
249,209	9,94
249,471	10,12
249,733	10,41
249,995	8,84
250,257	8,27
250,519	7,96
250,781	9,12
251,043	6,85
251,305	8,07
251,567	10,95
251,829	13,32
252,091	13,13
252,353	10,74
252,615	10,35
252,876	9,03
253,138	7,1
253,4	3,74
253,662	3,93
253,924	5,77
254,185	6,88
254,447	8,13
254,709	7,63
254,971	7,18
255,232	8,04
255,494	7,17
255,756	6,06
256,017	6,43
256,279	6,62
256,541	6,71
256,802	7,06
257,064	8,02
257,326	7,61
257,587	8,33
257,849	9,73
258,11	11,96
258,372	11,92
258,633	11,7
258,895	11,1
259,156	11,39
259,418	9,85
259,679	4,67
259,941	1,15
260,202	3,46
260,464	4,68
260,725	5,31
260,987	4,67
261,248	5,04
261,509	4,88
261,771	3,81
262,032	6,24
262,293	5,65
262,555	5,72
262,816	5,39
263,077	3,92
263,338	1,01
263,6	0,74
263,861	0,37
264,122	0,79
264,383	3,79
264,645	4,13
264,906	3,73
265,167	4,3
265,428	4,35
265,689	5,09
265,95	2,89
266,211	4,25
266,473	2,86
266,734	1,11
266,995	-0,94
267,256	-0,69
267,517	1,12
267,778	5,46
268,039	7,23
268,3	5,07
268,561	3,16
268,822	5,77
269,083	4,24
269,344	3,14
269,604	2,16
269,865	2,75
270,126	-2,29
270,387	0,19
270,648	1,86
270,909	1,72
271,17	0,96
271,43	-1,19
271,691	-3,21
271,952	-4,82
272,213	-4,73
272,473	-7,39
272,734	-6,57
272,995	-5,36
273,256	-4,14
273,516	-3,14
273,777	-5,47
274,038	-3,13
274,298	-5,71
274,559	-5,14
274,82	-1,23
275,08	1,03
275,341	3,41
275,601	3,47
275,862	2,25
276,122	2,32
276,383	3,81
276,643	4,76
276,904	2,7
277,164	6,52
277,425	6,88
277,685	10,04
277,946	9,57
278,206	11,07
278,467	11,12
278,727	10,52
278,987	7,51
279,248	7,26
279,508	8,9
279,768	11,68
280,029	12,53
280,289	9,59
280,549	9,85
280,81	11,31
281,07	10,21
281,33	10,72
281,59	9,94
281,851	12,22
282,111	11,5
282,371	10,44
282,631	12,5
282,891	12,09
283,151	10,2
283,412	8,23
283,672	7,33
283,932	5,92
284,192	5,77
284,452	3,81
284,712	3,21
284,972	3,66
285,232	-0,66
285,492	1,74
285,752	0,17
286,012	6,81
286,272	8,67
286,532	6,59
286,792	6,9
287,052	10,02
287,312	10,31
287,571	10,22
287,831	9,61
288,091	7,54
288,351	9,12
288,611	11,82
288,871	10,29
289,13	9,25
289,39	5,65
289,65	6,41
289,91	4,1
290,17	6,04
290,429	9,15
290,689	6,39
290,949	2,64
291,208	4,17
291,468	7,1
291,728	7,93
291,987	10,22
292,247	10,1
292,506	11,82
292,766	13,98
293,026	11,33
293,285	13,31
293,545	13,54
293,804	13,14
294,064	9,04
294,323	7,08
294,583	7,01
294,842	6,55
295,102	7,1
295,361	6,76
295,621	7,44
295,88	7,88
296,139	8,43
296,399	9,99
296,658	6,16
296,917	6,48
297,177	6,81
297,436	9,3
297,695	7,06
297,955	8,96
298,214	6,89
298,473	7,93
298,732	10,41
298,992	12,68
299,251	11,92
299,51	8,15
299,769	8,72
300,028	6,76
300,287	6,32
300,547	6,48
300,806	4,65
301,065	7,16
301,324	9,23
301,583	6,9
301,842	4,32
302,101	2,08
302,36	1,8
302,619	1,39
302,878	2,1
303,137	-0,52
303,396	1,15
303,655	1,75
303,914	-0,59
304,173	0,79
304,432	-0,94
304,691	0,32
304,95	-2,06
305,208	0,06
305,467	-0,45
305,726	-0,97
305,985	-0,72
306,244	0,66
306,503	0,61
306,761	-1,8
307,02	-4,24
307,279	-3,4
307,537	-2,38
307,796	-4,36
308,055	-4,19
308,314	-2,43
308,572	-3,48
308,831	-2,95
309,09	-1,86
309,348	-1,23
309,607	-1,58
309,865	1
310,124	2,16
310,382	4,64
310,641	6,39
310,9	5,65
311,158	7,52
311,417	6,54
311,675	5,92
311,933	7,45
312,192	6,69
312,45	6,82
312,709	8,03
312,967	8,38
313,226	7,96
313,484	7,42
313,742	7,81
314,001	5,91
314,259	3,9
314,517	3,56
314,776	5,71
315,034	7,96
315,292	6,54
315,55	5,47
315,809	4,54
316,067	4,97
316,325	3,97
316,583	3,59
316,841	2,51
317,1	0,49
317,358	-2,73
317,616	-3,23
317,874	-3,77
318,132	-4,21
318,39	-5,14
318,648	-6,68
318,906	-7,43
319,164	-8,64
319,422	-8,39
319,68	-8,2
319,938	-8,65
320,196	-7,39
320,454	-5,42
320,712	-6,36
320,97	-6,54
321,228	-7,81
321,486	-6,35
321,744	-4,63
322,002	-2,06
322,26	-2,91
322,517	-3,05
322,775	-5,82
323,033	-6,52
323,291	-5,55
323,549	-5,14
323,806	-2,74
324,064	-2,24
324,322	-1,04
324,58	-1,49
324,837	0,58
325,095	-1,23
325,353	0,64
325,61	2,94
325,868	2,61
326,126	4,32
326,383	2,41
326,641	2,01
326,898	3,98
327,156	3,8
327,413	3,75
327,671	3,56
327,928	5,78
328,186	6,21
328,443	3,97
328,701	8,28
328,958	9,68
329,216	10,62
329,473	8,76
329,731	8,79
329,988	7,59
330,245	9,59
330,503	10,46
330,76	10,76
331,017	12,43
331,275	11,64
331,532	11,67
331,789	9,59
332,047	9,16
332,304	6,94
332,561	7,32
332,818	5,9
333,076	8,7
333,333	9,12
333,59	9,36
333,847	10,97
334,104	8,54
334,361	10,34
334,618	10,11
334,876	7,48
335,133	7,69
335,39	6,26
335,647	7,57
335,904	4,82
336,161	2,99
336,418	4,51
336,675	-0
336,932	0,62
337,189	0,49
337,446	1,26
337,703	-0,32
337,96	-4,41
338,216	-4,78
338,473	-8,23
338,73	-7,58
338,987	-8,47
339,244	-5,2
339,501	-6,23
339,757	-5,46
340,014	-6,03
340,271	-5,92
340,528	-4,41
340,785	-0,2
341,041	-0,22
341,298	-2,89
341,555	-3,23
341,811	-3,87
342,068	-4,36
342,325	-5,97
342,581	-3,82
342,838	-2,13
343,094	-1,78
343,351	-1,93
343,608	-3,76
343,864	-2,71
344,121	-1,09
344,377	-3,53
344,634	-4,72
344,89	-5,76
345,147	-7,01
345,403	-8,59
345,66	-8,73
345,916	-4,89
346,172	-5,43
346,429	-4,81
346,685	-5,31
346,942	-5,02
347,198	-9,18
347,454	-8,17
347,711	-8,14
347,967	-9,04
348,223	-6,25
348,48	-8,08
348,736	-5,74
348,992	-7,24
349,248	-3,98
349,504	-4,5
349,761	-4,63
350,017	-4,16
350,273	-3,41
350,529	-5,23
350,785	-5,89
351,041	-5,13
351,297	-3,36
351,554	-4,64
351,81	-6,16
352,066	-8,25
352,322	-8,06
352,578	-6,11
352,834	-5,79
353,09	-5,62
353,346	-4,88
353,602	-4,84
353,858	-5,97
354,114	-7,02
354,369	-5,69
354,625	-3,64
354,881	-3,87
355,137	-1,85
355,393	-2,85
355,649	-2,89
355,905	-2,82
356,16	-3,87
356,416	-1,77
356,672	-8,73
356,928	-7,31
357,183	-8,91
357,439	-10,32
357,695	-10,76
357,951	-7,91
358,206	-9,07
358,462	-9,02
358,718	-9,93
358,973	-10,48
359,229	-10,92
359,484	-10,78
359,74	-7,81
359,996	-6,22
360,251	-1,96
360,507	-2,89
360,762	-4
361,018	-1,79
361,273	-2,99
361,529	-2,23
361,784	-2,07
362,04	-0,82
362,295	-1,51
362,55	-1,78
362,806	-1,11
363,061	-1,11
363,316	0,38
363,572	0,66
363,827	3,16
364,082	0,14
364,338	-0,63
364,593	0,22
364,848	0,48
365,104	-0,21
365,359	3,04
365,614	2,72
365,869	2,55
366,124	3,75
366,38	2,95
366,635	4,02
366,89	4,86
367,145	4,69
367,4	8,12
367,655	9,17
367,91	8,92
368,165	6,16
368,42	3,63
368,675	3,44
368,93	3,91
369,185	3,41
369,44	4,06
369,695	4,95
369,95	5,05
370,205	3,65
370,46	2,07
370,715	1,85
370,97	2,12
371,225	1,59
371,48	3,09
371,734	2,89
371,989	4,51
372,244	4,04
372,499	5,76
372,754	3,94
373,008	2,95
373,263	0,52
373,518	2,23
373,773	-1,2
374,027	-2,21
374,282	0,81
374,537	1,6
374,791	2,35
375,046	0,7
375,301	-1,55
375,555	-4,35
375,81	-1,87
376,064	-1,14
376,319	1,38
376,573	1,92
376,828	-1,85
377,082	1,26
377,337	0,14
377,591	-1,12
377,846	-0,94
378,1	2,26
378,355	3,4
378,609	3,83
378,863	2,33
379,118	2,84
379,372	1,2
379,627	-0,84
379,881	-3,1
380,135	-2,98
380,389	-3,19
380,644	-2,23
380,898	-1,27
381,152	-1,89
381,407	-2,38
381,661	0,86
381,915	1,8
382,169	0,4
382,423	-1,02
382,677	-3,23
382,932	-1,34
383,186	0,26
383,44	1,51
383,694	2,3
383,948	0,62
384,202	0,91
384,456	3,31
384,71	5,37
384,964	3,82
385,218	5,05
385,472	5,18
385,726	4,73
385,98	3,7
386,234	2,94
386,488	0,77
386,742	1,15
386,996	0,79
387,249	2,02
387,503	3,76
387,757	5,64
388,011	6,73
388,265	6,73
388,518	7,43
388,772	8,21
389,026	10,54
389,28	9,06
389,533	6,19
389,787	8,6
390,041	7,8
390,295	7,77
390,548	8,21
390,802	10,3
391,055	9,12
391,309	8,88
391,563	7,25
391,816	8,38
392,07	6,71
392,323	5,81
392,577	5,89
392,83	6,83
393,084	11,45
393,337	14,59
393,591	16,14
393,844	16,3
394,098	19,47
394,351	21,34
394,604	23,3
394,858	23,34
395,111	23,05
395,364	19,72
395,618	20,72
395,871	18,72
396,124	17,25
396,378	16,67
396,631	15,7
396,884	12,65
397,137	12,39
397,391	15
397,644	12,27
397,897	12,87
398,15	13,56
398,403	15,84
398,657	14,51
398,91	14,07
399,163	14,5
399,416	14,18
399,669	12,87
399,922	12,4
400,175	11,7
400,428	11,34
400,681	10,67
400,934	7,42
401,187	6,42
401,44	5,5
401,693	3,7
401,946	1,03
402,199	-2,15
402,452	-2,76
402,704	-5,03
402,957	-6,06
403,21	-2,45
403,463	-2,11
403,716	-1
403,969	0,02
404,221	-0,5
404,474	1,51
404,727	4,74
404,98	7,58
405,232	7,5
405,485	8,02
405,738	10,26
405,99	10,47
406,243	10,9
406,496	12
406,748	11,79
407,001	10,77
407,253	9,55
407,506	9,77
407,759	10,91
408,011	8,87
408,264	9,43
408,516	11,42
408,769	8,11
409,021	7,95
409,274	7,98
409,526	11,57
409,778	11,41
410,031	14,78
410,283	14,34
410,536	19,29
410,788	18,03
411,04	16,32
411,293	17,38
411,545	17,15
411,797	18,1
412,049	18,11
412,302	18,61
412,554	18,97
412,806	16,97
413,058	15,17
413,311	16,56
413,563	14,65
413,815	15,06
414,067	13,08
414,319	11,36
414,571	12,8
414,823	12,16
415,075	12,07
415,328	13,61
415,58	16,04
415,832	18,62
416,084	20,06
416,336	17,19
416,588	21,86
416,84	21,54
417,091	23,11
417,343	20,05
417,595	21,02
417,847	21,97
418,099	23,01
418,351	22,42
418,603	25,44
418,855	28,64
419,106	28,33
419,358	28,41
419,61	29,02
419,862	30,48
420,114	30,09
420,365	29,21
420,617	29,93
420,869	28,89
421,12	28,73
421,372	29,64
421,624	29,9
421,875	30,65
422,127	29,92
422,379	30,7
422,63	31,31
422,882	31,3
423,133	31,35
423,385	32,15
423,636	32,53
423,888	33,72
424,139	38,1
424,391	36,03
424,642	34,27
424,894	34,29
425,145	34,98
425,396	33,11
425,648	35,91
425,899	33,71
426,151	34,56
426,402	34,06
426,653	33,63
426,905	32,82
427,156	32,51
427,407	31,43
427,658	31,59
427,91	29,98
428,161	31,13
428,412	33,59
428,663	36,25
428,914	38,05
429,166	40,92
429,417	42,35
429,668	42,91
429,919	42,59
430,17	42,75
430,421	44,73
430,672	48,85
430,923	50,11
431,174	50,44
431,425	51,74
431,676	52,91
431,927	51,05
432,178	53,65
432,429	56,26
432,68	57,27
432,931	62,16
433,182	67,36
433,433	66,42
433,683	70,59
433,934	71,57
434,185	73,44
434,436	73,77
434,687	77,26
434,937	81,98
435,188	83,37
435,439	85,45
435,69	88,94
435,94	90,01
436,191	92,82
436,442	94,21
436,692	94,91
436,943	94,65
437,194	95,73
437,444	99,69
437,695	107,01
437,945	110,3
438,196	112,4
438,447	113,29
438,697	116,29
438,948	118,16
439,198	119,29
439,449	117,59
439,699	121,95
439,949	124,88
440,2	127,4
440,45	130,93
440,701	131,11
440,951	134,2
441,201	136,83
441,452	139,07
441,702	142,29
441,952	146,39
442,203	149,55
442,453	150,96
442,703	155,6
442,953	160,22
443,204	164,18
443,454	166,74
443,704	170,54
443,954	172,47
444,204	177,43
444,455	182,32
444,705	187,38
444,955	192,16
445,205	195,26
445,455	195,68
445,705	200,06
445,955	203,02
446,205	207,81
446,455	213,25
446,705	218,56
446,955	223,78
447,205	230,56
447,455	235,88
447,705	238,6
447,955	242,92
448,205	247,97
448,454	253,66
448,704	258,72
448,954	262,55
449,204	268
449,454	272,27
449,704	275,16
449,953	280,75
450,203	286,78
450,453	287,8
450,703	292,98
450,952	295,37
451,202	299,59
451,452	304,34
451,701	309,12
451,951	314,41
452,201	318,25
452,45	320,23
452,7	323,55
452,949	326,14
453,199	329,35
453,448	332,06
453,698	335,24
453,947	335,92
454,197	335,33
454,446	335,55
454,696	339,18
454,945	338,66
455,195	338,61
455,444	339,38
455,693	341,94
455,943	340,9
456,192	340,81
456,442	339,07
456,691	338,9
456,94	337,85
457,189	334,22
457,439	333,44
457,688	332,23
457,937	331,27
458,186	330,84
458,436	328,08
458,685	328,21
458,934	325,43
459,183	322,99
459,432	322,5
459,681	319,36
459,93	313,99
460,179	311,56
460,429	307,49
460,678	307,66
460,927	305,93
461,176	301,87
461,425	298,37
461,674	298,32
461,923	295,61
462,172	291,59
462,42	286,61
462,669	287,05
462,918	283,18
463,167	280,73
463,416	277,51
463,665	276,39
463,914	272,6
464,162	270,35
464,411	267,73
464,66	266,26
464,909	264,57
465,158	262,99
465,406	260,27
465,655	258,17
465,904	258,19
466,152	257,91
466,401	254,76
466,65	254,17
466,898	250,59
467,147	244,99
467,395	243,06
467,644	244,59
467,893	242,15
468,141	240,53
468,39	234,75
468,638	231
468,887	228,48
469,135	227,52
469,384	224,64
469,632	224,04
469,88	222,74
470,129	222,41
470,377	217,78
470,626	218,25
470,874	218,32
471,122	216,32
471,371	211,27
471,619	209,54
471,867	208,47
472,115	206,78
472,364	203,16
472,612	204,28
472,86	202,08
473,108	201,13
473,356	198,93
473,605	195,81
473,853	191,42
474,101	189,87
474,349	187,23
474,597	188,43
474,845	186,63
475,093	184,09
475,341	180,06
475,589	179,17
475,837	178,21
476,085	179,74
476,333	179
476,581	179,08
476,829	178,02
477,077	179,54
477,325	177,54
477,573	178,74
477,821	177,26
478,069	177,61
478,317	176,39
478,564	177,16
478,812	174,69
479,06	174,72
479,308	174,23
479,555	172,57
479,803	170,96
480,051	172,31
480,299	170,84
480,546	170,75
480,794	168,63
481,042	169,96
481,289	168,37
481,537	169,1
481,784	169,17
482,032	171,79
482,28	170,38
482,527	169,77
482,775	169,95
483,022	170,97
483,27	171,51
483,517	174,72
483,765	172,64
484,012	171,75
484,259	170,7
484,507	172,11
484,754	171,77
485,002	172,31
485,249	170,55
485,496	172,45
485,744	172,36
485,991	171,85
486,238	170,11
486,486	173,68
486,733	174,98
486,98	177,26
487,227	176,87
487,474	179,06
487,722	181,14
487,969	181,05
488,216	181,75
488,463	183,3
488,71	180,65
488,957	180,34
489,204	180,58
489,451	182
489,699	182,46
489,946	180,85
490,193	181,81
490,44	182,88
490,687	184,23
490,934	183,84
491,18	181,72
491,427	185,28
491,674	189,74
491,921	190,87
492,168	191,16
492,415	189,18
492,662	192,37
492,909	195,43
493,155	195,96
493,402	196,21
493,649	195,9
493,896	196,35
494,142	194,01
494,389	194,01
494,636	193,6
494,883	194,42
495,129	194,32
495,376	192,66
495,623	194,01
495,869	195,98
496,116	197,82
496,362	200,57
496,609	204,4
496,855	209,24
497,102	209,24
497,348	209,65
497,595	212,63
497,841	216,64
498,088	215,76
498,334	215,47
498,581	215,83
498,827	216,8
499,074	218,33
499,32	219,28
499,566	223,99
499,813	225,27
500,059	223,88
500,305	223,67
500,552	222,91
500,798	222,46
501,044	226,39
501,29	225,27
501,537	224,39
501,783	227,08
502,029	230,48
502,275	229,33
502,521	228,32
502,767	229,44
503,013	232,28
503,26	231,3
503,506	229,17
503,752	230,09
503,998	228,63
504,244	229,21
504,49	228,21
504,736	230,27
504,982	229,45
505,228	231,24
505,474	231,44
505,72	233,76
505,966	234,4
506,211	237,88
506,457	238,4
506,703	235,26
506,949	234,93
507,195	232,82
507,441	230,45
507,686	235,19
507,932	233,99
508,178	235,91
508,424	233,48
508,669	231,13
508,915	232,65
509,161	235,69
509,406	235,64
509,652	234,24
509,898	236,75
510,143	238,25
510,389	239,05
510,634	236,89
510,88	238,85
511,125	241,33
511,371	240,49
511,616	242,08
511,862	239,74
512,107	236,57
512,353	237,1
512,598	236,96
512,844	234,34
513,089	233
513,335	232,3
513,58	231,47
513,825	230,83
514,071	230,49
514,316	230,66
514,561	230,58
514,806	229,32
515,052	231,21
515,297	229,39
515,542	230,4
515,787	229,79
516,033	231,5
516,278	232,05
516,523	231,18
516,768	229,77
517,013	228,82
517,258	229,97
517,503	230,74
517,748	230,84
517,993	228,93
518,238	228,09
518,483	227,15
518,728	225,32
518,973	224,15
519,218	223,51
519,463	224,17
519,708	223,68
519,953	221,29
520,198	221,66
520,443	222,56
520,688	224,41
520,933	224,05
521,177	224,43
521,422	221,9
521,667	222,54
521,912	221,21
522,157	216,89
522,401	218,92
522,646	218,91
522,891	217,81
523,135	218,02
523,38	217,92
523,625	215,86
523,869	217,45
524,114	219,54
524,358	217,32
524,603	217,31
524,848	214,05
525,092	211,44
525,337	213,87
525,581	215
525,826	216,6
526,07	216,6
526,315	216,93
526,559	215,72
526,803	214,77
527,048	216,32
527,292	215,46
527,537	215,69
527,781	214,46
528,025	212,17
528,269	211,39
528,514	211,46
528,758	208,63
529,002	207,83
529,247	210,87
529,491	210,47
529,735	214,29
529,979	213,92
530,223	212,84
530,467	210,57
530,712	208,42
530,956	206,7
531,2	208,26
531,444	205,01
531,688	203,71
531,932	202,85
532,176	201,63
532,42	202,15
532,664	202,07
532,908	197,44
533,152	194,91
533,396	194,14
533,64	193,55
533,884	191,59
534,128	189,62
534,371	189,96
534,615	189,55
534,859	189,14
535,103	187,38
535,347	187,34
535,59	188,14
535,834	184,19
536,078	183,48
536,322	185,3
536,565	187,96
536,809	183,85
537,053	185,5
537,296	182,55
537,54	180,01
537,784	180,2
538,027	181,37
538,271	179,29
538,514	179,48
538,758	178,45
539,001	175,52
539,245	174,96
539,488	175,62
539,732	176,75
539,975	175,44
540,219	176,5
540,462	176,92
540,706	177,95
540,949	175,58
541,192	174,79
541,436	178,97
541,679	182,95
541,922	181,55
542,166	177,59
542,409	178,2
542,652	177,69
542,895	177,19
543,139	177,28
543,382	181,98
543,625	181,46
543,868	180,38
544,111	177,73
544,354	176,13
544,598	172,5
544,841	173,25
545,084	171
545,327	168,7
545,57	168,68
545,813	169,67
546,056	168,61
546,299	168,01
546,542	168,84
546,785	170,61
547,028	170,98
547,271	168,6
547,514	168,32
547,756	164,2
547,999	164,21
548,242	163,01
548,485	160,41
548,728	159,78
548,971	154,37
549,213	153,97
549,456	151,41
549,699	151,54
549,942	149,1
550,184	147
550,427	144,89
550,67	143,39
550,912	135,98
551,155	135,03
551,398	134,01
551,64	132,17
551,883	131,83
552,125	131,62
552,368	131,19
552,61	130,18
552,853	130,96
553,095	129,25
553,338	129,01
553,58	127,42
553,823	125,79
554,065	129,01
554,308	124,17
554,55	120,74
554,792	118,72
555,035	117,77
555,277	117,89
555,519	116,47
555,762	114,35
556,004	115,32
556,246	111,57
556,488	111,06
556,731	107,21
556,973	109,99
557,215	107,26
557,457	108,67
557,699	110,63
557,941	108,69
558,183	106,84
558,426	110,04
558,668	107,01
558,91	105,7
559,152	106,32
559,394	104,94
559,636	104,86
559,878	104,62
560,12	103,29
560,362	102,22
560,604	100,64
560,845	99,04
561,087	99,1
561,329	100,31
561,571	95,85
561,813	95,53
562,055	94,06
562,297	94,31
562,538	93,92
562,78	96,28
563,022	94,26
563,264	95,74
563,505	94,66
563,747	94,8
563,989	93,75
564,23	93,02
564,472	90,19
564,714	92,57
564,955	92,11
565,197	88,55
565,438	90,66
565,68	93,36
565,921	90,27
566,163	91,96
566,404	91
566,646	93,11
566,887	93,71
567,129	95,26
567,37	92,69
567,612	93,94
567,853	92,55
568,094	93,65
568,336	92,32
568,577	91,64
568,818	91,57
569,06	89,3
569,301	87,72
569,542	87,46
569,783	88,32
570,025	86,49
570,266	85,67
570,507	85,83
570,748	84,88
570,989	85,46
571,23	87,67
571,472	86,57
571,713	86,62
571,954	87,66
572,195	85,42
572,436	86,21
572,677	88,66
572,918	90,07
573,159	87,13
573,4	86,63
573,641	85,71
573,882	86,16
574,123	82,07
574,364	78,16
574,604	77,84
574,845	76,18
575,086	74,58
575,327	74,39
575,568	73,03
575,809	72,03
576,049	70,82
576,29	68,01
576,531	73,15
576,771	75,54
577,012	77,92
577,253	78,86
577,494	78,21
577,734	77,4
577,975	78,08
578,215	76,5
578,456	74,74
578,697	74,81
578,937	77,18
579,178	76,79
579,418	74,99
579,659	74,25
579,899	71,25
580,14	69,78
580,38	67,01
580,62	66,77
580,861	69,32
581,101	68,38
581,342	67,11
581,582	63,44
581,822	66,48
582,063	65,1
582,303	66,56
582,543	67,33
582,783	68,32
583,024	69,18
583,264	72,25
583,504	70,1
583,744	69,24
583,984	66,77
584,224	66,9
584,465	64,69
584,705	63,44
584,945	64,74
585,185	63,85
585,425	64,21
585,665	63,89
585,905	63,07
586,145	62,18
586,385	60,71
586,625	61,85
586,865	61,47
587,105	61,78
587,345	61,63
587,585	61,78
587,824	61,3
588,064	60,64
588,304	58,03
588,544	57,84
588,784	56,77
589,024	58,11
589,263	55,9
589,503	53,47
589,743	54,75
589,982	53,56
590,222	52,68
590,462	50,83
590,701	47,69
590,941	50,8
591,181	50,78
591,42	49,21
591,66	50,25
591,899	52,08
592,139	50,73
592,378	50,07
592,618	48,09
592,857	46,74
593,097	48,06
593,336	48,2
593,576	46,71
593,815	47,01
594,055	46,26
594,294	47,2
594,533	46,66
594,773	45,74
595,012	46,18
595,251	45,84
595,491	49,02
595,73	51,08
595,969	51,86
596,208	53,25
596,447	57,34
596,687	58,54
596,926	59,79
597,165	56,52
597,404	58,32
597,643	56,9
597,882	55,63
598,121	58,51
598,36	58,34
598,599	59,67
598,838	58,93
599,077	55,87
599,316	56,52
599,555	57
599,794	57,18
600,033	59,2
600,272	59,41
600,511	56,19
600,75	57,55
600,989	58,33
601,228	57,82
601,466	57,03
601,705	56,09
601,944	56,9
602,183	59,91
602,422	59,5
602,66	59,33
602,899	58
603,138	58,04
603,376	55,78
603,615	56,72
603,854	55,6
604,092	55,44
604,331	56,21
604,569	56,9
604,808	55,48
605,047	57,46
605,285	58,33
605,524	56,34
605,762	54,55
606	57,19
606,239	58,6
606,477	58,98
606,716	54,97
606,954	54,09
607,193	52,87
607,431	50,04
607,669	47,79
607,908	48,69
608,146	48,32
608,384	47,11
608,622	45,94
608,861	45,56
609,099	44,22
609,337	43,77
609,575	41,75
609,813	41,95
610,052	41,33
610,29	38,01
610,528	35,14
610,766	36,55
611,004	35,64
611,242	33,03
611,48	32,59
611,718	30,75
611,956	31,8
612,194	32,08
612,432	31,1
612,67	32
612,908	33,46
613,146	32,08
613,384	29,29
613,621	27,89
613,859	27,76
614,097	28,7
614,335	29,28
614,573	29,15
614,811	30,14
615,048	32,4
615,286	32,75
615,524	33,36
615,761	32,28
615,999	32,62
616,237	32,12
616,474	35,78
616,712	35,87
616,95	35,1
617,187	35,14
617,425	36,79
617,662	37,61
617,9	36,44
618,137	33,48
618,375	32,69
618,612	32,03
618,85	33,17
619,087	34,92
619,325	33,79
619,562	32,65
619,799	31,27
620,037	28,53
620,274	26,96
620,511	28,59
620,749	27,29
620,986	26,54
621,223	24,36
621,461	24,02
621,698	24,15
621,935	24,72
622,172	22,82
622,409	22,85
622,647	22,44
622,884	20,45
623,121	22,9
623,358	21,58
623,595	22,39
623,832	22,05
624,069	20,59
624,306	21,9
624,543	22,32
624,78	22,5
625,017	22,01
625,254	24,1
625,491	27,35
625,728	27,54
625,965	28,54
626,202	27,47
626,438	26,91
626,675	26,09
626,912	27,24
627,149	28,97
627,386	29,67
627,622	29,87
627,859	29,21
628,096	29,14
628,333	29,31
628,569	30,76
628,806	32,36
629,043	31,81
629,279	32,48
629,516	34,21
629,752	31,76
629,989	32,17
630,225	31,17
630,462	30
630,699	30,82
630,935	29,31
631,171	25,11
631,408	25,92
631,644	23,76
631,881	21,22
632,117	18,38
632,354	20,19
632,59	20,54
632,826	19,9
633,063	19,32
633,299	19,14
633,535	17,81
633,771	16,04
634,008	19,36
634,244	19,09
634,48	16,57
634,716	17,64
634,953	15,75
635,189	15,95
635,425	17,33
635,661	20,18
635,897	19,33
636,133	18,27
636,369	17,64
636,605	14,21
636,841	14,57
637,077	16,12
637,313	16,48
637,549	16,38
637,785	15,98
638,021	15,58
638,257	15,25
638,493	18,11
638,729	16,33
638,965	18,18
639,2	19,39
639,436	19,08
639,672	17,67
639,908	14,83
640,144	18,04
640,379	21,65
640,615	20,14
640,851	22,98
641,086	24,1
641,322	21,88
641,558	21,81
641,793	22,92
642,029	21,36
642,264	20,6
642,5	20,84
642,736	17,68
642,971	17,27
643,207	15,78
643,442	14,04
643,678	14,06
643,913	15,2
644,148	13,53
644,384	15,34
644,619	14,66
644,855	16,02
645,09	16,38
645,325	16,3
645,561	17,14
645,796	15,68
646,031	18,29
646,266	17,95
646,502	16,35
646,737	18,76
646,972	20,24
647,207	20,96
647,442	17,71
647,678	13,43
647,913	16,22
648,148	16,3
648,383	15,59
648,618	15,37
648,853	16,23
649,088	17,87
649,323	20,25
649,558	22,04
649,793	21,66
650,028	24,11
650,263	20,62
650,498	22,17
650,733	22,29
650,968	20,92
651,202	22,93
651,437	21,12
651,672	18,08
651,907	17,81
652,142	18,5
652,376	18,36
652,611	19,99
652,846	20,24
653,081	20,32
653,315	19,3
653,55	18,12
653,785	18,85
654,019	19,45
654,254	17,54
654,488	18,89
654,723	15,68
654,958	15,25
655,192	13,98
655,427	10,65
655,661	12,99
655,896	13,96
656,13	14,65
656,364	12,56
656,599	9,95
656,833	16,92
657,068	18,42
657,302	16,55
657,536	16,67
657,771	19,34
658,005	20,42
658,239	22,44
658,474	20,07
658,708	21,74
658,942	22,55
659,176	20,68
659,41	17,19
659,645	16,03
659,879	15,25
660,113	12,87
660,347	11,3
660,581	10,05
660,815	9,38
661,049	8,11
661,283	7,1
661,517	5,53
661,751	3,7
661,985	4,3
662,219	5,28
662,453	4,68
662,687	7,54
662,921	4,22
663,155	3,94
663,389	-0,76
663,622	-1,83
663,856	-0,48
664,09	-8,13
664,324	-9,2
664,558	-8,41
664,791	-8,82
665,025	-10,45
665,259	-10,18
665,492	-11,76
665,726	-10,01
665,96	-9,85
666,193	-12,1
666,427	-11,52
666,661	-10,13
666,894	-10,04
667,128	-10,22
667,361	-7,37
667,595	-6,91
667,828	-7,31
668,062	-7,05
668,295	-6,59
668,529	-7,98
668,762	-6,87
668,995	-6,79
669,229	-3,58
669,462	-2,87
669,695	-2,83
669,929	-5,93
670,162	-4,31
670,395	-6,1
670,629	-5,02
670,862	-4,73
671,095	-7,45
671,328	-7,21
671,561	-9
671,795	-7,81
672,028	-7,12
672,261	-6,45
672,494	-5,29
672,727	-6,52
672,96	-4,51
673,193	-5,6
673,426	-1,69
673,659	0,2
673,892	0,44
674,125	-0,35
674,358	-1,14
674,591	-3,5
674,824	-4,5
675,057	-5,02
675,29	-5,6
675,523	-4,85
675,755	-5,91
675,988	-5,19
676,221	-2,54
676,454	-4,68
676,687	-4,48
676,919	-5,02
677,152	-5,2
677,385	-7,15
677,617	-5,5
677,85	-5,07
678,083	-4,16
678,315	-1,37
678,548	-2,04
678,78	-2,32
679,013	-2,12
679,246	-1,67
679,478	-0,42
679,711	-3,79
679,943	-1,24
680,175	-4,28
680,408	0,21
680,64	-3,74
680,873	-3,85
681,105	-2,88
681,338	0,21
681,57	-0,07
681,802	2,77
682,034	2,73
682,267	5,33
682,499	5,98
682,731	4,48
682,964	3,75
683,196	2,76
683,428	-0,32
683,66	-1,73
683,892	1,8
684,124	4,13
684,356	6,15
684,589	7,54
684,821	5,37
685,053	5,21
685,285	4,16
685,517	4,47
685,749	3,89
685,981	5,12
686,213	5,02
686,445	5,59
686,676	3,2
686,908	5,81
687,14	4,05
687,372	5,07
687,604	1,5
687,836	3,85
688,068	4,25
688,299	3,1
688,531	1,3
688,763	3,87
688,995	0,68
689,226	3,05
689,458	1,04
689,69	1,18
689,921	1
690,153	2,58
690,384	2,67
690,616	2,25
690,848	3,44
691,079	-0,75
691,311	-4,33
691,542	-5,56
691,774	-8,18
692,005	-6,53
692,237	-3,34
692,468	-4,28
692,699	-4,33
692,931	-3,13
693,162	-4,13
693,393	-4,82
693,625	-6,76
693,856	-6,55
694,087	-6,89
694,319	-4,67
694,55	-4,77
694,781	-5,55
695,012	-6
695,243	-7,69
695,475	-8,33
695,706	-8,89
695,937	-9,52
696,168	-8,05
696,399	-9,26
696,63	-9,71
696,861	-10,01
697,092	-5,23
697,323	-2,69
697,554	-0,48
697,785	0,47
698,016	2,55
698,247	2,19
698,478	5,66
698,709	6,17
698,94	10,03
699,171	11,85
699,401	8,26
699,632	9,29
699,863	5,79
700,094	5,66
700,325	7,52
700,555	8,52
700,786	10,11
701,017	9,81
701,247	8,73
701,478	7,53
701,709	7,15
701,939	6,13
702,17	8,02
702,401	10,34
702,631	12,36
702,862	10,53
703,092	9,21
703,323	10,62
703,553	12,96
703,784	14,04
704,014	13,96
704,244	8,32
704,475	7,36
704,705	6,41
704,936	7,09
705,166	4,73
705,396	5,55
705,627	4,91
705,857	5,72
706,087	4,74
706,317	1,9
706,548	0,87
706,778	2,1
707,008	4,94
707,238	5,52
707,468	3,85
707,698	1,47
707,928	1,25
708,158	0,35
708,389	0,8
708,619	-0,82
708,849	-0,8
709,079	0,7
709,309	-2,12
709,539	-4,31
709,768	-4,78
709,998	-2,67
710,228	-3,9
710,458	-4,95
710,688	-7,83
710,918	-7,89
711,148	-9
711,378	-7,96
711,607	-9,89
711,837	-10,14
712,067	-10,5
712,297	-8,72
712,526	-8,4
712,756	-7,54
712,986	-9,46
713,215	-11,78
713,445	-10,75
713,674	-10,03
713,904	-10,89
714,134	-9,12
714,363	-9,33
714,593	-9,21
714,822	-8,66
715,052	-9,6
715,281	-7,54
715,511	-9,1
715,74	-9,63
715,969	-10,84
716,199	-11,6
716,428	-10,07
716,657	-10,98
716,887	-8,76
717,116	-9,89
717,345	-7,78
717,575	-8,34
717,804	-7,94
718,033	-9,27
718,262	-8,26
718,492	-7,78
718,721	-6,22
718,95	-6,09
719,179	-7,14
719,408	-7,21
719,637	-10,24
719,866	-12,27
720,095	-11,62
720,324	-10,76
720,553	-14,19
720,782	-13,78
721,011	-13,91
721,24	-17
721,469	-17,74
721,698	-18,5
721,927	-18,92
722,156	-19,91
722,385	-21,5
722,613	-18,58
722,842	-17,09
723,071	-14,57
723,3	-12,61
723,529	-14,14
723,757	-12,62
723,986	-17,57
724,215	-17,03
724,443	-16,83
724,672	-14,17
724,901	-14,85
725,129	-13,8
725,358	-10,61
725,586	-11,42
725,815	-12,34
726,043	-12,98
726,272	-15,09
726,5	-15,27
726,729	-13,61
726,957	-15,36
727,186	-15,84
727,414	-14,74
727,642	-13,89
727,871	-13,76
728,099	-14,06
728,327	-13,25
728,556	-12,36
728,784	-11,01
729,012	-12,16
729,241	-8,84
729,469	-9,7
729,697	-12,49
729,925	-11,93
730,153	-15
730,381	-15,3
730,61	-14,83
730,838	-17,31
731,066	-14,7
731,294	-15,52
731,522	-18,29
731,75	-21,85
731,978	-20,68
732,206	-21,09
732,434	-24,9
732,662	-24,05
732,89	-25,9
733,118	-27,01
733,346	-25,7
733,573	-26,31
733,801	-25,94
734,029	-20,26
734,257	-20,12
734,485	-18,05
734,712	-15,27
734,94	-16,59
735,168	-14,2
735,396	-13,91
735,623	-14,81
735,851	-13,9
736,078	-11,61
736,306	-11,02
736,534	-10,18
736,761	-8,48
736,989	-10,06
737,216	-9,41
737,444	-11,86
737,671	-10,4
737,899	-5,37
738,126	-6,95
738,354	-6,15
738,581	-3,52
738,809	-2,38
739,036	-4,6
739,263	-4,14
739,491	-4,57
739,718	-5,1
739,945	0,17
740,173	2,68
740,4	3,76
740,627	4,36
740,854	4,25
741,081	0,43
741,309	-1,09
741,536	-4,51
741,763	-6,27
741,99	-4,62
742,217	-5,29
742,444	-6,23
742,671	-5,9
742,898	-7,34
743,125	-10,18
743,352	-13,64
743,579	-14,76
743,806	-14,75
744,033	-11,86
744,26	-10,28
744,487	-8,93
744,714	-8,84
744,941	-9,58
745,167	-6,59
745,394	-7,38
745,621	-8,76
745,848	-8,76
746,075	-6,75
746,301	-3,91
746,528	0,75
746,755	-0,67
746,981	-1,44
747,208	-1,09
747,435	0,98
747,661	0,25
747,888	0,43
748,114	-0,55
748,341	1,18
748,567	1,86
748,794	-0,17
749,02	-0,93
749,247	-2,71
749,473	-2,96
749,7	-2,85
749,926	-1,94
750,152	2,1
750,379	1,08
750,605	2,59
750,831	1,07
751,058	-0,26
751,284	-2,49
751,51	-0,32
751,737	-0,32
751,963	-2,71
752,189	-2,97
752,415	-3,82
752,641	-3,85
752,867	-3,25
753,094	-3,28
753,32	-3,28
753,546	-6,23
753,772	-4,24
753,998	-4,89
754,224	-5,63
754,45	-7,32
754,676	-7,89
754,902	-8,12
755,128	-7,7
755,354	-7,21
755,579	-5,06
755,805	-2,4
756,031	-3,6
756,257	-3,4
756,483	-4,19
756,709	-5,46
756,934	-6,14
757,16	-8
757,386	-5,53
757,612	-8,1
757,837	-8,92
758,063	-7,11
758,289	-3,5
758,514	-5,82
758,74	-8,05
758,965	-8,8
759,191	-7,65
759,416	-6,39
759,642	-5,53
759,868	-6,51
760,093	-5,43
760,318	-6,83
760,544	-6,24
760,769	-7,44
760,995	-9,42
761,22	-8,78
761,445	-7,98
761,671	-5,99
761,896	-3,07
762,121	-3,28
762,347	-3,66
762,572	-6,15
762,797	-6,34
763,022	-5,02
763,248	-0,68
763,473	0,55
763,698	0,29
763,923	0,19
764,148	-0,87
764,373	-2,06
764,598	0,52
764,823	3,23
765,048	0,53
765,273	-3,17
765,498	-2,91
765,723	-3,19
765,948	-2,47
766,173	-3,94
766,398	-2,44
766,623	-4,78
766,848	-5,5
767,073	-6,95
767,298	-7,82
767,522	-9,5
767,747	-9,09
767,972	-8,32
768,197	-7,27
768,421	-7,83
768,646	-10,8
768,871	-14,85
769,095	-13,25
769,32	-12,17
769,545	-12,61
769,769	-11,41
769,994	-10,98
770,218	-15,45
770,443	-14,19
770,667	-13,02
770,892	-12,66
771,116	-12,29
771,341	-9,55
771,565	-10,02
771,79	-9,59
772,014	-9,73
772,238	-9,89
772,463	-8,13
772,687	-6,63
772,911	-6,85
773,136	-9,49
773,36	-8,81
773,584	-7,24
773,808	-8,59
774,033	-7,81
774,257	-8,17
774,481	-9,04
774,705	-8,31
774,929	-8,81
775,153	-10,59
775,377	-10,33
775,602	-8,68
775,826	-7,41
776,05	-6,85
776,274	-7,41
776,498	-8,07
776,722	-9,64
776,945	-7,98
777,169	-7,54
777,393	-8,4
777,617	-9,11
777,841	-8,2
778,065	-6,62
778,289	-8,82
778,512	-9,46
778,736	-10,5
778,96	-11,83
779,184	-10,83
779,407	-12,85
779,631	-13
779,855	-13,66
780,078	-11,91
780,302	-15,75
780,526	-16,64
780,749	-15,93
780,973	-15,83
781,196	-15
781,42	-15,45
781,643	-15,37
781,867	-14,27
782,09	-16,07
782,314	-15,72
782,537	-16,78
782,76	-15,56
782,984	-15,26
783,207	-16,06
783,431	-16,01
783,654	-16,73
783,877	-19,09
784,1	-20,19
784,324	-21,59
784,547	-21,01
784,77	-24,88
784,993	-26,98
785,216	-27,07
785,44	-28,88
785,663	-30,25
785,886	-26,66
786,109	-26,41
786,332	-26,39
786,555	-26,64
786,778	-24,88
787,001	-24,99
787,224	-22,59
787,447	-21,06
787,67	-19,24
787,893	-18,85
788,116	-19,02
788,339	-17,62
788,561	-18,66
788,784	-22,69
789,007	-23,47
789,23	-24,95
789,453	-25,04
789,675	-26,21
789,898	-28,44
790,121	-30,03
790,344	-28,9
790,566	-27,43
790,789	-26,92
791,012	-26,33
791,234	-23,15
791,457	-21,4
791,679	-19,67
791,902	-19,34
792,124	-19,54
792,347	-18,77
792,569	-18,77
792,792	-22,01
793,014	-20,11
793,237	-17,86
793,459	-17,81
793,681	-17,98
793,904	-18,11
794,126	-18,3
794,348	-18,62
794,571	-17,44
794,793	-19,02
795,015	-18,85
795,237	-19,11
795,46	-18,11
795,682	-16,14
795,904	-14,19
796,126	-14,41
796,348	-14,34
796,57	-13,4
796,792	-12,36
797,014	-9,81
797,237	-8,22
797,459	-6,98
797,681	-6,89
797,903	-8,41
798,124	-8,49
798,346	1,69
798,568	3,04
798,79	6,28
799,012	8,26
799,234	9,4
799,456	11,11
799,678	12,27
799,899	11,02
800,121	8,45
800,343	9,05
800,565	9,49
800,786	10,02
801,008	10,25
801,23	9,66
801,451	9,58
801,673	8,19
801,895	7,57
802,116	9,87
802,338	11,65
802,559	11,82
802,781	10,88
803,002	12,76
803,224	13,64
803,445	12,2
803,667	12,6
803,888	12,32
804,109	12,39
804,331	11,17
804,552	11,81
804,773	13,82
804,995	11,54
805,216	-1,95
805,437	-3,04
805,658	-5,86
805,88	-7,55
806,101	-7,11
806,322	-6,91
806,543	-7,51
806,764	-10,07
806,985	-9,09
807,207	-8,55
807,428	-9,47
807,649	-12,74
807,87	-14,16
808,091	-13,51
808,312	-12,79
808,533	-7,89
808,754	-5,46
808,975	-8,61
809,195	-8,7
809,416	-7,99
809,637	-7,77
809,858	-8,73
810,079	-10,47
810,3	-9,59
810,52	-9,47
810,741	-11,88
810,962	-13,09
811,183	-13,16
811,403	-12,37
811,624	-12,73
811,845	-10,55
812,065	-8,48
812,286	-9,51
812,506	-8,92
812,727	-9,11
812,948	-8,51
813,168	-8,09
813,389	-8,52
813,609	-7,64
813,83	-7,15
814,05	-8,43
814,27	-7,32
814,491	-3,26
814,711	-3,64
814,931	-7,06
815,152	-9,24
815,372	-11,24
815,592	-13,85
815,813	-13,8
816,033	-14,95
816,253	-14,26
816,473	-16,01
816,694	-16,48
816,914	-13,77
817,134	-12,61
817,354	-14,36
817,574	-13,05
817,794	-14,02
818,014	-14,55
818,234	-15,95
818,454	-16,73
818,674	-18,79
818,894	-21,58
819,114	-17,57
819,334	-16,72
819,554	-14,97
819,774	-12,7
819,994	-14,04
820,214	-13,95
820,433	-13
820,653	-14,33
820,873	-11,96
821,093	-12,01
821,312	-14,32
821,532	-11,68
821,752	-8,67
821,972	-9,33
822,191	-7,49
822,411	-7,1
822,63	-5,53
822,85	-7,13
823,07	-10,15
823,289	-8,58
823,509	-9,11
823,728	-8,37
823,948	-11,66
824,167	-11,73
824,387	-12,76
824,606	-11,61
824,825	-13,73
825,045	-14,11
825,264	-14,67
825,483	-13,85
825,703	-10,24
825,922	-13,03
826,141	-14,12
826,361	-15,8
826,58	-19,76
826,799	-20,89
827,018	-20,15
827,237	-20,08
827,456	-17,85
827,676	-18,59
827,895	-19,57
828,114	-17,85
828,333	-17,77
828,552	-17,48
828,771	-16,44
828,99	-19,55
829,209	-19,27
829,428	-17,98
829,647	-17
829,866	-15,09
830,084	-14,75
830,303	-15,26
830,522	-17,57
830,741	-15,48
830,96	-13,73
831,179	-13,15
831,397	-14,74
831,616	-13,28
831,835	-12,86
832,053	-11,51
832,272	-10,89
832,491	-11,1
832,709	-12,02
832,928	-12,23
833,147	-10,82
833,365	-9,32
833,584	-6,92
833,802	-3,77
834,021	-3,66
834,239	-3,86
834,458	-6,33
834,676	-8,27
834,894	-8,32
835,113	-10,56
835,331	-11,28
835,55	-11,36
835,768	-10,16
835,986	-9,92
836,204	-12,42
836,423	-11,1
836,641	-13,66
836,859	-14,49
837,077	-13,54
837,296	-12,9
837,514	-14,42
837,732	-16,77
837,95	-15,78
838,168	-12,7
838,386	-12,05
838,604	-10,19
838,822	-9,36
839,04	-11,24
839,258	-10,88
839,476	-8,98
839,694	-8,73
839,912	-9,68
840,13	-9,63
840,348	-9,51
840,566	-13,31
840,783	-11,5
841,001	-12,77
841,219	-11,02
841,437	-9,87
841,655	-10,1
841,872	-10,41
842,09	-11,11
842,308	-10,47
842,525	-11,42
842,743	-9,63
842,961	-9,11
843,178	-11,63
843,396	-7,98
843,613	-7,06
843,831	-5,94
844,048	-6,07
844,266	-4,97
844,483	-3,5
844,701	-4,72
844,918	-5,36
845,136	-7,09
845,353	-9,85
845,57	-9,53
845,788	-6,96
846,005	-8,89
846,222	-9,93
846,439	-8,86
846,657	-9,41
846,874	-8,86
847,091	-9,08
847,308	-7,67
847,526	-8,92
847,743	-9,41
847,96	-10,1
848,177	-10,29
848,394	-11,25
848,611	-11,57
848,828	-11,32
849,045	-11,97
849,262	-11,51
849,479	-12,68
849,696	-13,57
849,913	-14,98
850,13	-17,59
850,347	-15,66
850,564	-16,12
850,78	-17,86
850,997	-20,39
851,214	-21,13
851,431	-21,72
851,647	-23,96
851,864	-23,04
852,081	-20,41
852,298	-23,65
852,514	-24,33
852,731	-24,75
852,948	-22,81
853,164	-22,16
853,381	-23,01
853,597	-24,53
853,814	-26,92
854,03	-28,86
854,247	-27,01
854,463	-26,43
854,68	-26,84
854,896	-25,9
855,113	-25,1
855,329	-23,19
855,545	-22,19
855,762	-23,3
855,978	-25,33
856,194	-27,23
856,411	-24,71
856,627	-21,14
856,843	-20,73
857,059	-19,33
857,275	-21,13
857,492	-18,74
857,708	-14,29
857,924	-14,57
858,14	-12,51
858,356	-13,28
858,572	-12,45
858,788	-13,4
859,004	-11,52
859,22	-13,76
859,436	-13,3
859,652	-15,06
859,868	-17,08
860,084	-16,91
860,3	-16,76
860,516	-15,37
860,731	-14,85
860,947	-18,27
861,163	-17,9
861,379	-17,73
861,595	-16,08
861,81	-15,11
862,026	-13,9
862,242	-14,36
862,457	-12,9
862,673	-11,13
862,889	-10,96
863,104	-11,24
863,32	-12,43
863,535	-11,54
863,751	-15,93
863,966	-12,73
864,182	-10,96
864,397	-13,83
864,613	-13,15
864,828	-13,69
865,044	-12,3
865,259	-11,57
865,474	-12,94
865,69	-12,11
865,905	-10,92
866,12	-11,84
866,336	-12,95
866,551	-11,36
866,766	-11,18
866,981	-12,33
867,196	-13,06
867,412	-13,2
867,627	-11,25
867,842	-10,89
868,057	-10,87
868,272	-12,37
868,487	-12,97
868,702	-17,02
868,917	-16,26
869,132	-16,06
869,347	-16,23
869,562	-16,9
869,777	-18,02
869,992	-18,71
870,207	-18,31
870,422	-19,22
870,636	-21,23
870,851	-24,37
871,066	-25,77
871,281	-26,8
871,495	-27,6
871,71	-25,71
871,925	-29,05
872,14	-29,68
872,354	-31,37
872,569	-31,72
872,783	-29,18
872,998	-28,61
873,213	-29,16
873,427	-25,88
873,642	-23,57
873,856	-23,49
874,071	-24,16
874,285	-26,04
874,5	-27,34
874,714	-28,58
874,928	-28,76
875,143	-29,48
875,357	-28,36
875,571	-29,57
875,786	-28,81
876	-26,11
876,214	-24,62
876,429	-25,01
876,643	-23,97
876,857	-23,53
877,071	-21,72
877,285	-21,31
877,499	-22,96
877,714	-20,09
877,928	-17,94
878,142	-19,82
878,356	-21,55
878,57	-19,28
878,784	-18,53
878,998	-18,66
879,212	-16,06
879,426	-18,36
879,639	-16,73
879,853	-19,42
880,067	-20,86
880,281	-22,02
880,495	-20,55
880,709	-18,42
880,922	-17,29
881,136	-15,72
881,35	-13,22
881,564	-13,9
881,777	-16,32
881,991	-15,32
882,205	-12,48
882,418	-12,98
882,632	-14,57
882,845	-14,14
883,059	-15,07
883,273	-16,14
883,486	-17,6
883,7	-14,83
883,913	-16,05
884,126	-14,4
884,34	-17,38
884,553	-19,22
884,767	-15,64
884,98	-15,88
885,193	-16,65
885,407	-16,57
885,62	-15,95
885,833	-17,07
886,046	-15,38
886,26	-16,62
886,473	-15,98
886,686	-17,01
886,899	-15,66
887,112	-17,84
887,326	-20,44
887,539	-19
887,752	-18,45
887,965	-20,75
888,178	-20,29
888,391	-17,98
888,604	-18,3
888,817	-20,89
889,03	-20,43
889,243	-21,94
889,455	-24,77
889,668	-23,11
889,881	-20,57
890,094	-20,63
890,307	-22,78
890,52	-21,25
890,732	-20,87
890,945	-20,58
891,158	-20,52
891,37	-22,42
891,583	-22,45
891,796	-20,34
892,008	-21,16
892,221	-19,76
892,434	-23,5
892,646	-25,02
892,859	-25,5
893,071	-23,7
893,284	-21,43
893,496	-22,45
893,709	-21,74
893,921	-19,93
894,133	-21,21
894,346	-22,16
894,558	-22,45
894,771	-23,03
894,983	-22,16
895,195	-21,74
895,407	-20,26
895,62	-21,81
895,832	-21,23
896,044	-18,36
896,256	-19,55
896,468	-20,7
896,681	-19,89
896,893	-19,97
897,105	-19,57
897,317	-19,83
897,529	-17,5
897,741	-17,43
897,953	-14,67
898,165	-14,35
898,377	-17,56
898,589	-15,93
898,801	-17,51
899,013	-14,69
899,224	-11,91
899,436	-10,14
899,648	-10,33
899,86	-12,81
900,072	-10,57
900,283	-7,99
900,495	-6,68
900,707	-6,06
900,919	-8,44
901,13	-7,06
901,342	-8,91
901,554	-9,76
901,765	-9,2
901,977	-11,85
902,188	-11,68
902,4	-13,26
902,611	-15,04
902,823	-15,49
903,034	-17,73
903,246	-18,64
903,457	-19,46
903,669	-22,28
903,88	-22,15
904,091	-21,95
904,303	-20,28
904,514	-22,76
904,725	-21,17
904,936	-19,28
905,148	-19,75
905,359	-18,81
905,57	-18,96
905,781	-20,65
905,992	-21,9
906,204	-20,2
906,415	-19,46
906,626	-22,19
906,837	-21,22
907,048	-22,59
907,259	-23,39
907,47	-24,99
907,681	-25,44
907,892	-20,52
908,103	-21,46
908,314	-23,71
908,525	-21,56
908,735	-21,51
908,946	-20,55
909,157	-20,22
909,368	-18,63
909,579	-17,15
909,789	-18,28
910	-19,26
910,211	-15,21
910,421	-15,11
910,632	-15,35
910,843	-17,85
911,053	-14,53
911,264	-12,91
911,475	-13,82
911,685	-12,73
911,896	-11,92
912,106	-10,82
912,317	-12,37
912,527	-10,18
912,737	-11,58
912,948	-12,34
913,158	-12,03
913,369	-15,14
913,579	-12,11
913,789	-11,85
914	-6,54
914,21	-6,43
914,42	-8,43
914,63	-8,77
914,841	-6,54
915,051	-5,15
915,261	-5,47
915,471	-3,81
915,681	-3,71
915,891	-3,13
916,101	-4,29
916,311	-3,44
916,521	-2,05
916,731	-3,1
916,941	-1,76
917,151	-4,16
917,361	-1,97
917,571	-5,53
917,781	-7,41
917,991	-9,64
918,201	-9,97
918,411	-12,71
918,621	-13,39
918,83	-12,62
919,04	-14
919,25	-13,81
919,46	-11,9
919,669	-13,25
919,879	-13,16
920,089	-15,36
920,298	-15,75
920,508	-16,41
920,717	-15,46
920,927	-16,31
921,136	-15,64
921,346	-18,17
921,555	-21,32
921,765	-20,99
921,974	-22,6
922,184	-24,37
922,393	-24,54
922,603	-23,93
922,812	-22,81
923,021	-24
923,23	-26,64
923,44	-28,3
923,649	-27,44
923,858	-28,24
924,067	-26,9
924,277	-28,84
924,486	-26,68
924,695	-27,8
924,904	-26,05
925,113	-25,96
925,322	-24,44
925,531	-23,58
925,74	-24,95
925,949	-25,27
926,158	-22,95
926,367	-22,81
926,576	-21,98
926,785	-23,46
926,994	-24,52
927,203	-24,45
927,412	-25,16
927,621	-25,07
927,83	-21,98
928,038	-22,27
928,247	-22,94
928,456	-23,19
928,665	-21,87
928,873	-21,29
929,082	-19,54
929,291	-18,39
929,499	-17,29
929,708	-16,85
929,916	-16,12
930,125	-15,83
930,333	-15,87
930,542	-14,31
930,75	-11,33
930,959	-11
931,167	-10,87
931,376	-12,2
931,584	-11,14
931,793	-11,11
932,001	-12,26
932,209	-11,71
932,418	-14,53
932,626	-15,8
932,834	-17,21
933,042	-19,74
933,251	-18,42
933,459	-18,23
933,667	-18,68
933,875	-16,74
934,083	-16,7
934,291	-15,88
934,499	-14,64
934,707	-14,62
934,915	-13,58
935,123	-11,76
935,331	-12,46
935,539	-15,47
935,747	-16,99
935,955	-17
936,163	-16,31
936,371	-16,19
936,579	-14,85
936,787	-14,94
936,995	-17,37
937,202	-20,1
937,41	-19,32
937,618	-19,25
937,826	-17,6
938,033	-20,06
938,241	-22,23
938,449	-20,75
938,656	-19,4
938,864	-17,39
939,071	-18,88
939,279	-16,65
939,486	-14,6
939,694	-16,48
939,901	-17,09
940,109	-16,84
940,316	-17,96
940,524	-17,2
940,731	-19,84
940,939	-18,05
941,146	-17,08
941,353	-17,97
941,561	-18,8
941,768	-19,72
941,975	-18,17
942,182	-19
942,39	-18,81
942,597	-16,04
942,804	-17,29
943,011	-18,11
943,218	-18,54
943,425	-18,47
943,632	-17,69
943,839	-18,72
944,046	-19,55
944,253	-19,63
944,46	-19,03
944,667	-15,49
944,874	-16,3
945,081	-16,6
945,288	-16,39
945,495	-13,48
945,702	-12,45
945,909	-14,37
946,115	-11,65
946,322	-14
946,529	-14,59
946,736	-14,61
946,942	-14,51
947,149	-14,92
947,356	-17,5
947,562	-20,13
947,769	-19,78
947,976	-20,4
948,182	-18,54
948,389	-18,53
948,595	-18
948,802	-16,42
949,008	-18,21
949,215	-16,12
949,421	-16,77
949,628	-17,63
949,834	-16,14
950,04	-16,95
950,247	-13,2
950,453	-11,76
950,659	-12,94
950,865	-13,4
951,072	-16,84
951,278	-14,86
951,484	-15,03
951,69	-17,61
951,896	-18,7
952,103	-21,05
952,309	-19,39
952,515	-19,74
952,721	-17,59
952,927	-16,32
953,133	-17,46
953,339	-17
953,545	-16,42
953,751	-14,44
953,957	-11,25
954,163	-14,24
954,369	-13,48
954,574	-16,42
954,78	-18,39
954,986	-18,13
955,192	-17,88
955,398	-19,82
955,603	-22,32
955,809	-20,63
956,015	-19,09
956,22	-19,27
956,426	-16,84
956,632	-20,81
956,837	-21,09
957,043	-20,97
957,248	-19,54
957,454	-19,33
957,66	-21,55
957,865	-21,67
958,07	-20,64
958,276	-22,18
958,481	-22,21
958,687	-24,87
958,892	-24,47
959,097	-24,17
959,303	-24,67
959,508	-25,1
959,713	-26,59
959,919	-26,72
960,124	-28,26
960,329	-29,06
960,534	-24,73
960,739	-24,22
960,945	-22,02
961,15	-20,77
961,355	-20,94
961,56	-23,18
961,765	-24,05
961,97	-23,01
962,175	-21,8
962,38	-23,84
962,585	-24,82
962,79	-28,84
962,995	-29
963,2	-30
963,404	-29,68
963,609	-31,71
963,814	-32,1
964,019	-34,03
964,224	-35,81
964,428	-34,31
964,633	-32,97
964,838	-31,33
965,042	-28,96
965,247	-31,93
965,452	-30,9
965,656	-29,27
965,861	-27,74
966,066	-27,71
966,27	-25,9
966,475	-22,86
966,679	-25,86
966,884	-26,51
967,088	-28,55
967,292	-28,52
967,497	-27,12
967,701	-27,53
967,906	-27,1
968,11	-23,88
968,314	-21,69
968,518	-23,73
968,723	-22,34
968,927	-20,73
969,131	-18,4
969,335	-15,9
969,539	-15,69
969,744	-13,82
969,948	-12,28
970,152	-10,7
970,356	-9,37
970,56	-10,45
970,764	-11,01
970,968	-9,19
971,172	-9,7
971,376	-9,75
971,58	-7,56
971,784	-7,31
971,988	-10,18
972,192	-7,87
972,395	-8,13
972,599	-10,16
972,803	-11,56
973,007	-9,25
973,21	-8,61
973,414	-8,83
973,618	-9,12
973,822	-9,87
974,025	-9,99
974,229	-9,6
974,432	-12,26
974,636	-14,19
974,84	-12,68
975,043	-11,4
975,247	-12,96
975,45	-13,19
975,654	-12,55
975,857	-11,85
976,06	-13,03
976,264	-13,45
976,467	-12,28
976,671	-12,68
976,874	-9,95
977,077	-10,44
977,28	-11,69
977,484	-13,88
977,687	-14,33
977,89	-12,56
978,093	-14,44
978,297	-12,63
978,5	-13,74
978,703	-13,64
978,906	-12,77
979,109	-12,2
979,312	-11,71
979,515	-11,53
979,718	-10,71
979,921	-11,16
980,124	-12,21
980,327	-12,66
980,53	-13,68
980,733	-12,4
980,936	-10,45
981,138	-12,59
981,341	-12,59
981,544	-12,7
981,747	-12,43
981,949	-13,49
982,152	-13,23
982,355	-14,69
982,558	-12,94
982,76	-16,35
982,963	-17,6
983,165	-17,52
983,368	-17,37
983,571	-17,42
983,773	-13,66
983,976	-12,9
984,178	-12,96
984,381	-12,63
984,583	-15,13
984,785	-16,59
984,988	-14,08
985,19	-11,63
985,392	-13,52
985,595	-15,84
985,797	-17,15
985,999	-15,21
986,202	-14,5
986,404	-14,23
986,606	-11,25
986,808	-11,62
987,01	-10,19
987,212	-11,37
987,415	-11,97
987,617	-11,63
987,819	-12,37
988,021	-13
988,223	-15,41
988,425	-15,69
988,627	-14,97
988,829	-18,06
989,031	-16,48
989,232	-15,69
989,434	-15,88
989,636	-15,44
989,838	-15,03
990,04	-15,24
990,242	-16,5
990,443	-19,24
990,645	-16,82
990,847	-13,71
991,048	-12,53
991,25	-14,14
991,452	-16,41
991,653	-17,29
991,855	-16,86
992,057	-17,57
992,258	-17,28
992,46	-16,27
992,661	-16,35
992,863	-18,65
993,064	-17,26
993,265	-17,98
993,467	-18,75
993,668	-16,43
993,87	-16,82
994,071	-16,69
994,272	-15,27
994,473	-12,57
994,675	-12,26
994,876	-10,94
995,077	-10,62
995,278	-9,35
995,48	-9,37
995,681	-9,85
995,882	-9,67
996,083	-9,6
996,284	-12,34
996,485	-11,61
996,686	-12,13
996,887	-13,95
997,088	-17,69
997,289	-19,65
997,49	-18,94
997,691	-19,45
997,892	-18,88
998,092	-15,32
998,293	-14,67
998,494	-14,86
998,695	-15,57
998,896	-13,33
999,096	-12,57
999,297	-13,48
999,498	-15,03
999,698	-16,45
999,899	-18,15
1000,1	-20,06
1000,3	-19,36
1000,501	-19,34
1000,701	-20,97
1000,902	-20,81
1001,102	-21,01
1001,303	-19,24
1001,503	-20,14
1001,704	-19,39
1001,904	-21,07
1002,105	-20,97
1002,305	-22,17
1002,505	-23,91
1002,706	-24,92
1002,906	-25,3
1003,106	-26,6
1003,306	-24,64
1003,507	-23,44
1003,707	-24,06
1003,907	-22,08
1004,107	-20,78
1004,307	-23,04
1004,507	-21,82
1004,707	-23,61
1004,907	-25,37
1005,107	-27,1
1005,308	-26,9
1005,507	-28,73
1005,707	-26,19
1005,907	-26,39
1006,107	-24,61
1006,307	-23,35
1006,507	-25,05
1006,707	-25,54
1006,907	-24,47
1007,106	-25,55
1007,306	-27,38
1007,506	-26,97
1007,706	-27,7
1007,905	-29,1
1008,105	-28,06
1008,305	-28,55
1008,504	-27,77
1008,704	-21,96
1008,903	-21,07
1009,103	-18,46
1009,303	-19,97
1009,502	-19,78
1009,702	-20,21
1009,901	-20,73
1010,1	-24,33
1010,3	-22,36
1010,499	-22,51
1010,699	-23,92
1010,898	-24,48
1011,097	-23,71
1011,296	-22,72
1011,496	-24,61
1011,695	-24,08
1011,894	-25,8
1012,093	-23,57
1012,293	-24,07
1012,492	-23,47
1012,691	-22,41
1012,89	-21,92
1013,089	-23,94
1013,288	-22,41
1013,487	-21,07
1013,686	-21,44
1013,885	-22,17
1014,084	-20,69
1014,283	-21,57
1014,482	-22,17
1014,681	-21,67
1014,88	-26,3
1015,078	-25,4
1015,277	-26,8
1015,476	-25,68
1015,675	-25,81
1015,873	-24,27
1016,072	-25,78
1016,271	-22,08
1016,47	-26,42
1016,668	-25,87
1016,867	-25,65
1017,065	-26,09
1017,264	-26,76
1017,463	-26,22
1017,661	-24,41
1017,86	-23,81
1018,058	-21,82
1018,256	-22,29
1018,455	-24,79
1018,653	-24,26
1018,852	-23,19
1019,05	-26,39
1019,248	-26,88
1019,447	-27,69
1019,645	-27,72
1019,843	-29,58
1020,041	-28,5
1020,24	-29,01
1020,438	-25,01
1020,636	-25,88
1020,834	-29,07
1021,032	-26,33
1021,23	-27,53
1021,428	-26,93
1021,626	-24,42
1021,824	-25,16
1022,022	-26,48
1022,22	-24,35
1022,418	-23,09
1022,616	-23,56
1022,814	-23,83
1023,012	-25,38
1023,21	-23,27
1023,408	-24,69
1023,606	-26,73
1023,803	-22,92
1024,001	-22,46
1024,199	-26,73
1024,397	-27,03
1024,594	-24,57
1024,792	-26,6
1024,99	-25,59
1025,187	-24,22
1025,385	-19,89
1025,582	-20,29
1025,78	-21,77
1025,977	-20,69
1026,175	-20,61
1026,372	-20,99
1026,57	-23,21
1026,767	-20,46
1026,965	-17,19
1027,162	-17,85
1027,359	-18,45
1027,557	-17,76
1027,754	-19,86
1027,951	-19,28
1028,148	-17,36
1028,346	-19,28
1028,543	-22,42
1028,74	-21,24
1028,937	-22,89
1029,134	-22,04
1029,331	-24,27
1029,528	-22,99
1029,725	-22,99
1029,923	-26,74
1030,12	-23,8
1030,317	-22,01
1030,513	-20,18
1030,71	-19,94
1030,907	-18,02
1031,104	-20,48
1031,301	-19,61
1031,498	-21,49
1031,695	-21,72
1031,892	-20,47
1032,088	-20,97
1032,285	-21,51
1032,482	-22,43
1032,678	-24,8
1032,875	-26,34
1033,072	-28,13
1033,268	-28,81
1033,465	-28,58
1033,662	-29,52
1033,858	-29,65
1034,055	-30
1034,251	-29,12
1034,448	-29,01
1034,644	-28,97
1034,84	-27,08
1035,037	-24,47
1035,233	-24,74
1035,43	-22,02
1035,626	-22,5
1035,822	-21,52
1036,019	-22,25
1036,215	-25,36
1036,411	-24,82
1036,607	-25,92
1036,803	-27,02
1037	-27,93
1037,196	-29,26
1037,392	-31,81
1037,588	-34,07
1037,784	-33,26
1037,98	-34,15
1038,176	-32,74
1038,372	-32,52
1038,568	-30,13
1038,764	-27,8
1038,96	-27,72
1039,156	-27,87
1039,352	-28,07
1039,547	-26,4
1039,743	-26,28
1039,939	-24,41
1040,135	-24,45
1040,331	-25,38
1040,526	-23,45
1040,722	-23,85
1040,918	-25,23
1041,113	-28,95
1041,309	-29,62
1041,505	-32,86
1041,7	-32,36
1041,896	-31,66
1042,091	-30,73
1042,287	-29,51
1042,482	-29,51
1042,678	-30,39
1042,873	-30,51
1043,069	-31,07
1043,264	-28,81
1043,459	-26,38
1043,655	-24,2
1043,85	-24,68
1044,045	-23,54
1044,24	-24,85
1044,436	-24,48
1044,631	-26,05
1044,826	-27,16
1045,021	-26,92
1045,216	-25,79
