Data from FLMT021711__14__17-06-39-953.txt Node

Date: Tue Nov 05 17:06:39 CET 2024
User: Etudiants TP
Spectrometer: FLMT02171
Trigger mode: 0
Integration Time (sec): 1,000000E-1
Scans to average: 5
Electric dark correction enabled: true
Nonlinearity correction enabled: false
Boxcar width: 15
XAxis mode: Wavelengths
Number of Pixels in Spectrum: 3648
>>>>>Begin Spectral Data<<<<<
194,658	-53,01
194,923	-49,6
195,188	-43,39
195,453	-43,47
195,717	-38,35
195,982	-37,1
196,247	-37,26
196,512	-39,26
196,777	-36,93
197,042	-35,52
197,307	-35,33
197,572	-30,52
197,837	-30,06
198,101	-27,71
198,366	-25,5
198,631	-24,08
198,896	-18,75
199,161	-15,78
199,425	-10,85
199,69	-1,66
199,955	-2,75
200,22	-5,32
200,484	-6,4
200,749	-5,64
201,014	-5,3
201,278	-5,89
201,543	-4,12
201,807	-4,87
202,072	-3,11
202,337	-2,91
202,601	-2,99
202,866	-5,36
203,13	-5,62
203,395	-7,36
203,659	-6,14
203,924	-7,93
204,189	-7,58
204,453	-5,79
204,717	-3,08
204,982	-2,25
205,246	-0,6
205,511	1,27
205,775	-1,29
206,04	2,91
206,304	2,82
206,568	4,64
206,833	5,13
207,097	4,97
207,361	8,75
207,626	12,86
207,89	14,01
208,154	16,12
208,419	17,05
208,683	17,39
208,947	19,49
209,211	19,54
209,476	18,7
209,74	19,6
210,004	19,16
210,268	19,7
210,532	22,73
210,796	23,07
211,061	24,79
211,325	26,21
211,589	24,43
211,853	24,1
212,117	25,22
212,381	25,93
212,645	26,25
212,909	25,1
213,173	22,05
213,437	21,83
213,701	21,17
213,965	22,68
214,229	18,32
214,493	17,91
214,757	16,74
215,021	15,84
215,285	19,58
215,549	19,85
215,813	16,79
216,077	16,5
216,34	16,87
216,604	15,37
216,868	16,34
217,132	15,99
217,396	15,53
217,659	16,55
217,923	13,12
218,187	15,15
218,451	14,14
218,714	11,51
218,978	11,51
219,242	12,59
219,505	12,73
219,769	15,06
220,033	15
220,296	14,76
220,56	14,25
220,824	12,37
221,087	13,91
221,351	14,45
221,614	13,99
221,878	15,46
222,142	13,86
222,405	15,28
222,669	16,45
222,932	12,18
223,196	10,91
223,459	7,89
223,722	9,08
223,986	8,02
224,249	7,59
224,513	7,74
224,776	8,83
225,04	8,16
225,303	8,65
225,566	8,08
225,83	9,81
226,093	12,3
226,356	9,6
226,62	8,09
226,883	10,4
227,146	11,57
227,409	10,67
227,673	8,82
227,936	7,24
228,199	8,08
228,462	6,79
228,725	6,85
228,989	6,25
229,252	5,85
229,515	10,5
229,778	8,7
230,041	7,65
230,304	6,04
230,567	4,11
230,83	2,97
231,093	6,09
231,356	7,33
231,619	12,49
231,882	11,94
232,145	13,28
232,408	11,23
232,671	11,11
232,934	11,16
233,197	9,71
233,46	9,01
233,723	10,28
233,986	8,07
234,249	7,16
234,512	10,15
234,775	13,85
235,037	12,82
235,3	12,32
235,563	12,32
235,826	12,07
236,089	14,28
236,351	13,67
236,614	15,25
236,877	15,5
237,14	18,5
237,402	18,38
237,665	13,5
237,928	14,33
238,19	13,19
238,453	15,4
238,716	15,75
238,978	15,12
239,241	14,62
239,503	14,44
239,766	10,13
240,029	9,38
240,291	12,1
240,554	11,58
240,816	11,36
241,079	11
241,341	11,62
241,604	10,37
241,866	7,39
242,129	8,02
242,391	9,54
242,653	6,88
242,916	5,42
243,178	4,14
243,441	4,36
243,703	3,95
243,965	3,85
244,228	4,78
244,49	4,08
244,752	5,89
245,015	5,44
245,277	6,36
245,539	5,67
245,801	6,53
246,064	5,76
246,326	5,73
246,588	5,13
246,85	7,87
247,112	8,89
247,374	9,05
247,637	11,98
247,899	10,34
248,161	9,7
248,423	5,67
248,685	6,54
248,947	6,62
249,209	7,12
249,471	7,92
249,733	8,8
249,995	9,2
250,257	9,49
250,519	7,81
250,781	11,01
251,043	9,51
251,305	10,51
251,567	11,97
251,829	11,83
252,091	12,55
252,353	7,58
252,615	8,33
252,876	5,91
253,138	6,3
253,4	3,12
253,662	3,83
253,924	5,35
254,185	6,61
254,447	6,59
254,709	7,13
254,971	6,81
255,232	8,35
255,494	7,16
255,756	5,41
256,017	5,65
256,279	5,68
256,541	6,22
256,802	7,23
257,064	8,7
257,326	8,32
257,587	8,25
257,849	9,19
258,11	11,68
258,372	12,59
258,633	13,09
258,895	11,6
259,156	11,66
259,418	10,18
259,679	6,65
259,941	4,64
260,202	5,57
260,464	7,41
260,725	7,85
260,987	8,15
261,248	6,8
261,509	7,83
261,771	6,87
262,032	8
262,293	8,17
262,555	6,97
262,816	5,69
263,077	4,38
263,338	2,72
263,6	3,93
263,861	2,43
264,122	2,58
264,383	6,06
264,645	6,6
264,906	5,35
265,167	2,84
265,428	1,78
265,689	3,1
265,95	-0,07
266,211	0,62
266,473	0,25
266,734	-2,78
266,995	-6,4
267,256	-6,29
267,517	-3,09
267,778	1,43
268,039	3,01
268,3	1,73
268,561	0
268,822	2,19
269,083	-0,52
269,344	-2,17
269,604	-3,17
269,865	-1,47
270,126	-5,07
270,387	-4,43
270,648	-3,09
270,909	-3,75
271,17	-4,55
271,43	-7,7
271,691	-9,83
271,952	-10,5
272,213	-8,37
272,473	-12,08
272,734	-11,26
272,995	-10,86
273,256	-8,52
273,516	-5,88
273,777	-9,37
274,038	-6,95
274,298	-9,66
274,559	-10,62
274,82	-5,73
275,08	-1,88
275,341	0,13
275,601	-1,2
275,862	-5,23
276,122	-4,21
276,383	-4,42
276,643	-2,44
276,904	-4,64
277,164	-1,97
277,425	-0,58
277,685	2,94
277,946	1,48
278,206	2,5
278,467	3,2
278,727	3,19
278,987	3,14
279,248	2,39
279,508	4,51
279,768	6,46
280,029	8,22
280,289	4,34
280,549	3,95
280,81	4,64
281,07	4,53
281,33	5,29
281,59	2,65
281,851	6,87
282,111	6,82
282,371	7,31
282,631	9,19
282,891	7,84
283,151	6,42
283,412	4,08
283,672	4,4
283,932	6,07
284,192	5,81
284,452	4,38
284,712	1,9
284,972	0,95
285,232	-1,9
285,492	0,16
285,752	-2,79
286,012	2,52
286,272	4,03
286,532	1,47
286,792	1,69
287,052	4,66
287,312	5,32
287,571	4,29
287,831	4,32
288,091	1,56
288,351	3,38
288,611	6,68
288,871	6,55
289,13	6,75
289,39	2,79
289,65	4,88
289,91	2,19
290,17	3,98
290,429	7,13
290,689	5,08
290,949	2,48
291,208	4,32
291,468	7,25
291,728	6,87
291,987	8,6
292,247	8,14
292,506	10,48
292,766	13,85
293,026	13,81
293,285	15,46
293,545	17,47
293,804	18,67
294,064	15,8
294,323	13,83
294,583	14,88
294,842	16,55
295,102	16,09
295,361	16,82
295,621	17,53
295,88	17,81
296,139	17,94
296,399	20,41
296,658	15,85
296,917	15,23
297,177	13,04
297,436	15,43
297,695	13,24
297,955	14,03
298,214	12,8
298,473	11,86
298,732	13,12
298,992	15,59
299,251	15,25
299,51	12,02
299,769	12,61
300,028	12,38
300,287	11,89
300,547	12,46
300,806	10,68
301,065	13,23
301,324	15,53
301,583	11,72
301,842	8,02
302,101	6,3
302,36	7,68
302,619	7,91
302,878	7,94
303,137	5,47
303,396	6,93
303,655	8,08
303,914	5,85
304,173	6,9
304,432	4,4
304,691	7,05
304,95	5,89
305,208	10,4
305,467	9,78
305,726	9,75
305,985	11,51
306,244	12,8
306,503	12,9
306,761	11,61
307,02	9,9
307,279	8,44
307,537	10,05
307,796	7,48
308,055	4,04
308,314	5,55
308,572	3,34
308,831	3,65
309,09	3,27
309,348	2,94
309,607	2,24
309,865	6,59
310,124	6,91
310,382	7,79
310,641	7,49
310,9	5,41
311,158	5,53
311,417	5,43
311,675	5,12
311,933	6,73
312,192	8,06
312,45	7,84
312,709	7,29
312,967	6,04
313,226	4,89
313,484	4,23
313,742	3,5
314,001	1,95
314,259	0,23
314,517	2,23
314,776	4,74
315,034	7,01
315,292	7,92
315,55	5,83
315,809	5,81
316,067	6,86
316,325	6,43
316,583	8,25
316,841	7,91
317,1	6,86
317,358	4,23
317,616	4,23
317,874	3,46
318,132	3,14
318,39	2,32
318,648	2,88
318,906	1,94
319,164	1,72
319,422	0,96
319,68	-0,11
319,938	-0,07
320,196	0,48
320,454	2
320,712	1,89
320,97	1,55
321,228	-0,7
321,486	1,45
321,744	2,97
322,002	3,5
322,26	2,49
322,517	-0,17
322,775	-3,32
323,033	-5,35
323,291	-4,49
323,549	-3,1
323,806	-1,03
324,064	0,13
324,322	0,27
324,58	-1,67
324,837	-0,26
325,095	-1,89
325,353	0,19
325,61	2,06
325,868	1,08
326,126	1,85
326,383	1,8
326,641	-0,1
326,898	2,8
327,156	2,68
327,413	2,1
327,671	2,93
327,928	5,12
328,186	4,95
328,443	4,31
328,701	8,43
328,958	9,91
329,216	10,98
329,473	10,07
329,731	10,28
329,988	9,96
330,245	12,05
330,503	13,19
330,76	13,52
331,017	15,31
331,275	12,64
331,532	13,26
331,789	10,91
332,047	10,04
332,304	7,36
332,561	8,28
332,818	6,88
333,076	8,89
333,333	9,28
333,59	10,17
333,847	11,38
334,104	11,02
334,361	9,72
334,618	9,49
334,876	7,21
335,133	8,11
335,39	7,27
335,647	8,65
335,904	4,43
336,161	1,9
336,418	1,39
336,675	-2,69
336,932	-1,66
337,189	-2,25
337,446	-2
337,703	-3,26
337,96	-5,5
338,216	-4,43
338,473	-5,33
338,73	-4,3
338,987	-3,69
339,244	-0,12
339,501	-2,42
339,757	-0,43
340,014	0,73
340,271	2,23
340,528	1,96
340,785	6,9
341,041	6,6
341,298	3,75
341,555	2,69
341,811	2,13
342,068	0,94
342,325	1,76
342,581	4,72
342,838	6,34
343,094	4,95
343,351	5,63
343,608	3,63
343,864	5,67
344,121	8,14
344,377	8,94
344,634	7,18
344,89	6,29
345,147	5,84
345,403	5,18
345,66	5,94
345,916	7,8
346,172	4,74
346,429	4,14
346,685	1,68
346,942	0,52
347,198	-3,82
347,454	-3,11
347,711	-4,7
347,967	-8,2
348,223	-7,73
348,48	-8,02
348,736	-6,65
348,992	-7,49
349,248	-5,26
349,504	-6,2
349,761	-5,47
350,017	-5,44
350,273	-5,92
350,529	-7,64
350,785	-8,91
351,041	-8,01
351,297	-7,41
351,554	-8,61
351,81	-9,58
352,066	-12,89
352,322	-14,38
352,578	-11,57
352,834	-12,42
353,09	-12,57
353,346	-12,4
353,602	-13,65
353,858	-14,91
354,114	-14,88
354,369	-14,76
354,625	-12,09
354,881	-13,37
355,137	-10,29
355,393	-9,91
355,649	-8,91
355,905	-7,48
356,16	-7,77
356,416	-6,28
356,672	-12,57
356,928	-10,93
357,183	-11,14
357,439	-9,6
357,695	-12,67
357,951	-8,73
358,206	-9,37
358,462	-9,63
358,718	-10,91
358,973	-10,06
359,229	-9,51
359,484	-9,2
359,74	-7,18
359,996	-6,04
360,251	-2,86
360,507	-4,38
360,762	-4,38
361,018	-1,41
361,273	-2,6
361,529	-1,19
361,784	-1,25
362,04	0,24
362,295	0,09
362,55	-0,1
362,806	1,31
363,061	1,07
363,316	2,33
363,572	2,82
363,827	4,99
364,082	3,72
364,338	2,74
364,593	2,93
364,848	2,47
365,104	1,39
365,359	3,46
365,614	5,24
365,869	2,6
366,124	3,31
366,38	1,67
366,635	2,9
366,89	3,45
367,145	2,69
367,4	5,82
367,655	5,94
367,91	7,3
368,165	5,05
368,42	4,24
368,675	5,59
368,93	4,58
369,185	1,01
369,44	0,92
369,695	4,36
369,95	2,75
370,205	1,47
370,46	0,35
370,715	0,62
370,97	1,08
371,225	-0,6
371,48	0,47
371,734	-0,18
371,989	0,12
372,244	0,32
372,499	1,62
372,754	0,17
373,008	-0,74
373,263	-5,56
373,518	-4,69
373,773	-5,88
374,027	-6,52
374,282	-2,61
374,537	-2,11
374,791	-1,17
375,046	-2,07
375,301	-3,48
375,555	-5,79
375,81	-5,12
376,064	-4,05
376,319	-3,12
376,573	-4,72
376,828	-6,27
377,082	-0,5
377,337	-1,66
377,591	-4,24
377,846	-2,72
378,1	0,53
378,355	1,37
378,609	0,5
378,863	-1,46
379,118	0,86
379,372	-0,56
379,627	-0,2
379,881	-0,81
380,135	-1,3
380,389	-0,77
380,644	0,61
380,898	1,46
381,152	3,12
381,407	3,35
381,661	4,3
381,915	6,09
382,169	4,32
382,423	3,4
382,677	1,11
382,932	2,06
383,186	3
383,44	4,24
383,694	6,75
383,948	4,6
384,202	4,63
384,456	7,31
384,71	8,27
384,964	6,52
385,218	8,39
385,472	7,61
385,726	6,85
385,98	6,04
386,234	4,96
386,488	2,33
386,742	2,33
386,996	-0,41
387,249	0,67
387,503	0,61
387,757	2,2
388,011	3,96
388,265	4,01
388,518	4,64
388,772	5,74
389,026	7,44
389,28	5,32
389,533	5,04
389,787	6,95
390,041	6,27
390,295	7,68
390,548	7,53
390,802	9,92
391,055	8,07
391,309	8,97
391,563	5,72
391,816	7,56
392,07	5,76
392,323	5,75
392,577	6,65
392,83	7,64
393,084	11,52
393,337	14,98
393,591	15,67
393,844	16
394,098	20,55
394,351	24,32
394,604	25,99
394,858	28,02
395,111	27,52
395,364	25,06
395,618	26
395,871	23,69
396,124	22,71
396,378	22,33
396,631	22,83
396,884	19,46
397,137	19,26
397,391	20,65
397,644	17,43
397,897	17,87
398,15	17,31
398,403	19,17
398,657	17,38
398,91	17,43
399,163	16,59
399,416	18,06
399,669	15,53
399,922	15,93
400,175	15,69
400,428	15,46
400,681	15,31
400,934	11,27
401,187	9,66
401,44	8,78
401,693	7,15
401,946	3,66
402,199	0,82
402,452	0,26
402,704	-3,54
402,957	-3,18
403,21	-0,68
403,463	-0,85
403,716	-0,15
403,969	2,4
404,221	1,21
404,474	2,99
404,727	6,22
404,98	9,19
405,232	8,69
405,485	9,98
405,738	11,94
405,99	11,84
406,243	13,64
406,496	15,15
406,748	15,12
407,001	13,88
407,253	13,19
407,506	14,95
407,759	15,07
408,011	11,85
408,264	12,06
408,516	12,39
408,769	9,9
409,021	10,98
409,274	11,57
409,526	13,31
409,778	13,13
410,031	15,58
410,283	16,27
410,536	21,8
410,788	20,16
411,04	18,94
411,293	18,64
411,545	20,19
411,797	17,69
412,049	16,5
412,302	14,94
412,554	15,66
412,806	13,55
413,058	11,08
413,311	11,49
413,563	9,65
413,815	9,77
414,067	7,12
414,319	5,05
414,571	7,58
414,823	6,6
415,075	6,1
415,328	6,9
415,58	11,21
415,832	13,71
416,084	13,93
416,336	12,03
416,588	15,73
416,84	14,28
417,091	17,67
417,343	15,31
417,595	16,17
417,847	15,82
418,099	16,33
418,351	16,24
418,603	18,14
418,855	19,75
419,106	20,89
419,358	20,35
419,61	20,78
419,862	22,53
420,114	22,39
420,365	22,86
420,617	24,47
420,869	24,62
421,12	24,15
421,372	25
421,624	25,38
421,875	24,83
422,127	23,4
422,379	22,78
422,63	25,63
422,882	24,54
423,133	24,23
423,385	23,4
423,636	23,97
423,888	26,27
424,139	29,63
424,391	28,13
424,642	27,26
424,894	24,52
425,145	24,41
425,396	23,52
425,648	25,74
425,899	25,14
426,151	24,98
426,402	24,16
426,653	24,6
426,905	24,17
427,156	22,71
427,407	23,47
427,658	22,64
427,91	21,66
428,161	20,7
428,412	21,31
428,663	21,91
428,914	22,55
429,166	23,71
429,417	24,16
429,668	24,95
429,919	23,69
430,17	23,61
430,421	24,4
430,672	27,21
430,923	26,27
431,174	25,87
431,425	26,22
431,676	24,59
431,927	21,43
432,178	22,56
432,429	23,11
432,68	22,7
432,931	26,3
433,182	28,59
433,433	27,15
433,683	28,19
433,934	27,86
434,185	27,09
434,436	25,66
434,687	26,93
434,937	29,75
435,188	28,04
435,439	28,55
435,69	29,01
435,94	27,94
436,191	29,45
436,442	30,9
436,692	30,26
436,943	29,03
437,194	28,07
437,444	30,12
437,695	35,11
437,945	34,93
438,196	34,51
438,447	34,04
438,697	35,81
438,948	35,07
439,198	32,69
439,449	30,22
439,699	32,3
439,949	32,85
440,2	34,37
440,45	36,2
440,701	34,78
440,951	33,78
441,201	35,22
441,452	34,91
441,702	34,87
441,952	37,37
442,203	39,12
442,453	38,5
442,703	38,76
442,953	41,71
443,204	44,07
443,454	43,63
443,704	46,12
443,954	44,8
444,204	45,37
444,455	47,87
444,705	49,59
444,955	51,62
445,205	52,18
445,455	51,21
445,705	52,62
445,955	53,7
446,205	54,41
446,455	56,18
446,705	58,27
446,955	60,32
447,205	62,81
447,455	65,85
447,705	65,96
447,955	64,87
448,205	67,83
448,454	69,42
448,704	72,89
448,954	72,03
449,204	73,84
449,454	76,03
449,704	75,85
449,953	76,32
450,203	79,18
450,453	78,55
450,703	81,18
450,952	81,11
451,202	83,72
451,452	83,41
451,701	85,1
451,951	89,57
452,201	88,53
452,45	87,91
452,7	89,18
452,949	89,75
453,199	89,49
453,448	91,15
453,698	92,43
453,947	92,11
454,197	91,59
454,446	90,66
454,696	93,47
454,945	94,57
455,195	91,97
455,444	93,22
455,693	96,97
455,943	93,71
456,192	94,52
456,442	93,7
456,691	93,09
456,94	91,59
457,189	90,09
457,439	91,34
457,688	91,31
457,937	90,28
458,186	90,47
458,436	88,91
458,685	88,9
458,934	87,33
459,183	86,52
459,432	88,16
459,681	87,18
459,93	87,33
460,179	87,69
460,429	85,93
460,678	87,2
460,927	87,35
461,176	85,27
461,425	83,71
461,674	85,32
461,923	83,72
462,172	83,47
462,42	81,5
462,669	81,41
462,918	80,02
463,167	77,52
463,416	72,31
463,665	73,22
463,914	70,47
464,162	67,98
464,411	68,23
464,66	69,71
464,909	66,72
465,158	65,68
465,406	65,52
465,655	66,01
465,904	67,12
466,152	67,38
466,401	67,53
466,65	69,08
466,898	67,33
467,147	64,23
467,395	62,85
467,644	64,26
467,893	63,18
468,141	62,84
468,39	57,94
468,638	56,78
468,887	55,37
469,135	54,37
469,384	52,94
469,632	54,23
469,88	52,74
470,129	54,01
470,377	50,95
470,626	54,23
470,874	55,49
471,122	58,12
471,371	56,04
471,619	56,94
471,867	58,52
472,115	58,51
472,364	55,15
472,612	57,17
472,86	55,96
473,108	56,46
473,356	55,57
473,605	54,39
473,853	50,96
474,101	49,02
474,349	46,93
474,597	49,81
474,845	46,74
475,093	44,7
475,341	41,5
475,589	41,44
475,837	41,57
476,085	44,17
476,333	43,32
476,581	43,86
476,829	41,55
477,077	43,77
477,325	41,92
477,573	44,26
477,821	41,37
478,069	42,31
478,317	39,91
478,564	42,34
478,812	40,1
479,06	38,1
479,308	36,16
479,555	35,95
479,803	35,09
480,051	36,91
480,299	37,19
480,546	36,67
480,794	33,49
481,042	33,64
481,289	32,67
481,537	34,28
481,784	33,98
482,032	35,64
482,28	33,92
482,527	34,32
482,775	33,68
483,022	34,94
483,27	36,07
483,517	38,65
483,765	36,9
484,012	36,98
484,259	35,27
484,507	38,92
484,754	38,22
485,002	38,1
485,249	35,05
485,496	39,51
485,744	39,22
485,991	39,29
486,238	36,71
486,486	38,4
486,733	41,25
486,98	43,58
487,227	42,34
487,474	43,91
487,722	45,12
487,969	43,65
488,216	44,23
488,463	44,06
488,71	42,49
488,957	41,85
489,204	41,88
489,451	43,83
489,699	42,92
489,946	40,93
490,193	42
490,44	43,04
490,687	44,11
490,934	42,84
491,18	39,7
491,427	41,44
491,674	43,2
491,921	43,99
492,168	42,11
492,415	40,91
492,662	43,04
492,909	46,11
493,155	43,63
493,402	42,75
493,649	41,23
493,896	42,09
494,142	39,75
494,389	38,4
494,636	36,33
494,883	34,93
495,129	33,13
495,376	31,21
495,623	32,34
495,869	34,88
496,116	37,08
496,362	37,57
496,609	39,77
496,855	44,26
497,102	42,93
497,348	44,03
497,595	46,03
497,841	48,4
498,088	46,89
498,334	45,63
498,581	43,95
498,827	45,12
499,074	45,99
499,32	49,54
499,566	52,67
499,813	54,65
500,059	51,83
500,305	51,66
500,552	49,85
500,798	50,48
501,044	53,89
501,29	54,05
501,537	52,1
501,783	55,03
502,029	59,13
502,275	58,12
502,521	57,57
502,767	59,11
503,013	63,38
503,26	61,98
503,506	57,92
503,752	57,94
503,998	57,73
504,244	58,45
504,49	54,9
504,736	56,05
504,982	55,3
505,228	56,59
505,474	56,25
505,72	57,67
505,966	58,09
506,211	61,67
506,457	60,93
506,703	59,16
506,949	56,39
507,195	55,14
507,441	50,16
507,686	53,32
507,932	51,57
508,178	54,06
508,424	50,84
508,669	48,56
508,915	49,19
509,161	51,56
509,406	51,8
509,652	49,89
509,898	53,21
510,143	53,29
510,389	53,26
510,634	48,73
510,88	51,61
511,125	54,15
511,371	56,06
511,616	57,35
511,862	55,44
512,107	53,62
512,353	54,88
512,598	54,94
512,844	52,46
513,089	50,76
513,335	50,95
513,58	49,09
513,825	48,01
514,071	47,79
514,316	47,65
514,561	46,96
514,806	46,71
515,052	51,91
515,297	51,69
515,542	53,29
515,787	53,04
516,033	55,53
516,278	56,13
516,523	55,93
516,768	54,38
517,013	53,75
517,258	52,34
517,503	51,44
517,748	52,17
517,993	51,64
518,238	51,04
518,483	49,6
518,728	49,86
518,973	48,03
519,218	47,08
519,463	47,01
519,708	45,62
519,953	44,39
520,198	44,26
520,443	46,92
520,688	49,67
520,933	49,36
521,177	50,12
521,422	49,11
521,667	50,86
521,912	51,7
522,157	49,11
522,401	51
522,646	49,82
522,891	49,02
523,135	49,91
523,38	49,54
523,625	47,92
523,869	49,59
524,114	51,13
524,358	50,96
524,603	50,48
524,848	50,26
525,092	50,09
525,337	51,39
525,581	52,22
525,826	56,11
526,07	56,65
526,315	55,85
526,559	56,16
526,803	56,21
527,048	58,89
527,292	60,84
527,537	60,53
527,781	59,97
528,025	57,95
528,269	58,86
528,514	60,15
528,758	59,75
529,002	59,03
529,247	60,67
529,491	59,05
529,735	62,92
529,979	61,78
530,223	62,4
530,467	60,09
530,712	58,58
530,956	57,92
531,2	59,2
531,444	56,47
531,688	57,04
531,932	56,51
532,176	56,25
532,42	55,82
532,664	56,55
532,908	55,92
533,152	54,55
533,396	54,16
533,64	53,04
533,884	51,05
534,128	49,82
534,371	49,89
534,615	51,1
534,859	48,79
535,103	48,43
535,347	49,69
535,59	50,6
535,834	47,07
536,078	47,49
536,322	47,16
536,565	49,8
536,809	49,36
537,053	50,49
537,296	47,77
537,54	47,09
537,784	45,78
538,027	47,77
538,271	45,66
538,514	43,97
538,758	43,57
539,001	42,79
539,245	42,4
539,488	42,95
539,732	44,21
539,975	44,94
540,219	46,76
540,462	47,62
540,706	48,81
540,949	46,91
541,192	48,16
541,436	53,85
541,679	57,71
541,922	58,4
542,166	53,76
542,409	55,69
542,652	56,25
542,895	55,17
543,139	55,37
543,382	59,79
543,625	59,16
543,868	61,19
544,111	61,2
544,354	59,21
544,598	58,19
544,841	60,39
545,084	60,34
545,327	59,75
545,57	61,81
545,813	65,2
546,056	66,21
546,299	67,15
546,542	70,3
546,785	72,76
547,028	73,88
547,271	74,01
547,514	73,86
547,756	70,69
547,999	70,56
548,242	71,47
548,485	70,04
548,728	70,46
548,971	66,75
549,213	65,6
549,456	64,3
549,699	66,51
549,942	66,27
550,184	64,61
550,427	65,47
550,67	65,67
550,912	61,01
551,155	61,95
551,398	60,77
551,64	59,85
551,883	60,73
552,125	60,75
552,368	61,02
552,61	59,29
552,853	60,91
553,095	58,97
553,338	58,15
553,58	58,44
553,823	57,71
554,065	58,8
554,308	54,56
554,55	51,66
554,792	48,86
555,035	48,82
555,277	48,24
555,519	48,78
555,762	47,3
556,004	47,9
556,246	44,49
556,488	45,9
556,731	44,05
556,973	45,62
557,215	44,11
557,457	45,28
557,699	48,55
557,941	45,68
558,183	44,6
558,426	46,15
558,668	42,24
558,91	42,93
559,152	42,45
559,394	40,39
559,636	41,74
559,878	42,72
560,12	42,99
560,362	44,59
560,604	44,41
560,845	43,51
561,087	43,17
561,329	44,47
561,571	42,51
561,813	43,82
562,055	44,26
562,297	45,94
562,538	46,45
562,78	48,85
563,022	45,77
563,264	46,47
563,505	46,73
563,747	47,09
563,989	44,72
564,23	44,74
564,472	43,28
564,714	44,95
564,955	44,37
565,197	41,71
565,438	44,37
565,68	48,27
565,921	48,05
566,163	51,41
566,404	50,98
566,646	52,72
566,887	55,4
567,129	56,57
567,37	54,72
567,612	56,49
567,853	52,98
568,094	53,82
568,336	54,32
568,577	55,37
568,818	55,27
569,06	53,87
569,301	52,6
569,542	55,13
569,783	56,61
570,025	56
570,266	55,3
570,507	57,44
570,748	57,82
570,989	59,66
571,23	61,61
571,472	62,4
571,713	61,51
571,954	62,39
572,195	61,26
572,436	64,43
572,677	66,18
572,918	66,9
573,159	64,22
573,4	63,19
573,641	63,07
573,882	63,88
574,123	62,71
574,364	59,36
574,604	60,73
574,845	59,53
575,086	59,74
575,327	61,53
575,568	61,97
575,809	62,62
576,049	61,31
576,29	59,72
576,531	64,95
576,771	68,28
577,012	68,83
577,253	70,05
577,494	70,5
577,734	71,87
577,975	72,9
578,215	73,56
578,456	71,96
578,697	72,55
578,937	73,56
579,178	74,09
579,418	74,37
579,659	75,9
579,899	72,72
580,14	72,61
580,38	72,69
580,62	74,24
580,861	77,91
581,101	78,59
581,342	78,99
581,582	76,97
581,822	80,18
582,063	79,23
582,303	81,3
582,543	80,78
582,783	83,32
583,024	84,46
583,264	87,48
583,504	87,8
583,744	91,24
583,984	89,28
584,224	88,37
584,465	89,27
584,705	89,99
584,945	92,45
585,185	92,29
585,425	94,05
585,665	93,93
585,905	93,91
586,145	94,87
586,385	94,97
586,625	98,35
586,865	98,36
587,105	98,48
587,345	100,05
587,585	101,29
587,824	102
588,064	102,69
588,304	102,01
588,544	102,18
588,784	101,81
589,024	104,44
589,263	104,15
589,503	103,6
589,743	105,72
589,982	107,1
590,222	108,31
590,462	107,97
590,701	106,28
590,941	109,54
591,181	109,24
591,42	108,63
591,66	111,83
591,899	114,41
592,139	113,67
592,378	113,96
592,618	114,72
592,857	115,42
593,097	116,73
593,336	118,63
593,576	120,34
593,815	123,26
594,055	122,99
594,294	125,69
594,533	126,7
594,773	126,61
595,012	128,63
595,251	130,24
595,491	133,7
595,73	135,67
595,969	137,01
596,208	138,49
596,447	143,74
596,687	145,62
596,926	146,85
597,165	144,86
597,404	148,91
597,643	147,04
597,882	148,48
598,121	150
598,36	150,63
598,599	151,52
598,838	154,39
599,077	154,16
599,316	155,22
599,555	156,13
599,794	157,5
600,033	159,87
600,272	161,68
600,511	161,94
600,75	164,28
600,989	165,3
601,228	164,67
601,466	166,65
601,705	166,99
601,944	167,83
602,183	170,72
602,422	170,5
602,66	170,32
602,899	168,64
603,138	169,85
603,376	170,22
603,615	172,42
603,854	170,29
604,092	171,64
604,331	174,33
604,569	176,65
604,808	174,29
605,047	178,12
605,285	178,58
605,524	180,3
605,762	179,66
606	181,95
606,239	181,3
606,477	181,59
606,716	178,09
606,954	179,3
607,193	178,76
607,431	176,28
607,669	174,92
607,908	174,56
608,146	175,47
608,384	174,62
608,622	174,71
608,861	174,45
609,099	174,1
609,337	173,29
609,575	174,84
609,813	176,26
610,052	175,65
610,29	172,44
610,528	170,24
610,766	169,86
611,004	169,51
611,242	168,7
611,48	167,96
611,718	165,19
611,956	166,52
612,194	166,42
612,432	163,81
612,67	162,57
612,908	163,85
613,146	162,31
613,384	161,03
613,621	160,75
613,859	159,34
614,097	158,49
614,335	158,49
614,573	157,85
614,811	160,99
615,048	160,86
615,286	161,53
615,524	160,69
615,761	158,18
615,999	158,89
616,237	157,67
616,474	157,2
616,712	158,31
616,95	155,71
617,187	153,23
617,425	154,67
617,662	157
617,9	155,22
618,137	152,81
618,375	150,56
618,612	149,01
618,85	150,69
619,087	153,49
619,325	151,91
619,562	149,84
619,799	149,24
620,037	148,01
620,274	144,79
620,511	146,13
620,749	144,14
620,986	142,53
621,223	140,76
621,461	140,58
621,698	140,23
621,935	140,92
622,172	136,85
622,409	138,27
622,647	137,27
622,884	134,98
623,121	136,91
623,358	134,48
623,595	133,59
623,832	133,93
624,069	131,97
624,306	132,41
624,543	134,78
624,78	135,04
625,017	134,1
625,254	136,98
625,491	139,33
625,728	140,63
625,965	139,96
626,202	138,29
626,438	136,05
626,675	134,08
626,912	136,22
627,149	136,79
627,386	136,02
627,622	134,72
627,859	133,73
628,096	133,34
628,333	133,59
628,569	133,69
628,806	135,9
629,043	133,59
629,279	133,29
629,516	134,91
629,752	130,11
629,989	129,56
630,225	128,07
630,462	128,14
630,699	127,64
630,935	127,12
631,171	125,17
631,408	125,18
631,644	121,42
631,881	116,43
632,117	113,72
632,354	113,8
632,59	112,08
632,826	110,43
633,063	108,74
633,299	109,15
633,535	106,61
633,771	105,85
634,008	108,94
634,244	108,17
634,48	105,77
634,716	108,52
634,953	108,3
635,189	109,38
635,425	110,4
635,661	111,74
635,897	110,27
636,133	108,87
636,369	108,78
636,605	104,49
636,841	103,42
637,077	105,12
637,313	104,74
637,549	105,03
637,785	103,32
638,021	103,29
638,257	102,72
638,493	104,33
638,729	101,81
638,965	105,81
639,2	108,16
639,436	106,83
639,672	105,46
639,908	102,05
640,144	105,34
640,379	108,04
640,615	106,09
640,851	107,24
641,086	107,14
641,322	104,31
641,558	102,76
641,793	102,54
642,029	99,61
642,264	97,93
642,5	95,27
642,736	91,57
642,971	90,82
643,207	89,91
643,442	87,82
643,678	87,61
643,913	88,49
644,148	86,66
644,384	88,07
644,619	86,6
644,855	86,98
645,09	86,94
645,325	86,44
645,561	85,52
645,796	83,2
646,031	85,67
646,266	82,26
646,502	80,71
646,737	81,99
646,972	82,05
647,207	84,12
647,442	80,64
647,678	76,5
647,913	78,44
648,148	77,89
648,383	76,28
648,618	75,96
648,853	76,87
649,088	78,72
649,323	80,89
649,558	82,29
649,793	83,38
650,028	84,84
650,263	82,39
650,498	84,07
650,733	83,17
650,968	80,37
651,202	82,39
651,437	81,67
651,672	78,84
651,907	78,91
652,142	79,09
652,376	78,89
652,611	79,87
652,846	81,32
653,081	79,59
653,315	78,1
653,55	79,35
653,785	79,88
654,019	80,15
654,254	78,31
654,488	77,96
654,723	74,78
654,958	73,39
655,192	72,38
655,427	70,28
655,661	71,07
655,896	71,52
656,13	73,81
656,364	72,05
656,599	69,44
656,833	70,95
657,068	71,53
657,302	70,26
657,536	68,45
657,771	69,37
658,005	70
658,239	72,03
658,474	69,56
658,708	69,54
658,942	68,05
659,176	65,84
659,41	62,3
659,645	61,37
659,879	60,79
660,113	56,27
660,347	55,16
660,581	54,2
660,815	52,38
661,049	50,01
661,283	47,52
661,517	46,33
661,751	45,44
661,985	45,69
662,219	47,45
662,453	44,57
662,687	44,93
662,921	41,6
663,155	40,77
663,389	34,01
663,622	30,25
663,856	30,13
664,09	27,22
664,324	26,53
664,558	26,18
664,791	25,07
665,025	22,86
665,259	23,03
665,492	21,22
665,726	22,28
665,96	22,29
666,193	21,17
666,427	22,86
666,661	22,72
666,894	20,57
667,128	19,82
667,361	23,32
667,595	24,66
667,828	23,75
668,062	23,52
668,295	24,69
668,529	25
668,762	25,37
668,995	24,17
669,229	27,07
669,462	27,63
669,695	29,05
669,929	27,84
670,162	29,52
670,395	28,73
670,629	29,59
670,862	32,69
671,095	30,74
671,328	30,75
671,561	27,3
671,795	28,97
672,028	30,04
672,261	31,39
672,494	32,03
672,727	31,26
672,96	32,26
673,193	31,18
673,426	35
673,659	35,26
673,892	35,88
674,125	34,62
674,358	34,07
674,591	31,37
674,824	29,95
675,057	28,76
675,29	26,6
675,523	26,82
675,755	26,62
675,988	26,64
676,221	28,76
676,454	26,19
676,687	26,68
676,919	26,78
677,152	26,4
677,385	26,06
677,617	26,08
677,85	26,84
678,083	26,08
678,315	28,41
678,548	26,05
678,78	25,99
679,013	25,7
679,246	26,19
679,478	27,21
679,711	25,11
679,943	26,51
680,175	23,48
680,408	26,81
680,64	22,64
680,873	22,69
681,105	22,46
681,338	27,43
681,57	26,14
681,802	28,54
682,034	27,64
682,267	30,57
682,499	32,64
682,731	30,46
682,964	29,05
683,196	27,59
683,428	26,02
683,66	26,12
683,892	26,84
684,124	27,77
684,356	30,81
684,589	29,98
684,821	28,22
685,053	28,9
685,285	28,02
685,517	27,63
685,749	28,29
685,981	29,8
686,213	29,13
686,445	29,2
686,676	26,01
686,908	26,74
687,14	25,43
687,372	27,04
687,604	23,37
687,836	25,49
688,068	24,93
688,299	24,27
688,531	20,84
688,763	24,5
688,995	21,3
689,226	24,55
689,458	22,96
689,69	21,52
689,921	20,41
690,153	20,94
690,384	22,59
690,616	21,52
690,848	20,23
691,079	18,15
691,311	15,43
691,542	13,21
691,774	10,58
692,005	13,23
692,237	14,6
692,468	13,52
692,699	12,97
692,931	13,76
693,162	12,26
693,393	11,16
693,625	9,25
693,856	9,85
694,087	9,52
694,319	11,41
694,55	10,07
694,781	9,78
695,012	8,15
695,243	6,61
695,475	7,76
695,706	9,66
695,937	9,36
696,168	9,73
696,399	7,63
696,63	7,82
696,861	8,45
697,092	13
697,323	15,29
697,554	15,71
697,785	15,94
698,016	17,45
698,247	15,55
698,478	17
698,709	17,75
698,94	21,4
699,171	19,99
699,401	16,22
699,632	18,51
699,863	16,89
700,094	15,5
700,325	17,29
700,555	17,95
700,786	20,64
701,017	20,42
701,247	19,92
701,478	21,09
701,709	21,36
701,939	20,49
702,17	22,91
702,401	24,89
702,631	25,47
702,862	22,79
703,092	18,52
703,323	20,87
703,553	22,3
703,784	22,03
704,014	23,16
704,244	18,95
704,475	17,2
704,705	16,87
704,936	16,79
705,166	16,49
705,396	19,06
705,627	19,9
705,857	20,07
706,087	20,13
706,317	18,92
706,548	18,33
706,778	18,07
707,008	18,93
707,238	20,06
707,468	18,33
707,698	16,97
707,928	15,51
708,158	14,95
708,389	13,93
708,619	11,85
708,849	11,34
709,079	11,89
709,309	8,4
709,539	6,42
709,768	5,73
709,998	8,05
710,228	8,3
710,458	7,19
710,688	5,2
710,918	4,72
711,148	2,05
711,378	2,59
711,607	1,77
711,837	2,11
712,067	2,62
712,297	2,05
712,526	0,49
712,756	1,51
712,986	-1,04
713,215	-3,86
713,445	-3,38
713,674	-2,31
713,904	-2,59
714,134	-0,72
714,363	-0,89
714,593	-2,34
714,822	-3,06
715,052	-2,7
715,281	-1,63
715,511	-2,61
715,74	-3,44
715,969	-4,21
716,199	-4,66
716,428	-3,87
716,657	-3,92
716,887	-2,52
717,116	-4,68
717,345	-3,18
717,575	-3,56
717,804	-2,71
718,033	-3,2
718,262	-3,21
718,492	-3,42
718,721	-2,96
718,95	-3,94
719,179	-6,12
719,408	-5,37
719,637	-7,62
719,866	-11,03
720,095	-9,95
720,324	-9,69
720,553	-13,39
720,782	-14,4
721,011	-16,11
721,24	-18,63
721,469	-20,43
721,698	-20,35
721,927	-19,9
722,156	-21,38
722,385	-22,36
722,613	-18,62
722,842	-18,17
723,071	-15,39
723,3	-13,59
723,529	-14,34
723,757	-13,84
723,986	-16,61
724,215	-16,6
724,443	-16,35
724,672	-14,23
724,901	-14,68
725,129	-13,5
725,358	-11,07
725,586	-11,39
725,815	-11,78
726,043	-12,91
726,272	-11,98
726,5	-11,98
726,729	-10,33
726,957	-12,67
727,186	-13,19
727,414	-10,92
727,642	-6,84
727,871	-5,09
728,099	-4,07
728,327	-4,33
728,556	-1,85
728,784	-0,73
729,012	-2,05
729,241	0,24
729,469	0,32
729,697	-3,01
729,925	-2,36
730,153	-4,48
730,381	-4,49
730,61	-3,29
730,838	-5,04
731,066	-4,37
731,294	-5,32
731,522	-7,4
731,75	-11,29
731,978	-12,18
732,206	-13,59
732,434	-15,32
732,662	-14,72
732,89	-14,71
733,118	-15,1
733,346	-16,4
733,573	-16,47
733,801	-16,12
734,029	-9,37
734,257	-8,16
734,485	-6,78
734,712	-6,32
734,94	-9,07
735,168	-6,92
735,396	-7,3
735,623	-8,64
735,851	-7,51
736,078	-4,81
736,306	-4,72
736,534	-5
736,761	-4,18
736,989	-6,91
737,216	-6,68
737,444	-9,34
737,671	-8,6
737,899	-4,06
738,126	-3,86
738,354	-2,54
738,581	-0,56
738,809	1,43
739,036	0,3
739,263	2,19
739,491	-0,16
739,718	-0,3
739,945	1,78
740,173	3,91
740,4	2,69
740,627	1,95
740,854	1,16
741,081	-1,38
741,309	-4,06
741,536	-7,13
741,763	-8,4
741,99	-6,13
742,217	-6,57
742,444	-5,56
742,671	-3,7
742,898	-3,71
743,125	-7,02
743,352	-10,69
743,579	-11,6
743,806	-11,89
744,033	-8,22
744,26	-8,09
744,487	-8,19
744,714	-8,07
744,941	-9,21
745,167	-6,71
745,394	-8,02
745,621	-9,42
745,848	-9,9
746,075	-7,65
746,301	-5,08
746,528	-0,07
746,755	-1,73
746,981	-1,86
747,208	-0,6
747,435	3,86
747,661	4,43
747,888	6,21
748,114	4,67
748,341	8,4
748,567	9,88
748,794	8,31
749,02	7,49
749,247	5,68
749,473	5,38
749,7	5,05
749,926	3,97
750,152	8,32
750,379	9,17
750,605	10,24
750,831	10,66
751,058	9,2
751,284	7,74
751,51	11,4
751,737	12,5
751,963	11
752,189	10,11
752,415	9,35
752,641	10,25
752,867	9,3
753,094	7,2
753,32	4,63
753,546	3,15
753,772	4,97
753,998	2,81
754,224	0,85
754,45	-0,33
754,676	-0,63
754,902	-1,93
755,128	-1,2
755,354	-3,1
755,579	-2,03
755,805	-0,19
756,031	-1,3
756,257	-1,68
756,483	-2,11
756,709	-3,55
756,934	-2,83
757,16	-5,61
757,386	-5,37
757,612	-7,1
757,837	-8,36
758,063	-7,1
758,289	-4,26
758,514	-6,22
758,74	-9,81
758,965	-11,37
759,191	-11,05
759,416	-8,76
759,642	-8,51
759,868	-8,19
760,093	-4,69
760,318	-6,04
760,544	-6,5
760,769	-7,34
760,995	-5,96
761,22	-4,81
761,445	-3,6
761,671	-2,79
761,896	-0,37
762,121	-0,6
762,347	-0,69
762,572	-2,78
762,797	-3,79
763,022	-3,22
763,248	-0,1
763,473	0,65
763,698	0,38
763,923	0,68
764,148	0,15
764,373	0,1
764,598	1,28
764,823	3,18
765,048	0,85
765,273	-2,4
765,498	-2,61
765,723	-1,13
765,948	-0,03
766,173	-0,61
766,398	-0,55
766,623	-1,22
766,848	-1,04
767,073	-3,34
767,298	-2,51
767,522	-2,14
767,747	-0,9
767,972	-1,88
768,197	-1,98
768,421	-4,66
768,646	-8,12
768,871	-10,6
769,095	-9,86
769,32	-9,5
769,545	-10,58
769,769	-9,05
769,994	-9,55
770,218	-13,11
770,443	-12,13
770,667	-11,3
770,892	-10,85
771,116	-12,3
771,341	-10,49
771,565	-11,28
771,79	-10,93
772,014	-12,29
772,238	-12,92
772,463	-11,01
772,687	-10,51
772,911	-11,15
773,136	-13,8
773,36	-13,39
773,584	-12,85
773,808	-13,94
774,033	-13,44
774,257	-13,91
774,481	-14,8
774,705	-15,82
774,929	-16,02
775,153	-17,04
775,377	-14,57
775,602	-13,5
775,826	-12,92
776,05	-11,5
776,274	-11,11
776,498	-11,02
776,722	-11,39
776,945	-9,06
777,169	-8,04
777,393	-10,03
777,617	-11,01
777,841	-11,04
778,065	-9,49
778,289	-9,81
778,512	-10,32
778,736	-11,06
778,96	-9,41
779,184	-7,58
779,407	-9,34
779,631	-10,05
779,855	-11,47
780,078	-9,43
780,302	-11,45
780,526	-14,54
780,749	-14,53
780,973	-13,13
781,196	-13,75
781,42	-16,49
781,643	-15,57
781,867	-14,72
782,09	-15,62
782,314	-16,92
782,537	-16,31
782,76	-17,03
782,984	-15,97
783,207	-16,74
783,431	-16,54
783,654	-17,82
783,877	-19,83
784,1	-19,57
784,324	-20,34
784,547	-20,66
784,77	-25,16
784,993	-25,46
785,216	-27,47
785,44	-26,8
785,663	-28,26
785,886	-26,24
786,109	-26,09
786,332	-26,5
786,555	-25,56
786,778	-22,51
787,001	-20,62
787,224	-18,71
787,447	-15,99
787,67	-15
787,893	-15,93
788,116	-14,8
788,339	-12,77
788,561	-13,86
788,784	-17,03
789,007	-17,74
789,23	-19,7
789,453	-19,88
789,675	-21,34
789,898	-25
790,121	-27,24
790,344	-26,8
790,566	-25,03
790,789	-24,13
791,012	-24,92
791,234	-22,24
791,457	-19,19
791,679	-16,25
791,902	-16,42
792,124	-15,51
792,347	-16,91
792,569	-16,62
792,792	-20,41
793,014	-18,5
793,237	-16,23
793,459	-17,61
793,681	-17,5
793,904	-19,83
794,126	-20,54
794,348	-22,9
794,571	-20,39
794,793	-21,44
795,015	-21,21
795,237	-21,42
795,46	-20,21
795,682	-18,86
795,904	-16,79
796,126	-16,9
796,348	-16,96
796,57	-14,06
796,792	-12,93
797,014	-9,69
797,237	-8,47
797,459	-8,33
797,681	-8,56
797,903	-9,64
798,124	-9,03
798,346	1,05
798,568	2,11
798,79	6,32
799,012	7,71
799,234	9,92
799,456	12,03
799,678	14,68
799,899	13,12
800,121	10,35
800,343	10,81
800,565	10,09
800,786	10,51
801,008	11,79
801,23	12,74
801,451	11,51
801,673	10,49
801,895	10,07
802,116	12,24
802,338	12,91
802,559	12,63
802,781	10,6
803,002	12,38
803,224	14,69
803,445	12,15
803,667	12,9
803,888	12,02
804,109	11,8
804,331	10,2
804,552	10,64
804,773	13,24
804,995	11,38
805,216	-1,94
805,437	-3,88
805,658	-8,23
805,88	-8,13
806,101	-8,19
806,322	-9,25
806,543	-10,44
806,764	-13,26
806,985	-11,03
807,207	-10,09
807,428	-9,62
807,649	-13,02
807,87	-14,7
808,091	-14,03
808,312	-12,5
808,533	-7,71
808,754	-5,63
808,975	-7,23
809,195	-6,62
809,416	-5,56
809,637	-5,01
809,858	-6,48
810,079	-9,57
810,3	-5,73
810,52	-6,65
810,741	-9,22
810,962	-10,35
811,183	-9,93
811,403	-9,84
811,624	-11,92
811,845	-11,64
812,065	-9,36
812,286	-8,51
812,506	-6,22
812,727	-8,52
812,948	-7,85
813,168	-6,02
813,389	-7,25
813,609	-3,69
813,83	-3,73
814,05	-5,4
814,27	-5,11
814,491	-1,27
814,711	-1,51
814,931	-3,21
815,152	-4,46
815,372	-6,91
815,592	-9,38
815,813	-10,75
816,033	-11,04
816,253	-10,94
816,473	-11,44
816,694	-9,22
816,914	-6,89
817,134	-8,71
817,354	-10,08
817,574	-8,6
817,794	-9,77
818,014	-11,13
818,234	-10,77
818,454	-12,15
818,674	-13,37
818,894	-15,39
819,114	-14,25
819,334	-13,96
819,554	-11,48
819,774	-8,91
819,994	-10,11
820,214	-9,31
820,433	-10,03
820,653	-11,27
820,873	-9,06
821,093	-9,93
821,312	-11,05
821,532	-9,31
821,752	-7,22
821,972	-8,86
822,191	-7,87
822,411	-7,21
822,63	-5,86
822,85	-6,14
823,07	-8,46
823,289	-7,31
823,509	-9,12
823,728	-7,85
823,948	-9,25
824,167	-8,98
824,387	-10,31
824,606	-8,62
824,825	-8,82
825,045	-8,82
825,264	-8,25
825,483	-6,61
825,703	-5,9
825,922	-6,07
826,141	-7,93
826,361	-9,03
826,58	-13,01
826,799	-14,64
827,018	-13,63
827,237	-13,7
827,456	-12,16
827,676	-12,09
827,895	-10,87
828,114	-10,72
828,333	-11,39
828,552	-11,06
828,771	-9,59
828,99	-11,95
829,209	-12,48
829,428	-10,57
829,647	-11,34
829,866	-9,56
830,084	-10,19
830,303	-10,45
830,522	-11,86
830,741	-10,66
830,96	-10,42
831,179	-8,82
831,397	-10,24
831,616	-9,76
831,835	-10,55
832,053	-9,06
832,272	-9,33
832,491	-9,09
832,709	-10,2
832,928	-9,4
833,147	-8,39
833,365	-8,7
833,584	-6,81
833,802	-5,83
834,021	-5,69
834,239	-5,61
834,458	-6,99
834,676	-10,36
834,894	-10,96
835,113	-12,33
835,331	-14,22
835,55	-14,72
835,768	-13,5
835,986	-12,19
836,204	-14,65
836,423	-14,55
836,641	-15,42
836,859	-15,93
837,077	-13,87
837,296	-14,13
837,514	-15,19
837,732	-15,34
837,95	-15,45
838,168	-13,27
838,386	-12,89
838,604	-11,03
838,822	-10,41
839,04	-11,67
839,258	-10,96
839,476	-9,79
839,694	-9,24
839,912	-10,77
840,13	-10,46
840,348	-7,87
840,566	-11,6
840,783	-10,74
841,001	-13,28
841,219	-12,61
841,437	-12,32
841,655	-10,35
841,872	-9,77
842,09	-8,96
842,308	-8,4
842,525	-7,71
842,743	-6,71
842,961	-7,53
843,178	-8,88
843,396	-5,64
843,613	-5,64
843,831	-5,58
844,048	-5,27
844,266	-6,28
844,483	-6,71
844,701	-8,45
844,918	-8,76
845,136	-9,74
845,353	-11,46
845,57	-11,31
845,788	-8,53
846,005	-9,77
846,222	-11,02
846,439	-10,06
846,657	-9,94
846,874	-9,85
847,091	-11,4
847,308	-8,62
847,526	-10,62
847,743	-9,81
847,96	-11,71
848,177	-11,47
848,394	-12,93
848,611	-12,49
848,828	-12,79
849,045	-11,77
849,262	-11,02
849,479	-12,25
849,696	-12,34
849,913	-14,82
850,13	-18,73
850,347	-16,13
850,564	-16,8
850,78	-18,45
850,997	-18,78
851,214	-18,54
851,431	-17,37
851,647	-18,86
851,864	-17,73
852,081	-15,87
852,298	-19,07
852,514	-20,17
852,731	-18,7
852,948	-17,41
853,164	-17,06
853,381	-16,66
853,597	-18,18
853,814	-20,47
854,03	-23,06
854,247	-19,98
854,463	-19,13
854,68	-18,24
854,896	-17,43
855,113	-17,55
855,329	-16,62
855,545	-14,47
855,762	-17,11
855,978	-22,17
856,194	-23,55
856,411	-19,79
856,627	-15,97
856,843	-14,41
857,059	-13,2
857,275	-15,57
857,492	-14,44
857,708	-10,37
857,924	-9,31
858,14	-6,79
858,356	-7,99
858,572	-8,93
858,788	-11,03
859,004	-9,51
859,22	-11,86
859,436	-12,83
859,652	-13,86
859,868	-16,2
860,084	-16,78
860,3	-14,93
860,516	-15,62
860,731	-14,13
860,947	-16,62
861,163	-15,03
861,379	-15,77
861,595	-13,89
861,81	-12,62
862,026	-13,08
862,242	-13,1
862,457	-13,15
862,673	-9,92
862,889	-9,07
863,104	-10,67
863,32	-10,81
863,535	-10,26
863,751	-13,84
863,966	-10,12
864,182	-9,17
864,397	-12,17
864,613	-13,76
864,828	-15,65
865,044	-13,11
865,259	-10,67
865,474	-11
865,69	-8,95
865,905	-7,53
866,12	-9,13
866,336	-8,72
866,551	-6,25
866,766	-6,63
866,981	-8,14
867,196	-8,21
867,412	-8,2
867,627	-8,39
867,842	-9,58
868,057	-8,5
868,272	-10,1
868,487	-9,75
868,702	-12,43
868,917	-13,33
869,132	-11,98
869,347	-11,69
869,562	-14,23
869,777	-13,97
869,992	-14,24
870,207	-13,97
870,422	-13,42
870,636	-14,38
870,851	-15,33
871,066	-16
871,281	-16,26
871,495	-17,8
871,71	-17,39
871,925	-20,04
872,14	-19,24
872,354	-20,88
872,569	-21,96
872,783	-19,8
872,998	-20,96
873,213	-21,67
873,427	-19,26
873,642	-16,69
873,856	-15,87
874,071	-15,77
874,285	-15,88
874,5	-17,26
874,714	-18,35
874,928	-18,34
875,143	-19,33
875,357	-18,51
875,571	-20,61
875,786	-19,93
876	-17,76
876,214	-14,5
876,429	-16,85
876,643	-15,97
876,857	-16,27
877,071	-16,55
877,285	-19,3
877,499	-21,96
877,714	-19,7
877,928	-17,9
878,142	-19,53
878,356	-19,73
878,57	-19,12
878,784	-18,73
878,998	-19,67
879,212	-16,94
879,426	-18,17
879,639	-16,75
879,853	-18,27
880,067	-18,33
880,281	-20,76
880,495	-19,09
880,709	-17,4
880,922	-16,54
881,136	-14,74
881,35	-12,35
881,564	-12,53
881,777	-14,87
881,991	-13,8
882,205	-9,69
882,418	-8,96
882,632	-12,04
882,845	-12,46
883,059	-11,57
883,273	-12,47
883,486	-11,77
883,7	-9,76
883,913	-8,52
884,126	-6,58
884,34	-9,16
884,553	-9,68
884,767	-4,77
884,98	-5,02
885,193	-6,24
885,407	-5,9
885,62	-5,71
885,833	-5,84
886,046	-4,27
886,26	-5,32
886,473	-6,28
886,686	-7,58
886,899	-5,62
887,112	-8,53
887,326	-11,18
887,539	-10,43
887,752	-10,33
887,965	-13,71
888,178	-13,04
888,391	-12,22
888,604	-12,75
888,817	-14,75
889,03	-14,83
889,243	-14,99
889,455	-17,51
889,668	-16,58
889,881	-14,07
890,094	-16,81
890,307	-18,09
890,52	-17,63
890,732	-17,6
890,945	-18
891,158	-18,27
891,37	-20,18
891,583	-20,87
891,796	-18,41
892,008	-20,34
892,221	-20,47
892,434	-22,98
892,646	-24,82
892,859	-24,83
893,071	-22,59
893,284	-21,35
893,496	-22,1
893,709	-20,62
893,921	-18,58
894,133	-19,03
894,346	-19,2
894,558	-18,23
894,771	-18,73
894,983	-16,98
895,195	-16,16
895,407	-15,23
895,62	-17,54
895,832	-17,03
896,044	-15,14
896,256	-15,86
896,468	-18,21
896,681	-15,54
896,893	-14,89
897,105	-14,44
897,317	-14,64
897,529	-12,58
897,741	-12,69
897,953	-11,17
898,165	-11,4
898,377	-13,71
898,589	-12,21
898,801	-11,66
899,013	-8,57
899,224	-5,73
899,436	-4,48
899,648	-5,41
899,86	-6,57
900,072	-4,5
900,283	-3,45
900,495	-1,64
900,707	-2,19
900,919	-4,46
901,13	-4,15
901,342	-4,61
901,554	-5,2
901,765	-4,93
901,977	-7,47
902,188	-7,35
902,4	-8,35
902,611	-10,19
902,823	-11,86
903,034	-12,92
903,246	-15,05
903,457	-16,1
903,669	-18,03
903,88	-18,83
904,091	-19,15
904,303	-17,65
904,514	-18,08
904,725	-16,31
904,936	-14,47
905,148	-14,93
905,359	-13,73
905,57	-15,62
905,781	-17,92
905,992	-18,12
906,204	-17,17
906,415	-16,87
906,626	-17,49
906,837	-15,7
907,048	-18,55
907,259	-18,5
907,47	-20,32
907,681	-19,66
907,892	-17,77
908,103	-18,5
908,314	-20,82
908,525	-18,69
908,735	-18,73
908,946	-19,3
909,157	-18,78
909,368	-15,69
909,579	-15,6
909,789	-17,67
910	-19,28
910,211	-16,61
910,421	-16,16
910,632	-16,04
910,843	-18,75
911,053	-15,6
911,264	-14,84
911,475	-15,82
911,685	-15,44
911,896	-14,65
912,106	-14,98
912,317	-16,34
912,527	-14,73
912,737	-15,69
912,948	-15,39
913,158	-15,87
913,369	-19,36
913,579	-16,43
913,789	-16,63
914	-12,82
914,21	-12,77
914,42	-12,9
914,63	-13,16
914,841	-11,28
915,051	-9,8
915,261	-9,84
915,471	-5,98
915,681	-5,12
915,891	-6,29
916,101	-6,1
916,311	-5,47
916,521	-3,13
916,731	-2,89
916,941	-1,44
917,151	-1,96
917,361	0,78
917,571	-3,91
917,781	-5,44
917,991	-8,17
918,201	-8,33
918,411	-10,89
918,621	-10,14
918,83	-9,08
919,04	-10,75
919,25	-7,56
919,46	-5,5
919,669	-7,74
919,879	-7,32
920,089	-9,21
920,298	-10,21
920,508	-9,89
920,717	-9
920,927	-10,42
921,136	-9,2
921,346	-10,8
921,555	-14,92
921,765	-14,28
921,974	-17,8
922,184	-19,72
922,393	-20,09
922,603	-21,1
922,812	-19,37
923,021	-21,74
923,23	-22,15
923,44	-24,34
923,649	-24,09
923,858	-24,55
924,067	-25,24
924,277	-26,63
924,486	-22,91
924,695	-22,81
924,904	-21,17
925,113	-20,83
925,322	-19,71
925,531	-19,37
925,74	-23,07
925,949	-24,65
926,158	-22,83
926,367	-22,57
926,576	-21,5
926,785	-22,67
926,994	-23,31
927,203	-24,1
927,412	-23,86
927,621	-24,87
927,83	-22,53
928,038	-21,55
928,247	-21,85
928,456	-20,54
928,665	-18,96
928,873	-17,77
929,082	-15,6
929,291	-14,83
929,499	-12,39
929,708	-14,28
929,916	-12,47
930,125	-14,36
930,333	-15,79
930,542	-13,68
930,75	-11,18
930,959	-11,31
931,167	-11,66
931,376	-12,96
931,584	-13,5
931,793	-12,67
932,001	-13,84
932,209	-14,77
932,418	-17,68
932,626	-18,94
932,834	-20,49
933,042	-23,86
933,251	-22,89
933,459	-23,33
933,667	-23,63
933,875	-24,09
934,083	-23,35
934,291	-23,91
934,499	-22,57
934,707	-21,52
934,915	-22,79
935,123	-21,76
935,331	-21,82
935,539	-23,96
935,747	-25,16
935,955	-26,45
936,163	-26,03
936,371	-26,42
936,579	-23,84
936,787	-23,61
936,995	-24,27
937,202	-25,2
937,41	-25,96
937,618	-26,95
937,826	-25,99
938,033	-29,59
938,241	-30,98
938,449	-27,72
938,656	-26,16
938,864	-26,45
939,071	-25,75
939,279	-23,42
939,486	-20,42
939,694	-20,77
939,901	-22,37
940,109	-22,38
940,316	-22,66
940,524	-22,84
940,731	-22,86
940,939	-21,82
941,146	-24,49
941,353	-24,05
941,561	-23,65
941,768	-25,41
941,975	-23,4
942,182	-22,89
942,39	-22,08
942,597	-19,35
942,804	-20,07
943,011	-20,24
943,218	-19,76
943,425	-20,64
943,632	-21,36
943,839	-20,91
944,046	-20,6
944,253	-20,23
944,46	-18,09
944,667	-15,96
944,874	-17,16
945,081	-16,22
945,288	-13,88
945,495	-12,67
945,702	-13,12
945,909	-15,78
946,115	-14,08
946,322	-14,06
946,529	-14,53
946,736	-14,02
946,942	-12,99
947,149	-14,77
947,356	-16,73
947,562	-17,32
947,769	-17,86
947,976	-18,96
948,182	-16,39
948,389	-17,05
948,595	-16,62
948,802	-16,61
949,008	-18,93
949,215	-17,78
949,421	-18,45
949,628	-19,11
949,834	-18,51
950,04	-18,84
950,247	-16,49
950,453	-15,73
950,659	-17,89
950,865	-16,75
951,072	-21,01
951,278	-20,23
951,484	-20,49
951,69	-22,15
951,896	-23,71
952,103	-23,5
952,309	-22,77
952,515	-22,25
952,721	-20,48
952,927	-18,21
953,133	-18,99
953,339	-20,4
953,545	-19,05
953,751	-17,89
953,957	-14,94
954,163	-15,84
954,369	-15,95
954,574	-18,55
954,78	-19,31
954,986	-18,76
955,192	-18,12
955,398	-19,42
955,603	-21,39
955,809	-20,15
956,015	-19,39
956,22	-18,63
956,426	-17,56
956,632	-19,91
956,837	-21,12
957,043	-20,92
957,248	-19,09
957,454	-17,75
957,66	-20,02
957,865	-20,85
958,07	-20,73
958,276	-20,18
958,481	-21,38
958,687	-21,54
958,892	-22,34
959,097	-22,93
959,303	-24,31
959,508	-24,3
959,713	-23,53
959,919	-24,53
960,124	-25,6
960,329	-25,58
960,534	-22,62
960,739	-21,43
960,945	-19,4
961,15	-19,53
961,355	-21,7
961,56	-24,72
961,765	-24,63
961,97	-24,3
962,175	-23,95
962,38	-26,72
962,585	-26,53
962,79	-28,8
962,995	-29,79
963,2	-30,68
963,404	-28,43
963,609	-31,17
963,814	-31,96
964,019	-33,66
964,224	-34,9
964,428	-32,8
964,633	-33,39
964,838	-31,87
965,042	-32,21
965,247	-33,39
965,452	-33,31
965,656	-32,73
965,861	-31,29
966,066	-32,83
966,27	-30,15
966,475	-26,65
966,679	-29,32
966,884	-29,31
967,088	-30,29
967,292	-29,63
967,497	-29,22
967,701	-29,02
967,906	-27,28
968,11	-24,57
968,314	-21,17
968,518	-21,36
968,723	-18,51
968,927	-17,63
969,131	-16,04
969,335	-13,6
969,539	-12,38
969,744	-11,95
969,948	-10,42
970,152	-8,71
970,356	-7,05
970,56	-7,01
970,764	-7,78
970,968	-4,93
971,172	-6,38
971,376	-5,47
971,58	-3,4
971,784	-3,25
971,988	-4,25
972,192	-2,67
972,395	-3,26
972,599	-6,32
972,803	-8,23
973,007	-6,39
973,21	-5,09
973,414	-6,46
973,618	-7,81
973,822	-8,26
974,025	-7,31
974,229	-7,17
974,432	-9,94
974,636	-11,83
974,84	-11,05
975,043	-11,21
975,247	-12,74
975,45	-13,63
975,654	-12,78
975,857	-12,08
976,06	-13,16
976,264	-14,74
976,467	-14,93
976,671	-15,53
976,874	-13,41
977,077	-16,05
977,28	-17,38
977,484	-19,18
977,687	-19,36
977,89	-18,34
978,093	-17,93
978,297	-16,7
978,5	-18,43
978,703	-16,29
978,906	-15,22
979,109	-16,79
979,312	-15,37
979,515	-16,65
979,718	-15,79
979,921	-15,66
980,124	-16,14
980,327	-16,18
980,53	-16,22
980,733	-13,7
980,936	-11,2
981,138	-13,51
981,341	-13,71
981,544	-13,18
981,747	-13,02
981,949	-14,14
982,152	-12,85
982,355	-13,25
982,558	-9,84
982,76	-11,57
982,963	-10,52
983,165	-10,74
983,368	-8,72
983,571	-10,74
983,773	-6,44
983,976	-5,37
984,178	-5,5
984,381	-5,94
984,583	-8,38
984,785	-8,37
984,988	-6,97
985,19	-5,18
985,392	-5,04
985,595	-9,28
985,797	-10,19
985,999	-8,45
986,202	-7,48
986,404	-7,71
986,606	-5,15
986,808	-6,09
987,01	-6,36
987,212	-8,68
987,415	-9,31
987,617	-9,42
987,819	-9,68
988,021	-7,77
988,223	-10,59
988,425	-12,15
988,627	-12,14
988,829	-16,92
989,031	-14,68
989,232	-17,33
989,434	-17,59
989,636	-17
989,838	-15,68
990,04	-16,13
990,242	-17,73
990,443	-19,11
990,645	-17,46
990,847	-14,7
991,048	-14,48
991,25	-16,05
991,452	-17,22
991,653	-18,64
991,855	-16,94
992,057	-16,87
992,258	-16,57
992,46	-17,13
992,661	-15,74
992,863	-17,24
993,064	-15,61
993,265	-16,52
993,467	-16,34
993,668	-14,94
993,87	-14,04
994,071	-13,61
994,272	-14,44
994,473	-12,18
994,675	-11,45
994,876	-10,87
995,077	-8,18
995,278	-7,81
995,48	-5,94
995,681	-6,72
995,882	-6,84
996,083	-7,69
996,284	-10,88
996,485	-9,9
996,686	-12,05
996,887	-13,09
997,088	-16,27
997,289	-17,64
997,49	-18,6
997,691	-19,13
997,892	-19,01
998,092	-15,76
998,293	-16,78
998,494	-18,11
998,695	-19,2
998,896	-18,51
999,096	-19,11
999,297	-18,68
999,498	-20,16
999,698	-22,99
999,899	-24,84
1000,1	-26,03
1000,3	-26,37
1000,501	-27,71
1000,701	-28,37
1000,902	-29,08
1001,102	-30,04
1001,303	-29,86
1001,503	-31,85
1001,704	-31,34
1001,904	-31,15
1002,105	-31,17
1002,305	-30,65
1002,505	-30,24
1002,706	-31,38
1002,906	-30,69
1003,106	-31,95
1003,306	-30,58
1003,507	-29,21
1003,707	-29,37
1003,907	-27,24
1004,107	-25,35
1004,307	-28,36
1004,507	-25,72
1004,707	-25,49
1004,907	-25,87
1005,107	-25,96
1005,308	-25,94
1005,507	-28,44
1005,707	-26,1
1005,907	-25,33
1006,107	-22,75
1006,307	-22,58
1006,507	-23,74
1006,707	-23,02
1006,907	-21,59
1007,106	-22,03
1007,306	-22,38
1007,506	-22,14
1007,706	-20,47
1007,905	-22,1
1008,105	-22,97
1008,305	-23,29
1008,504	-21,91
1008,704	-16,98
1008,903	-17,12
1009,103	-14,66
1009,303	-15,75
1009,502	-15,61
1009,702	-15,79
1009,901	-14,97
1010,1	-17,65
1010,3	-16,02
1010,499	-15,67
1010,699	-17,68
1010,898	-19,74
1011,097	-19,07
1011,296	-19,41
1011,496	-20,6
1011,695	-19,85
1011,894	-21,24
1012,093	-18,3
1012,293	-18,47
1012,492	-18,72
1012,691	-18,46
1012,89	-17,54
1013,089	-20,74
1013,288	-18,67
1013,487	-17,98
1013,686	-17,61
1013,885	-19,29
1014,084	-18,83
1014,283	-18,32
1014,482	-19,35
1014,681	-20,3
1014,88	-25,27
1015,078	-23,2
1015,277	-26,28
1015,476	-26,3
1015,675	-26,26
1015,873	-26,52
1016,072	-27,59
1016,271	-23,57
1016,47	-26,85
1016,668	-25,03
1016,867	-26,38
1017,065	-26,56
1017,264	-26,62
1017,463	-26,9
1017,661	-26,07
1017,86	-25,31
1018,058	-24,35
1018,256	-26,6
1018,455	-28,39
1018,653	-28,06
1018,852	-27,19
1019,05	-29,98
1019,248	-30,24
1019,447	-31,1
1019,645	-30,08
1019,843	-31,87
1020,041	-30,59
1020,24	-30,2
1020,438	-27,76
1020,636	-27,45
1020,834	-29,56
1021,032	-27,32
1021,23	-28,66
1021,428	-26,94
1021,626	-24,27
1021,824	-22,85
1022,022	-23,33
1022,22	-21,65
1022,418	-23,76
1022,616	-24,04
1022,814	-26
1023,012	-25,27
1023,21	-22,6
1023,408	-23,52
1023,606	-24,22
1023,803	-19,96
1024,001	-19,27
1024,199	-20,48
1024,397	-18,79
1024,594	-17,85
1024,792	-19,42
1024,99	-18,76
1025,187	-18,44
1025,385	-13,99
1025,582	-13,02
1025,78	-14,44
1025,977	-14,64
1026,175	-14,9
1026,372	-14,67
1026,57	-15,74
1026,767	-13,26
1026,965	-11,91
1027,162	-11,29
1027,359	-11,54
1027,557	-10,76
1027,754	-13,43
1027,951	-14,63
1028,148	-13,26
1028,346	-15,11
1028,543	-16,62
1028,74	-16,1
1028,937	-17,73
1029,134	-18,14
1029,331	-20,4
1029,528	-19,78
1029,725	-19,39
1029,923	-22,86
1030,12	-21,59
1030,317	-21,17
1030,513	-20,88
1030,71	-21,57
1030,907	-19,49
1031,104	-20,04
1031,301	-20,36
1031,498	-21,19
1031,695	-22,54
1031,892	-21,9
1032,088	-21,24
1032,285	-23,7
1032,482	-24,22
1032,678	-26,87
1032,875	-29,08
1033,072	-28,54
1033,268	-29,38
1033,465	-29,35
1033,662	-32,04
1033,858	-31,78
1034,055	-33
1034,251	-31,09
1034,448	-30,25
1034,644	-29,38
1034,84	-28,43
1035,037	-26,19
1035,233	-25,03
1035,43	-22,66
1035,626	-23,77
1035,822	-25,14
1036,019	-25,42
1036,215	-28,99
1036,411	-29,87
1036,607	-31,28
1036,803	-31,87
1037	-31,59
1037,196	-33,05
1037,392	-32,81
1037,588	-34,46
1037,784	-33,71
1037,98	-35,51
1038,176	-35,57
1038,372	-34,72
1038,568	-33,31
1038,764	-31,3
1038,96	-28,94
1039,156	-31,71
1039,352	-32,78
1039,547	-31,71
1039,743	-30,46
1039,939	-27,88
1040,135	-28,17
1040,331	-29,75
1040,526	-29,02
1040,722	-30,16
1040,918	-31,09
1041,113	-32,8
1041,309	-32,99
1041,505	-35,64
1041,7	-34,09
1041,896	-32,13
1042,091	-32,16
1042,287	-30,3
1042,482	-29,19
1042,678	-29,19
1042,873	-28,31
1043,069	-29,26
1043,264	-28,46
1043,459	-27,03
1043,655	-26,72
1043,85	-28
1044,045	-25,79
1044,24	-25,81
1044,436	-23,7
1044,631	-25,16
1044,826	-26,19
1045,021	-29,8
1045,216	-25,63
