Data from FLMT021711__16__17-06-50-931.txt Node

Date: Tue Nov 05 17:06:50 CET 2024
User: Etudiants TP
Spectrometer: FLMT02171
Trigger mode: 0
Integration Time (sec): 1,000000E-1
Scans to average: 5
Electric dark correction enabled: true
Nonlinearity correction enabled: false
Boxcar width: 15
XAxis mode: Wavelengths
Number of Pixels in Spectrum: 3648
>>>>>Begin Spectral Data<<<<<
194,658	-57,91
194,923	-54,88
195,188	-47,76
195,453	-47,59
195,717	-40,99
195,982	-40,83
196,247	-40,59
196,512	-42,9
196,777	-41,67
197,042	-40,24
197,307	-40,64
197,572	-37,25
197,837	-37,95
198,101	-35,91
198,366	-33,27
198,631	-31,42
198,896	-25,28
199,161	-19
199,425	-12,74
199,69	-4,63
199,955	-5,59
200,22	-9,03
200,484	-8,86
200,749	-9,27
201,014	-9,34
201,278	-7,84
201,543	-6,97
201,807	-7,22
202,072	-6,54
202,337	-6,29
202,601	-5,95
202,866	-6,27
203,13	-4,96
203,395	-8,16
203,659	-7,27
203,924	-10,17
204,189	-8,48
204,453	-7,22
204,717	-4,74
204,982	-5,4
205,246	-4,41
205,511	-2,31
205,775	-2,73
206,04	3,01
206,304	4,34
206,568	6,25
206,833	6,05
207,097	5,93
207,361	7,23
207,626	10,33
207,89	10,85
208,154	13,17
208,419	15,73
208,683	16,56
208,947	17,9
209,211	18,04
209,476	16,79
209,74	16,62
210,004	16,11
210,268	17,13
210,532	19,59
210,796	19,59
211,061	19,62
211,325	19,42
211,589	18,83
211,853	18,55
212,117	19,98
212,381	19,69
212,645	20,47
212,909	20,39
213,173	19,39
213,437	19,78
213,701	19,58
213,965	21,28
214,229	16,69
214,493	15,76
214,757	13,62
215,021	12,7
215,285	16,36
215,549	18,77
215,813	16,82
216,077	17,29
216,34	18,43
216,604	17,6
216,868	17,42
217,132	19,15
217,396	17,31
217,659	17,69
217,923	13,07
218,187	13,89
218,451	12,64
218,714	10,11
218,978	10,45
219,242	13
219,505	13,88
219,769	15,49
220,033	15,46
220,296	15,02
220,56	14,4
220,824	13,3
221,087	14,83
221,351	16,08
221,614	15,77
221,878	17,38
222,142	14,87
222,405	13,88
222,669	16,18
222,932	13,78
223,196	12,99
223,459	9,39
223,722	9,66
223,986	9,07
224,249	8,74
224,513	8,9
224,776	9,21
225,04	8,1
225,303	8,31
225,566	8,74
225,83	10,5
226,093	14,42
226,356	13,62
226,62	12,39
226,883	14,13
227,146	15,07
227,409	14,16
227,673	11,41
227,936	10,33
228,199	11,5
228,462	10,29
228,725	10,93
228,989	10,89
229,252	10,57
229,515	14,53
229,778	13,05
230,041	12,55
230,304	10,67
230,567	12,26
230,83	9,92
231,093	12,6
231,356	12,79
231,619	18,69
231,882	15,95
232,145	16,89
232,408	15,53
232,671	13,39
232,934	12,87
233,197	11,21
233,46	8,66
233,723	10,12
233,986	8,45
234,249	6,19
234,512	7,23
234,775	11,38
235,037	10,52
235,3	9,95
235,563	9,74
235,826	11,26
236,089	14,31
236,351	13,05
236,614	15,18
236,877	15,24
237,14	16,66
237,402	16,35
237,665	11,06
237,928	11,18
238,19	8,52
238,453	11,15
238,716	11,21
238,978	10,77
239,241	8,19
239,503	10,01
239,766	5,23
240,029	5,58
240,291	8,01
240,554	8,77
240,816	9,36
241,079	10,46
241,341	11,14
241,604	10,26
241,866	7,02
242,129	7,41
242,391	9,06
242,653	8,08
242,916	7,66
243,178	6,8
243,441	8,11
243,703	7,36
243,965	4,89
244,228	4,41
244,49	4,65
244,752	4,76
245,015	5,9
245,277	6,33
245,539	5,02
245,801	7,23
246,064	6,82
246,326	5,98
246,588	5,45
246,85	6,19
247,112	6,99
247,374	8,96
247,637	11,27
247,899	10,79
248,161	10,43
248,423	6,5
248,685	5,5
248,947	5,52
249,209	4,81
249,471	5,75
249,733	6,68
249,995	6,16
250,257	6,67
250,519	5,64
250,781	8,08
251,043	5,58
251,305	8,04
251,567	9,4
251,829	10,49
252,091	11,19
252,353	6,62
252,615	6,65
252,876	5,53
253,138	4,23
253,4	3
253,662	3,96
253,924	4,66
254,185	5,96
254,447	6,29
254,709	5,63
254,971	8,01
255,232	8,94
255,494	8,61
255,756	6,15
256,017	7,31
256,279	7,92
256,541	8,07
256,802	9,76
257,064	11,58
257,326	11,66
257,587	12,83
257,849	14,59
258,11	16,72
258,372	17,03
258,633	18,15
258,895	17,23
259,156	16,08
259,418	14,42
259,679	9,52
259,941	7,31
260,202	10,43
260,464	14,19
260,725	13,86
260,987	13,21
261,248	13,56
261,509	13,24
261,771	13,3
262,032	14,13
262,293	13,75
262,555	14,02
262,816	12,51
263,077	10,02
263,338	8,99
263,6	9,48
263,861	8,68
264,122	7,09
264,383	8,6
264,645	10,4
264,906	7,81
265,167	6,96
265,428	4,26
265,689	6,25
265,95	4,24
266,211	6,4
266,473	5,62
266,734	2,69
266,995	0,6
267,256	2,66
267,517	3,55
267,778	7,17
268,039	8,34
268,3	5,6
268,561	2,63
268,822	5,6
269,083	3,48
269,344	0,52
269,604	-0,87
269,865	-0,79
270,126	-4,48
270,387	-4,26
270,648	-2,77
270,909	-0,9
271,17	-1,25
271,43	-4,36
271,691	-6,41
271,952	-6,82
272,213	-3,71
272,473	-5,81
272,734	-6,15
272,995	-4,78
273,256	-3,92
273,516	-0,33
273,777	-4,03
274,038	-2
274,298	-5,01
274,559	-6,36
274,82	-1,89
275,08	-0,04
275,341	0,59
275,601	1,11
275,862	-1,47
276,122	-2,05
276,383	-1,8
276,643	-0,26
276,904	-1,65
277,164	1,9
277,425	2,61
277,685	6,21
277,946	5,76
278,206	7,66
278,467	9,23
278,727	9,16
278,987	7,64
279,248	7,47
279,508	8,78
279,768	9,9
280,029	11,49
280,289	8,55
280,549	7,04
280,81	7,38
281,07	7,28
281,33	8,2
281,59	7,73
281,851	10,35
282,111	9,17
282,371	9,11
282,631	11,21
282,891	8,93
283,151	7,62
283,412	6,78
283,672	6,03
283,932	5,77
284,192	8,38
284,452	6,73
284,712	5,84
284,972	4,12
285,232	1,22
285,492	3,08
285,752	0,84
286,012	5,27
286,272	7,54
286,532	5,45
286,792	5,7
287,052	8,56
287,312	7,5
287,571	5,71
287,831	6,36
288,091	4,07
288,351	3,94
288,611	7,85
288,871	7,93
289,13	7,28
289,39	3,1
289,65	3,3
289,91	1,54
290,17	3,23
290,429	5,59
290,689	3,81
290,949	2,11
291,208	4,37
291,468	6,18
291,728	7,62
291,987	10,78
292,247	7,74
292,506	10,45
292,766	12,01
293,026	10,87
293,285	12,32
293,545	13,81
293,804	14,94
294,064	12,75
294,323	8,91
294,583	10,33
294,842	10,38
295,102	9,39
295,361	10,87
295,621	12,13
295,88	11,9
296,139	12,06
296,399	12,25
296,658	6,78
296,917	5,84
297,177	4,47
297,436	6,64
297,695	4,83
297,955	5,81
298,214	4,61
298,473	6,28
298,732	8
298,992	11,57
299,251	9,92
299,51	6,67
299,769	7,22
300,028	6,55
300,287	8,12
300,547	8,09
300,806	6,47
301,065	9,91
301,324	11,09
301,583	9,39
301,842	6,59
302,101	5,28
302,36	6,73
302,619	5,54
302,878	7,33
303,137	5,88
303,396	6,35
303,655	9,33
303,914	8,65
304,173	8,19
304,432	8,25
304,691	12,12
304,95	10,57
305,208	13,79
305,467	13,36
305,726	13,12
305,985	13,37
306,244	14,72
306,503	13,54
306,761	12,6
307,02	9,99
307,279	10,05
307,537	10,98
307,796	7,93
308,055	6,75
308,314	7,3
308,572	5,89
308,831	7
309,09	6,91
309,348	7,48
309,607	7,27
309,865	10,1
310,124	9,21
310,382	11,4
310,641	12,83
310,9	10
311,158	10,75
311,417	10,54
311,675	9,63
311,933	8,57
312,192	9,76
312,45	9,46
312,709	9,37
312,967	9,54
313,226	9,63
313,484	9,52
313,742	8,63
314,001	7,38
314,259	4,91
314,517	6,31
314,776	8,12
315,034	9,52
315,292	7,33
315,55	5,47
315,809	5,73
316,067	5,55
316,325	3,95
316,583	5,54
316,841	4,21
317,1	2,83
317,358	-0,71
317,616	-1,4
317,874	-2,23
318,132	-2,41
318,39	-4,44
318,648	-5,77
318,906	-5,72
319,164	-5,79
319,422	-7,31
319,68	-9,25
319,938	-8,96
320,196	-7,77
320,454	-6,47
320,712	-7,31
320,97	-6,7
321,228	-8,35
321,486	-6,58
321,744	-5,65
322,002	-5,06
322,26	-5,24
322,517	-7,28
322,775	-10,78
323,033	-12,62
323,291	-9,12
323,549	-7,23
323,806	-6,43
324,064	-7,45
324,322	-6,19
324,58	-8,65
324,837	-6,47
325,095	-8,87
325,353	-7,61
325,61	-5,91
325,868	-8,07
326,126	-5,69
326,383	-6,88
326,641	-7,62
326,898	-6,13
327,156	-5,63
327,413	-4,63
327,671	-4,04
327,928	-1,9
328,186	-2,76
328,443	-2,45
328,701	1,47
328,958	1,77
329,216	2,53
329,473	0,46
329,731	0,68
329,988	0,84
330,245	2,62
330,503	3,46
330,76	4,51
331,017	7,6
331,275	4,73
331,532	4,69
331,789	2,66
332,047	2,71
332,304	0,09
332,561	1,75
332,818	0,24
333,076	2,67
333,333	4,49
333,59	4,11
333,847	6,03
334,104	4,33
334,361	4,73
334,618	4,13
334,876	2,42
335,133	1,93
335,39	0,37
335,647	1,63
335,904	-2,46
336,161	-2,85
336,418	-2,86
336,675	-8,04
336,932	-6,97
337,189	-7,54
337,446	-7,23
337,703	-7,51
337,96	-11,06
338,216	-11,47
338,473	-12,87
338,73	-12,24
338,987	-12,49
339,244	-9,57
339,501	-11,73
339,757	-9,8
340,014	-8,52
340,271	-6,63
340,528	-6,94
340,785	-3,14
341,041	-3,03
341,298	-5,27
341,555	-4,89
341,811	-4,52
342,068	-6,15
342,325	-5,51
342,581	-3,08
342,838	-2,21
343,094	-2,41
343,351	-2,69
343,608	-3,54
343,864	-0,53
344,121	-0,15
344,377	-1,19
344,634	0,04
344,89	-0,81
345,147	-1,1
345,403	-1,11
345,66	-0,81
345,916	2,25
346,172	1,91
346,429	1,24
346,685	-0,23
346,942	-1,01
347,198	-4,11
347,454	-2
347,711	-2,89
347,967	-5,17
348,223	-4,86
348,48	-4,62
348,736	-2,24
348,992	-2,4
349,248	-0,09
349,504	-0,59
349,761	-1,03
350,017	-0,14
350,273	-0,65
350,529	-0,86
350,785	-1,07
351,041	-1,5
351,297	1,13
351,554	-0,59
351,81	-1,96
352,066	-3,2
352,322	-2,1
352,578	-2,02
352,834	-2,66
353,09	-3,34
353,346	-2,92
353,602	-4,48
353,858	-6,09
354,114	-7,77
354,369	-6,24
354,625	-5,63
354,881	-7,04
355,137	-5,3
355,393	-6,96
355,649	-6,68
355,905	-6,53
356,16	-6,71
356,416	-6,41
356,672	-12,39
356,928	-12,29
357,183	-13,4
357,439	-12,93
357,695	-14,04
357,951	-10,42
358,206	-11,35
358,462	-13,01
358,718	-15,23
358,973	-13,96
359,229	-13,91
359,484	-12,66
359,74	-9,36
359,996	-9,54
360,251	-9,06
360,507	-9,11
360,762	-9,11
361,018	-6,36
361,273	-8,49
361,529	-8,09
361,784	-7,72
362,04	-5,64
362,295	-7,67
362,55	-6,49
362,806	-5,21
363,061	-4,57
363,316	-3,27
363,572	-2,59
363,827	-1,18
364,082	-3,93
364,338	-4,54
364,593	-4,31
364,848	-2,5
365,104	-3,77
365,359	-1,6
365,614	-2,08
365,869	-5,32
366,124	-4,28
366,38	-5,32
366,635	-3,14
366,89	-2,34
367,145	-3,46
367,4	-0,79
367,655	-2,65
367,91	-1,46
368,165	-2,23
368,42	-3,78
368,675	-3,15
368,93	-2,85
369,185	-5,49
369,44	-3,78
369,695	-1,09
369,95	-0,93
370,205	-0,26
370,46	-1,2
370,715	-0,12
370,97	1,11
371,225	2,14
371,48	3,86
371,734	4,78
371,989	6,31
372,244	6,35
372,499	8,56
372,754	6,02
373,008	4,67
373,263	0,08
373,518	2,32
373,773	1,46
374,027	0,79
374,282	4,54
374,537	5,12
374,791	5,76
375,046	5,27
375,301	3,46
375,555	1,96
375,81	2,5
376,064	3,37
376,319	6,22
376,573	5,03
376,828	1,28
377,082	6,16
377,337	3,7
377,591	1,07
377,846	1,47
378,1	3,03
378,355	3,28
378,609	1,88
378,863	-1,59
379,118	-1,19
379,372	-2,9
379,627	-4,27
379,881	-5,32
380,135	-5,27
380,389	-6,15
380,644	-5,06
380,898	-4,34
381,152	-2,92
381,407	-2,82
381,661	-0,02
381,915	1,93
382,169	0,72
382,423	0,1
382,677	-3,57
382,932	-2,6
383,186	-1,02
383,44	0,12
383,694	1,32
383,948	-2,1
384,202	-3,87
384,456	-2,08
384,71	-0,62
384,964	-1,04
385,218	1,25
385,472	2,7
385,726	1,2
385,98	0,11
386,234	0,82
386,488	-1,48
386,742	-0,38
386,996	-1,29
387,249	-1,14
387,503	-0,08
387,757	1,62
388,011	2,54
388,265	3,28
388,518	4,46
388,772	8,04
389,026	8,85
389,28	6,93
389,533	4,76
389,787	6,37
390,041	5,42
390,295	5,5
390,548	5,43
390,802	7,86
391,055	6,42
391,309	5,61
391,563	5,08
391,816	8,23
392,07	7,95
392,323	8,9
392,577	9,92
392,83	10,23
393,084	14,87
393,337	16,78
393,591	18,37
393,844	20,08
394,098	21,33
394,351	25
394,604	26,47
394,858	26,89
395,111	28,01
395,364	26,42
395,618	26,75
395,871	24,92
396,124	24
396,378	22,4
396,631	21,02
396,884	19,39
397,137	19,44
397,391	20,36
397,644	17,46
397,897	16,99
398,15	17,8
398,403	21,1
398,657	20,6
398,91	20,52
399,163	20,68
399,416	20,67
399,669	18,3
399,922	16,97
400,175	15,58
400,428	15
400,681	14,5
400,934	10,94
401,187	9,72
401,44	7,95
401,693	5,93
401,946	5,18
402,199	1,41
402,452	0,82
402,704	-2,58
402,957	-3,76
403,21	-1,98
403,463	-1,72
403,716	-0,08
403,969	0,86
404,221	0,19
404,474	1,64
404,727	5,37
404,98	8,01
405,232	7,92
405,485	9
405,738	11,72
405,99	11,65
406,243	12,4
406,496	12,92
406,748	12,18
407,001	12,21
407,253	12,05
407,506	12,89
407,759	14,5
408,011	12,32
408,264	12,06
408,516	13,34
408,769	10,63
409,021	12,24
409,274	12,66
409,526	15,22
409,778	14,13
410,031	16,99
410,283	17
410,536	21,69
410,788	20,81
411,04	20,4
411,293	20,91
411,545	20,68
411,797	19,23
412,049	19,53
412,302	19,31
412,554	20,31
412,806	17,77
413,058	16,34
413,311	16,78
413,563	15,3
413,815	15,26
414,067	13,56
414,319	10,62
414,571	10,86
414,823	9,3
415,075	8,27
415,328	9,33
415,58	11,26
415,832	12,69
416,084	14,05
416,336	12,03
416,588	15,63
416,84	13,29
417,091	16,69
417,343	13,81
417,595	15,73
417,847	15,89
418,099	17,07
418,351	16,82
418,603	19,38
418,855	20,82
419,106	21,53
419,358	22,28
419,61	24,05
419,862	25,04
420,114	23,23
420,365	20,99
420,617	22,24
420,869	21,76
421,12	22,07
421,372	23
421,624	22,64
421,875	22,06
422,127	21,97
422,379	22,57
422,63	25,98
422,882	24,99
423,133	25,47
423,385	25,48
423,636	26,56
423,888	27,48
424,139	30,28
424,391	28,34
424,642	27,2
424,894	24,69
425,145	24,32
425,396	22,33
425,648	24,73
425,899	22,23
426,151	22,64
426,402	21,2
426,653	21,18
426,905	19,54
427,156	18,01
427,407	16,44
427,658	15,85
427,91	15,57
428,161	14,34
428,412	16,96
428,663	17,94
428,914	18,42
429,166	19,7
429,417	20,09
429,668	19,41
429,919	16,87
430,17	16,57
430,421	17,17
430,672	19,95
430,923	19,62
431,174	18,1
431,425	18,75
431,676	18,79
431,927	15,66
432,178	17,09
432,429	17,29
432,68	17,85
432,931	20,44
433,182	21,93
433,433	19,57
433,683	21,78
433,934	21,7
434,185	21,56
434,436	20,7
434,687	22,36
434,937	24,35
435,188	23,08
435,439	22,76
435,69	24,43
435,94	24,6
436,191	24,62
436,442	25,44
436,692	24,69
436,943	22,56
437,194	22,16
437,444	24,55
437,695	28,42
437,945	29,72
438,196	28,67
438,447	28,22
438,697	27,94
438,948	28,42
439,198	26,29
439,449	23,74
439,699	25,95
439,949	25,53
440,2	25,16
440,45	26,95
440,701	26,41
440,951	26,59
441,201	27,57
441,452	27,33
441,702	27,65
441,952	28,49
442,203	28,58
442,453	28,04
442,703	28,49
442,953	30,07
443,204	32,92
443,454	31,66
443,704	33,17
443,954	29,96
444,204	30,65
444,455	31,54
444,705	33,33
444,955	33,78
445,205	33,08
445,455	32,1
445,705	33,81
445,955	33,81
446,205	34,34
446,455	35,14
446,705	36,78
446,955	38,08
447,205	40,66
447,455	42,62
447,705	42,47
447,955	42,92
448,205	43,88
448,454	44,98
448,704	47,65
448,954	46,77
449,204	47,41
449,454	45,82
449,704	45,88
449,953	47,09
450,203	48,27
450,453	47,39
450,703	50,41
450,952	50,15
451,202	52,18
451,452	52,47
451,701	55,98
451,951	60,05
452,201	60,95
452,45	59,57
452,7	60,58
452,949	61,87
453,199	62
453,448	63,11
453,698	64,43
453,947	63,31
454,197	64,47
454,446	63,11
454,696	65,96
454,945	65,44
455,195	64,14
455,444	65,69
455,693	67,64
455,943	65,49
456,192	65,6
456,442	64,46
456,691	65,79
456,94	64,83
457,189	65,63
457,439	68,61
457,688	69,05
457,937	69,89
458,186	71,01
458,436	69,89
458,685	70,36
458,934	69,17
459,183	68,57
459,432	70,42
459,681	69,56
459,93	68,21
460,179	69,15
460,429	67,7
460,678	69,66
460,927	72,55
461,176	69,76
461,425	69,73
461,674	71,57
461,923	71,24
462,172	71,29
462,42	69,58
462,669	70,31
462,918	68,91
463,167	66,81
463,416	65,92
463,665	66,35
463,914	67,97
464,162	66,8
464,411	67,48
464,66	69,08
464,909	67,31
465,158	65,33
465,406	64,63
465,655	64,51
465,904	65,8
466,152	65,69
466,401	64,38
466,65	65,62
466,898	63,15
467,147	60,01
467,395	58,96
467,644	61,01
467,893	60,12
468,141	60,38
468,39	57,86
468,638	54,86
468,887	53,72
469,135	53,07
469,384	53,96
469,632	53,52
469,88	53,04
470,129	54,19
470,377	52,03
470,626	55,55
470,874	58,47
471,122	59,98
471,371	59,44
471,619	57,52
471,867	58,9
472,115	57,61
472,364	55,76
472,612	58,99
472,86	57,03
473,108	57,54
473,356	58,56
473,605	56,86
473,853	54,49
474,101	54,95
474,349	53,16
474,597	57,53
474,845	56,66
475,093	55,46
475,341	53,12
475,589	53,93
475,837	55,38
476,085	55,87
476,333	55,23
476,581	57,29
476,829	56,57
477,077	57,14
477,325	57,42
477,573	59,06
477,821	57,54
478,069	58,97
478,317	58,46
478,564	58,9
478,812	56,98
479,06	55,34
479,308	54,69
479,555	54,34
479,803	53,68
480,051	56,4
480,299	55,27
480,546	57,12
480,794	55,01
481,042	55,31
481,289	53,37
481,537	56,63
481,784	55,7
482,032	59,14
482,28	58,54
482,527	57,91
482,775	58,89
483,022	60,24
483,27	61,71
483,517	64,14
483,765	64,12
484,012	64,38
484,259	63,09
484,507	66,44
484,754	67,73
485,002	67,78
485,249	66,8
485,496	70
485,744	70,71
485,991	69,76
486,238	68,76
486,486	72,23
486,733	73,9
486,98	75,18
487,227	74,92
487,474	77,61
487,722	78,78
487,969	78,89
488,216	79,22
488,463	81,01
488,71	79,38
488,957	81,44
489,204	81,83
489,451	82,86
489,699	82,65
489,946	80,73
490,193	81,73
490,44	80,77
490,687	82,93
490,934	81,18
491,18	78,62
491,427	80,83
491,674	84,67
491,921	85,72
492,168	84,38
492,415	82
492,662	84,54
492,909	87,53
493,155	86,87
493,402	85,75
493,649	85,9
493,896	87,51
494,142	86,18
494,389	86,6
494,636	86,86
494,883	86,62
495,129	84,94
495,376	85,01
495,623	86,92
495,869	90,15
496,116	92,49
496,362	94,62
496,609	97,62
496,855	102,05
497,102	104,33
497,348	104,98
497,595	106,83
497,841	111,85
498,088	112,53
498,334	113,48
498,581	114,39
498,827	117,5
499,074	119,82
499,32	123,72
499,566	128,87
499,813	131,34
500,059	131,97
500,305	131,37
500,552	132,3
500,798	134,74
501,044	140,02
501,29	140,9
501,537	139,56
501,783	143,95
502,029	148,31
502,275	149,18
502,521	150,28
502,767	153,88
503,013	157,06
503,26	156,08
503,506	154,63
503,752	157,13
503,998	157,63
504,244	160,79
504,49	160,3
504,736	162,23
504,982	163,46
505,228	168,54
505,474	169,91
505,72	173,53
505,966	173,19
506,211	177,33
506,457	178,03
506,703	176,73
506,949	174,33
507,195	174,18
507,441	172,46
507,686	177,95
507,932	181,27
508,178	184,52
508,424	183,08
508,669	183,32
508,915	185,6
509,161	190,49
509,406	192,2
509,652	193,5
509,898	197,77
510,143	200,86
510,389	203,23
510,634	201,64
510,88	206,64
511,125	210,9
511,371	212,49
511,616	215,02
511,862	213,23
512,107	212,49
512,353	215,19
512,598	217,69
512,844	216,72
513,089	216,4
513,335	219,61
513,58	221,26
513,825	222,81
514,071	224,02
514,316	225,98
514,561	228,15
514,806	228,55
515,052	233,3
515,297	232,78
515,542	234,68
515,787	235,7
516,033	239,82
516,278	240,76
516,523	241,29
516,768	241,19
517,013	240,32
517,258	240,97
517,503	241,4
517,748	242,66
517,993	242,49
518,238	244,59
518,483	244,9
518,728	244,82
518,973	245,33
519,218	245,55
519,463	247,76
519,708	248,27
519,953	248,17
520,198	248,6
520,443	251,89
520,688	255,92
520,933	255,07
521,177	255,93
521,422	256,56
521,667	260,74
521,912	262,36
522,157	261,82
522,401	266,17
522,646	266,41
522,891	268
523,135	268,86
523,38	271,79
523,625	271,93
523,869	274,98
524,114	276,23
524,358	277,6
524,603	277,86
524,848	277,49
525,092	277,9
525,337	280,31
525,581	282,59
525,826	283,99
526,07	284,48
526,315	286,79
526,559	286,44
526,803	286,33
527,048	289,41
527,292	291,28
527,537	292,85
527,781	294,35
528,025	292,52
528,269	293,58
528,514	295,26
528,758	295,48
529,002	294,84
529,247	297,15
529,491	296,37
529,735	298,73
529,979	297,43
530,223	298,58
530,467	296,72
530,712	296,17
530,956	294,15
531,2	294,58
531,444	292,59
531,688	295,19
531,932	294,34
532,176	295,82
532,42	296,65
532,664	298,55
532,908	297
533,152	295,13
533,396	295,73
533,64	296,02
533,884	293,92
534,128	293,85
534,371	296,22
534,615	296,38
534,859	294,87
535,103	293,24
535,347	292,85
535,59	293,76
535,834	290,57
536,078	291,01
536,322	292,79
536,565	296,97
536,809	294,41
537,053	296,07
537,296	295,13
537,54	295,39
537,784	294,82
538,027	296,73
538,271	295,71
538,514	294,74
538,758	294,84
539,001	294,66
539,245	294,02
539,488	294,81
539,732	295,57
539,975	295,72
540,219	297,14
540,462	297,8
540,706	300,55
540,949	299,92
541,192	301,3
541,436	305,8
541,679	309,69
541,922	309,64
542,166	308,07
542,409	308,04
542,652	308,95
542,895	309,48
543,139	308,76
543,382	312,96
543,625	312,73
543,868	311,81
544,111	309,28
544,354	307,67
544,598	305,5
544,841	306,7
545,084	304,37
545,327	304,31
545,57	305,03
545,813	305,97
546,056	304,82
546,299	305,8
546,542	307,13
546,785	308,16
547,028	307,93
547,271	306,52
547,514	305,87
547,756	302,54
547,999	302,04
548,242	301,13
548,485	298,78
548,728	297,24
548,971	292,76
549,213	292,25
549,456	290,51
549,699	289,02
549,942	289,71
550,184	288,67
550,427	288,38
550,67	289,73
550,912	284,25
551,155	285,37
551,398	285,49
551,64	284,31
551,883	284,26
552,125	284,25
552,368	283,94
552,61	281,75
552,853	281,77
553,095	280,01
553,338	282
553,58	282,51
553,823	279,84
554,065	281,02
554,308	278,2
554,55	276,92
554,792	275,6
555,035	275,68
555,277	274,82
555,519	275,55
555,762	272,93
556,004	273,07
556,246	270,47
556,488	271,2
556,731	267,49
556,973	268,23
557,215	266,99
557,457	267,36
557,699	269,03
557,941	266,2
558,183	264,58
558,426	267,45
558,668	262,06
558,91	261,87
559,152	261,39
559,394	260,25
559,636	261,78
559,878	261,52
560,12	261,33
560,362	262,88
560,604	262,12
560,845	259,63
561,087	258,86
561,329	260,24
561,571	256,62
561,813	255,8
562,055	253,68
562,297	253,46
562,538	253,73
562,78	256,74
563,022	253,36
563,264	255,97
563,505	256,91
563,747	256,79
563,989	254,48
564,23	254,46
564,472	252,86
564,714	255,3
564,955	255,36
565,197	252
565,438	253,7
565,68	256,66
565,921	254,31
566,163	256,59
566,404	255,01
566,646	257,69
566,887	259,75
567,129	259,93
567,37	258,26
567,612	260,51
567,853	258,07
568,094	259,38
568,336	259,18
568,577	260,48
568,818	260,56
569,06	260,33
569,301	260,48
569,542	261,1
569,783	262,28
570,025	262,27
570,266	260,48
570,507	261,81
570,748	260,53
570,989	260,56
571,23	263,26
571,472	263,32
571,713	262,99
571,954	264,36
572,195	261,86
572,436	262,53
572,677	263,69
572,918	264,43
573,159	260,85
573,4	258,59
573,641	257,65
573,882	257,71
574,123	254,64
574,364	248,85
574,604	248,69
574,845	247,01
575,086	246,83
575,327	246,33
575,568	243,68
575,809	240,67
576,049	237,95
576,29	235,73
576,531	237,94
576,771	239,98
577,012	242,23
577,253	242,84
577,494	240,73
577,734	240,48
577,975	241,1
578,215	238,22
578,456	236,13
578,697	235,48
578,937	236,71
579,178	234,23
579,418	231,77
579,659	231,08
579,899	227,22
580,14	226,01
580,38	224,97
580,62	224,2
580,861	227,99
581,101	226,79
581,342	226,77
581,582	222,64
581,822	225,17
582,063	223,15
582,303	223,46
582,543	222,52
582,783	222,52
583,024	222,28
583,264	224,02
583,504	221,62
583,744	221,84
583,984	219,09
584,224	216,96
584,465	213,12
584,705	210,83
584,945	211,25
585,185	208,99
585,425	208,24
585,665	209,18
585,905	207,29
586,145	204,82
586,385	201,45
586,625	203,19
586,865	201,7
587,105	201,1
587,345	201,44
587,585	201,78
587,824	198,68
588,064	197,84
588,304	192,75
588,544	192,24
588,784	189,46
589,024	190,16
589,263	187,95
589,503	185,76
589,743	187,81
589,982	186,62
590,222	186,13
590,462	184,91
590,701	181,92
590,941	184,77
591,181	182,52
591,42	181,05
591,66	182,53
591,899	185,8
592,139	185,06
592,378	182,96
592,618	181,31
592,857	180,07
593,097	178,95
593,336	179,49
593,576	178,45
593,815	178,48
594,055	177,89
594,294	178,35
594,533	177,24
594,773	175,54
595,012	175,17
595,251	175,6
595,491	177,37
595,73	179,49
595,969	180,54
596,208	181,07
596,447	185,11
596,687	185,93
596,926	185,89
597,165	181,34
597,404	181,25
597,643	177,88
597,882	176,06
598,121	177,64
598,36	177,67
598,599	178,93
598,838	178,6
599,077	174,52
599,316	174,14
599,555	173,46
599,794	174,62
600,033	176,46
600,272	175,93
600,511	173,14
600,75	173,24
600,989	174,22
601,228	174,02
601,466	171,51
601,705	170,9
601,944	171,39
602,183	173,29
602,422	171,26
602,66	169,7
602,899	167,81
603,138	166,51
603,376	165,65
603,615	165,38
603,854	163,26
604,092	163,13
604,331	163,67
604,569	164,46
604,808	163,2
605,047	166,01
605,285	165,58
605,524	162,72
605,762	160,2
606	161,36
606,239	161,42
606,477	160,89
606,716	155,9
606,954	153,14
607,193	148,84
607,431	144,45
607,669	142,45
607,908	142,82
608,146	143,94
608,384	142,83
608,622	141,72
608,861	141,19
609,099	140,19
609,337	138,52
609,575	137,75
609,813	139,78
610,052	139,46
610,29	134,11
610,528	131,8
610,766	129,75
611,004	128,73
611,242	126,07
611,48	124,97
611,718	122,09
611,956	121,05
612,194	119,55
612,432	117,05
612,67	115,27
612,908	116,84
613,146	112,92
613,384	109,96
613,621	109,02
613,859	108,9
614,097	107,95
614,335	108,94
614,573	111,34
614,811	112,73
615,048	112,72
615,286	112,07
615,524	110,18
615,761	106,82
615,999	107,05
616,237	107,29
616,474	108,25
616,712	107,86
616,95	105,3
617,187	103,07
617,425	102,56
617,662	105,81
617,9	105,17
618,137	102,38
618,375	100,28
618,612	97,97
618,85	98,87
619,087	101,7
619,325	101,08
619,562	99,3
619,799	98,34
620,037	97,34
620,274	96,22
620,511	99,81
620,749	97,87
620,986	95,02
621,223	93,56
621,461	93,42
621,698	93,33
621,935	91,18
622,172	89,86
622,409	90,26
622,647	89,72
622,884	88,33
623,121	89,8
623,358	87,71
623,595	87,08
623,832	85,85
624,069	84,34
624,306	85,08
624,543	85,25
624,78	85,26
625,017	84,37
625,254	85,91
625,491	88,51
625,728	90,74
625,965	91,18
626,202	88,95
626,438	86,9
626,675	86,9
626,912	87,79
627,149	88,41
627,386	88,99
627,622	87,61
627,859	85,34
628,096	85,82
628,333	86,59
628,569	86,39
628,806	86,64
629,043	86,43
629,279	87,84
629,516	87,99
629,752	85
629,989	85,24
630,225	82,54
630,462	82,12
630,699	81,61
630,935	81,88
631,171	79,49
631,408	79,32
631,644	77,29
631,881	74,15
632,117	72,65
632,354	72,58
632,59	70,4
632,826	68,52
633,063	66,76
633,299	68
633,535	66,57
633,771	65,02
634,008	64,91
634,244	64,67
634,48	62,39
634,716	64,21
634,953	63,54
635,189	63,06
635,425	64,01
635,661	64,86
635,897	63,44
636,133	63,95
636,369	62,23
636,605	57,84
636,841	57,91
637,077	58,88
637,313	58,54
637,549	59,38
637,785	58,36
638,021	58,14
638,257	56,14
638,493	58,22
638,729	57,02
638,965	59,08
639,2	59,36
639,436	58,36
639,672	57,44
639,908	56,28
640,144	59,47
640,379	61,66
640,615	60,13
640,851	62,62
641,086	63,69
641,322	62,16
641,558	61,83
641,793	62,46
642,029	58,88
642,264	57,97
642,5	57,63
642,736	54,47
642,971	55,44
643,207	55,25
643,442	53,24
643,678	54,49
643,913	56,47
644,148	53,97
644,384	55,29
644,619	54,96
644,855	55,27
645,09	55,81
645,325	56,28
645,561	56,22
645,796	54
646,031	55,9
646,266	55,56
646,502	55
646,737	58,24
646,972	57,93
647,207	56,89
647,442	53,53
647,678	51,58
647,913	52,52
648,148	52
648,383	49,68
648,618	51
648,853	50,87
649,088	52,41
649,323	55,87
649,558	56,4
649,793	57,26
650,028	57,33
650,263	53,61
650,498	54,9
650,733	54,76
650,968	52,13
651,202	53,23
651,437	52,99
651,672	50,17
651,907	48,46
652,142	48,68
652,376	48,05
652,611	48,28
652,846	50,38
653,081	50,6
653,315	49,54
653,55	48,49
653,785	47,43
654,019	46,75
654,254	45,81
654,488	47,93
654,723	46,06
654,958	43,37
655,192	40,85
655,427	38
655,661	38,75
655,896	39,81
656,13	41,52
656,364	38,55
656,599	35,05
656,833	37,97
657,068	40,19
657,302	40,38
657,536	40,67
657,771	41,57
658,005	41,86
658,239	44,27
658,474	42,11
658,708	41,94
658,942	42,77
659,176	41,51
659,41	40,36
659,645	40,28
659,879	39,7
660,113	34,57
660,347	33,05
660,581	30,66
660,815	29,89
661,049	29,64
661,283	26,3
661,517	24,05
661,751	22,64
661,985	21,56
662,219	22
662,453	21,37
662,687	22,34
662,921	20,14
663,155	19,83
663,389	13,87
663,622	11,04
663,856	13,16
664,09	9,31
664,324	7,84
664,558	7,51
664,791	5,5
665,025	3,64
665,259	3,13
665,492	0,85
665,726	2,29
665,96	3,71
666,193	2,09
666,427	3,61
666,661	1,29
666,894	0,6
667,128	-0,69
667,361	1,71
667,595	2,24
667,828	3,83
668,062	2,34
668,295	2,67
668,529	4,35
668,762	5,9
668,995	5,07
669,229	9,06
669,462	10,1
669,695	11,69
669,929	10,83
670,162	11,53
670,395	9,67
670,629	12,27
670,862	15,31
671,095	11,73
671,328	13,01
671,561	9,43
671,795	10,05
672,028	11,31
672,261	12,31
672,494	14,6
672,727	13,86
672,96	15
673,193	13,78
673,426	16,7
673,659	16,45
673,892	17,23
674,125	16,38
674,358	16,11
674,591	14,83
674,824	13,29
675,057	11,97
675,29	11,04
675,523	12,1
675,755	11,83
675,988	12,44
676,221	15,68
676,454	14,08
676,687	15,42
676,919	14,15
677,152	14,23
677,385	14,5
677,617	14,54
677,85	15,22
678,083	14,57
678,315	18,04
678,548	15,65
678,78	15,73
679,013	15,67
679,246	17,87
679,478	17,01
679,711	14,62
679,943	17,34
680,175	14,53
680,408	17,18
680,64	13,86
680,873	15,02
681,105	16,13
681,338	20,39
681,57	21,01
681,802	22,71
682,034	23,34
682,267	26,49
682,499	27,66
682,731	24,93
682,964	23,57
683,196	20,95
683,428	17,58
683,66	16,92
683,892	18,03
684,124	19,44
684,356	20,08
684,589	20,57
684,821	18,47
685,053	18,14
685,285	18,51
685,517	18,81
685,749	20,43
685,981	22,56
686,213	22,14
686,445	21,14
686,676	19,4
686,908	20,19
687,14	17,98
687,372	18,12
687,604	15,36
687,836	16,37
688,068	15,91
688,299	15,96
688,531	12,26
688,763	15,1
688,995	13,37
689,226	16,25
689,458	13,36
689,69	11,97
689,921	13,09
690,153	13,28
690,384	15,57
690,616	15,77
690,848	16,03
691,079	14,25
691,311	12,01
691,542	11,14
691,774	8,97
692,005	11,92
692,237	15,09
692,468	13,09
692,699	12,95
692,931	11,63
693,162	8,1
693,393	7,34
693,625	5,73
693,856	7,02
694,087	7,11
694,319	7,65
694,55	7,81
694,781	7,71
695,012	8,2
695,243	6,66
695,475	5,43
695,706	5,83
695,937	5,55
696,168	5,29
696,399	3,21
696,63	3,08
696,861	4,38
697,092	7,69
697,323	10,37
697,554	10,02
697,785	9,4
698,016	9,71
698,247	7,84
698,478	9,57
698,709	11,19
698,94	13,07
699,171	12,38
699,401	8,83
699,632	11,32
699,863	7,84
700,094	8,09
700,325	11,66
700,555	12,81
700,786	13,62
701,017	13,15
701,247	13,15
701,478	13,9
701,709	13,43
701,939	12,23
702,17	14,25
702,401	16,35
702,631	18,36
702,862	16,89
703,092	12,98
703,323	14,56
703,553	15,15
703,784	15,89
704,014	16,92
704,244	13,48
704,475	11,61
704,705	11,34
704,936	12,05
705,166	11,04
705,396	12,99
705,627	13,27
705,857	12,79
706,087	12,57
706,317	11,22
706,548	9,67
706,778	7,7
707,008	8,88
707,238	9,92
707,468	8,46
707,698	7,15
707,928	6,46
708,158	6,11
708,389	4,73
708,619	3,8
708,849	3,87
709,079	5,15
709,309	1,12
709,539	-1,01
709,768	-1,97
709,998	-0,06
710,228	1,31
710,458	0,61
710,688	-0,86
710,918	-0,74
711,148	-1,96
711,378	-1,8
711,607	-2,69
711,837	-1,13
712,067	-0,22
712,297	-0,36
712,526	-1,6
712,756	-0,42
712,986	-2,85
713,215	-3,98
713,445	-3,67
713,674	-2,12
713,904	-1,74
714,134	0,55
714,363	0,03
714,593	-0,62
714,822	-0,58
715,052	-0,32
715,281	0,39
715,511	-0,59
715,74	-1,73
715,969	-2,86
716,199	-3,81
716,428	-1,91
716,657	-1,71
716,887	0,21
717,116	-2,02
717,345	-1,27
717,575	-1,26
717,804	-0,32
718,033	-1,65
718,262	-2,16
718,492	-1,46
718,721	-0,81
718,95	-1,77
719,179	-3,84
719,408	-4,01
719,637	-6,67
719,866	-8,15
720,095	-6,26
720,324	-7,04
720,553	-9,72
720,782	-11,89
721,011	-11,11
721,24	-13,09
721,469	-13,44
721,698	-13,31
721,927	-13,69
722,156	-13,95
722,385	-15,24
722,613	-12,54
722,842	-12,15
723,071	-9,44
723,3	-7,36
723,529	-8,5
723,757	-7,5
723,986	-10,78
724,215	-11,9
724,443	-11,37
724,672	-9,45
724,901	-9,81
725,129	-8,11
725,358	-6,17
725,586	-9,38
725,815	-10,09
726,043	-10,95
726,272	-12,31
726,5	-12,21
726,729	-10,61
726,957	-13,3
727,186	-16,03
727,414	-13,75
727,642	-11,75
727,871	-10,02
728,099	-10,85
728,327	-11,27
728,556	-9,83
728,784	-10,2
729,012	-11,26
729,241	-9
729,469	-8,04
729,697	-10,57
729,925	-8,95
730,153	-10,34
730,381	-10,52
730,61	-9,53
730,838	-12,28
731,066	-10,4
731,294	-8,05
731,522	-10,65
731,75	-14,08
731,978	-13,68
732,206	-15
732,434	-16,42
732,662	-14,43
732,89	-16,7
733,118	-17,61
733,346	-17,22
733,573	-15,89
733,801	-16,91
734,029	-11,69
734,257	-9,44
734,485	-7,46
734,712	-6,17
734,94	-7,76
735,168	-5,79
735,396	-4,17
735,623	-5,63
735,851	-4,99
736,078	-4,18
736,306	-4,54
736,534	-4,64
736,761	-3,79
736,989	-6,18
737,216	-6,39
737,444	-8,2
737,671	-8,51
737,899	-4,69
738,126	-6,3
738,354	-6,71
738,581	-4,37
738,809	-3,37
739,036	-4,52
739,263	-4,14
739,491	-5,81
739,718	-4,64
739,945	2,08
740,173	3,88
740,4	3,36
740,627	0,39
740,854	0,78
741,081	-1,89
741,309	-3,37
741,536	-6,44
741,763	-6,47
741,99	-3,63
742,217	-3,91
742,444	-4,84
742,671	-4,53
742,898	-3,27
743,125	-5,18
743,352	-8,05
743,579	-9,87
743,806	-9,52
744,033	-7,79
744,26	-7,49
744,487	-8,14
744,714	-7,91
744,941	-7,4
745,167	-5,32
745,394	-6,8
745,621	-7,62
745,848	-8,76
746,075	-7,36
746,301	-3,7
746,528	0,16
746,755	-1,91
746,981	-4,83
747,208	-3,62
747,435	-0,79
747,661	1,16
747,888	2,99
748,114	1,99
748,341	4,33
748,567	5,26
748,794	2,61
749,02	-0,13
749,247	-1,02
749,473	-2,69
749,7	-2,95
749,926	-4,26
750,152	0,26
750,379	0,31
750,605	1,53
750,831	1,15
751,058	0,44
751,284	-0,05
751,51	3,1
751,737	4,31
751,963	2,62
752,189	1,9
752,415	1,62
752,641	-0,43
752,867	0,97
753,094	-1,29
753,32	-3,74
753,546	-4,88
753,772	-2,73
753,998	-3,49
754,224	-3,45
754,45	-3,48
754,676	-3,33
754,902	-5,05
755,128	-5,33
755,354	-6,24
755,579	-5,17
755,805	-3,23
756,031	-4,02
756,257	-4,7
756,483	-3,96
756,709	-4,96
756,934	-4,93
757,16	-8,06
757,386	-6,65
757,612	-8,47
757,837	-9,64
758,063	-7,39
758,289	-5,73
758,514	-8,27
758,74	-11,58
758,965	-15,39
759,191	-13,42
759,416	-12,52
759,642	-9,89
759,868	-9,65
760,093	-5,73
760,318	-7,96
760,544	-8,43
760,769	-9,75
760,995	-10,98
761,22	-12,52
761,445	-11,42
761,671	-10,56
761,896	-6,87
762,121	-6,34
762,347	-6,68
762,572	-8,17
762,797	-9,21
763,022	-8,88
763,248	-5,18
763,473	-5,35
763,698	-4,66
763,923	-4,19
764,148	-4,02
764,373	-5,51
764,598	-2,76
764,823	-1,57
765,048	-4,87
765,273	-7,41
765,498	-7,94
765,723	-7,76
765,948	-4,74
766,173	-5,92
766,398	-5,47
766,623	-7,59
766,848	-8,25
767,073	-10,02
767,298	-8,73
767,522	-9,4
767,747	-8,06
767,972	-7,3
768,197	-5,7
768,421	-7,3
768,646	-9,49
768,871	-13,15
769,095	-12,22
769,32	-11,71
769,545	-12,22
769,769	-9,51
769,994	-7,89
770,218	-11,69
770,443	-8,68
770,667	-8,62
770,892	-8,19
771,116	-8,27
771,341	-6,01
771,565	-7,18
771,79	-6,59
772,014	-5,64
772,238	-6,11
772,463	-3,42
772,687	-2,07
772,911	-2,29
773,136	-3,97
773,36	-2,62
773,584	-1,02
773,808	-2,29
774,033	-3,57
774,257	-4,32
774,481	-5,43
774,705	-7,18
774,929	-6,56
775,153	-6,94
775,377	-6,08
775,602	-6,39
775,826	-4,2
776,05	-2,92
776,274	-3,57
776,498	-3,44
776,722	-5,08
776,945	-4,38
777,169	-2,99
777,393	-5,59
777,617	-5,29
777,841	-3,71
778,065	-2,89
778,289	-5,73
778,512	-5,21
778,736	-3,91
778,96	-4,14
779,184	-2,69
779,407	-5,32
779,631	-6,71
779,855	-9,62
780,078	-9,06
780,302	-11,26
780,526	-13,5
780,749	-12,4
780,973	-12,1
781,196	-11,75
781,42	-11,51
781,643	-9,99
781,867	-10,03
782,09	-11,34
782,314	-12,59
782,537	-12,43
782,76	-12,58
782,984	-12,82
783,207	-13,73
783,431	-14,01
783,654	-16,18
783,877	-18,63
784,1	-20,87
784,324	-21,1
784,547	-21,87
784,77	-25,69
784,993	-26,31
785,216	-25,28
785,44	-25,31
785,663	-27,91
785,886	-26,27
786,109	-27,48
786,332	-26,33
786,555	-24,33
786,778	-21,52
787,001	-19,25
787,224	-17,88
787,447	-15,82
787,67	-15,55
787,893	-13,85
788,116	-13,27
788,339	-12,52
788,561	-13,5
788,784	-16,89
789,007	-18,94
789,23	-18,27
789,453	-17,21
789,675	-20,71
789,898	-21,84
790,121	-22,62
790,344	-22,12
790,566	-19,92
790,789	-19,69
791,012	-18,15
791,234	-15,84
791,457	-12,47
791,679	-12,03
791,902	-12,15
792,124	-12,33
792,347	-14,3
792,569	-14,65
792,792	-17,74
793,014	-14,02
793,237	-12,95
793,459	-12,57
793,681	-12,54
793,904	-14,57
794,126	-17,27
794,348	-18,31
794,571	-17,52
794,793	-18,86
795,015	-17,65
795,237	-19,02
795,46	-17,81
795,682	-16,37
795,904	-13,86
796,126	-15,73
796,348	-17,92
796,57	-15,24
796,792	-15
797,014	-11,66
797,237	-10,92
797,459	-9,18
797,681	-7,15
797,903	-9,18
798,124	-9,38
798,346	-0,35
798,568	1,5
798,79	4,34
799,012	6,1
799,234	7,99
799,456	8,87
799,678	11,28
799,899	8,28
800,121	6,78
800,343	6,01
800,565	6,78
800,786	6,67
801,008	10,59
801,23	10,33
801,451	10,79
801,673	10,07
801,895	9,57
802,116	12,06
802,338	13,38
802,559	13,53
802,781	11,54
803,002	13,85
803,224	16,03
803,445	15,16
803,667	16,17
803,888	13,87
804,109	13,86
804,331	12,9
804,552	12,42
804,773	15,88
804,995	14,13
805,216	1,47
805,437	-1,24
805,658	-3,2
805,88	-5,74
806,101	-5,18
806,322	-4,8
806,543	-5,48
806,764	-6,49
806,985	-6,38
807,207	-6,39
807,428	-6,63
807,649	-8,58
807,87	-11,55
808,091	-9,61
808,312	-9,75
808,533	-6,87
808,754	-5,99
808,975	-8,2
809,195	-8,05
809,416	-7,45
809,637	-6,73
809,858	-8,45
810,079	-9,57
810,3	-7,3
810,52	-8,85
810,741	-8,59
810,962	-9,06
811,183	-10,85
811,403	-10,04
811,624	-12,26
811,845	-11,36
812,065	-9,72
812,286	-9,11
812,506	-9,78
812,727	-7,92
812,948	-7,84
813,168	-6,47
813,389	-7,4
813,609	-5,79
813,83	-5,78
814,05	-6,34
814,27	-6,51
814,491	-2,72
814,711	-3,8
814,931	-6,79
815,152	-6,5
815,372	-8,63
815,592	-9,27
815,813	-9,51
816,033	-10,22
816,253	-8,58
816,473	-9,01
816,694	-8,54
816,914	-6,84
817,134	-6,86
817,354	-7,9
817,574	-8,5
817,794	-9,08
818,014	-9,73
818,234	-10,86
818,454	-10,31
818,674	-11,85
818,894	-14,98
819,114	-12,21
819,334	-10,92
819,554	-8,8
819,774	-6,51
819,994	-7,92
820,214	-9,54
820,433	-8,84
820,653	-9,1
820,873	-8,06
821,093	-6,96
821,312	-9,39
821,532	-5,48
821,752	-4,35
821,972	-6
822,191	-4,24
822,411	-5,2
822,63	-4,96
822,85	-4,53
823,07	-7,41
823,289	-5,78
823,509	-6,78
823,728	-5,52
823,948	-8,96
824,167	-9,66
824,387	-10,3
824,606	-8,83
824,825	-8,43
825,045	-7,91
825,264	-8,83
825,483	-6,88
825,703	-4,65
825,922	-7,27
826,141	-9,32
826,361	-11,84
826,58	-14,61
826,799	-15,71
827,018	-12,16
827,237	-12,87
827,456	-11,63
827,676	-11,24
827,895	-10,68
828,114	-10,11
828,333	-11,92
828,552	-12,16
828,771	-11,26
828,99	-12,23
829,209	-12,15
829,428	-9,21
829,647	-11,4
829,866	-9,92
830,084	-10,66
830,303	-10,83
830,522	-11,84
830,741	-11,14
830,96	-11,54
831,179	-10,76
831,397	-12,89
831,616	-13,01
831,835	-14,07
832,053	-13,01
832,272	-12,95
832,491	-11,45
832,709	-10,72
832,928	-8,75
833,147	-8,56
833,365	-8,45
833,584	-7,45
833,802	-6,52
834,021	-7,01
834,239	-5,67
834,458	-6,16
834,676	-10,42
834,894	-10,66
835,113	-10,37
835,331	-9,59
835,55	-10,37
835,768	-10,63
835,986	-9,47
836,204	-11,96
836,423	-11,43
836,641	-12,63
836,859	-13,84
837,077	-12,38
837,296	-12,91
837,514	-13,23
837,732	-13,41
837,95	-14,48
838,168	-11,68
838,386	-12,14
838,604	-9,6
838,822	-9,69
839,04	-11,26
839,258	-11,52
839,476	-10,77
839,694	-11,89
839,912	-13,01
840,13	-13,24
840,348	-11,41
840,566	-15,58
840,783	-13,94
841,001	-16,1
841,219	-15,15
841,437	-12,93
841,655	-12,27
841,872	-12,61
842,09	-13,5
842,308	-11,79
842,525	-11,69
842,743	-12,19
842,961	-12,75
843,178	-12,79
843,396	-9,03
843,613	-7,97
843,831	-7,11
844,048	-7,85
844,266	-7,85
844,483	-7,18
844,701	-7,33
844,918	-8,94
845,136	-9,25
845,353	-11,67
845,57	-10,66
845,788	-7,19
846,005	-9,03
846,222	-10,06
846,439	-8,34
846,657	-6,78
846,874	-5,59
847,091	-7,72
847,308	-5,24
847,526	-6,86
847,743	-6,49
847,96	-10,02
848,177	-11,26
848,394	-12,32
848,611	-13,13
848,828	-13,47
849,045	-15,39
849,262	-16,27
849,479	-16,41
849,696	-16,7
849,913	-18,48
850,13	-22,82
850,347	-20,5
850,564	-22
850,78	-23
850,997	-23,89
851,214	-23,33
851,431	-22,12
851,647	-23,21
851,864	-22,57
852,081	-20,64
852,298	-23,69
852,514	-25,56
852,731	-24,21
852,948	-22,91
853,164	-22,72
853,381	-23,23
853,597	-25,97
853,814	-25,2
854,03	-26,55
854,247	-24,28
854,463	-24,28
854,68	-23,61
854,896	-21,51
855,113	-20,44
855,329	-18,77
855,545	-15,98
855,762	-14,95
855,978	-16,57
856,194	-17,38
856,411	-15,14
856,627	-13,68
856,843	-13,02
857,059	-11,96
857,275	-12,47
857,492	-12,61
857,708	-8,73
857,924	-7,98
858,14	-7,44
858,356	-8,53
858,572	-7,77
858,788	-10,24
859,004	-9,11
859,22	-11,33
859,436	-12,23
859,652	-13,12
859,868	-14,51
860,084	-15,3
860,3	-14,86
860,516	-17,1
860,731	-18,82
860,947	-21,77
861,163	-20,88
861,379	-19,36
861,595	-18,5
861,81	-18,05
862,026	-17,48
862,242	-18,55
862,457	-19,89
862,673	-18,09
862,889	-18
863,104	-18,25
863,32	-17,92
863,535	-17,09
863,751	-21,53
863,966	-18,83
864,182	-16,45
864,397	-19,01
864,613	-21,19
864,828	-21,15
865,044	-18,38
865,259	-17,48
865,474	-16,22
865,69	-14,65
865,905	-11,88
866,12	-12,67
866,336	-12,93
866,551	-10,91
866,766	-11,11
866,981	-10,21
867,196	-9,68
867,412	-7,72
867,627	-6,5
867,842	-7,48
868,057	-7,87
868,272	-9,92
868,487	-10,82
868,702	-13,15
868,917	-14,53
869,132	-11,55
869,347	-10,58
869,562	-11,51
869,777	-10,98
869,992	-11,47
870,207	-11,66
870,422	-11,69
870,636	-14,81
870,851	-16,33
871,066	-17,47
871,281	-16,82
871,495	-18,4
871,71	-17,3
871,925	-18,68
872,14	-20,1
872,354	-21,63
872,569	-24,19
872,783	-23,61
872,998	-24,04
873,213	-25,29
873,427	-23,14
873,642	-23,86
873,856	-23,05
874,071	-23,89
874,285	-23,3
874,5	-23,98
874,714	-24,61
874,928	-24,23
875,143	-24,68
875,357	-23,43
875,571	-23,37
875,786	-23,43
876	-23,12
876,214	-21,99
876,429	-26,08
876,643	-25,86
876,857	-26,43
877,071	-24,75
877,285	-24,43
877,499	-25,86
877,714	-23,55
877,928	-20,7
878,142	-21,77
878,356	-23,08
878,57	-22,52
878,784	-20,46
878,998	-22,2
879,212	-19,06
879,426	-20,03
879,639	-17,36
879,853	-18,76
880,067	-18,53
880,281	-18,06
880,495	-16,27
880,709	-13,51
880,922	-14,05
881,136	-13,17
881,35	-11,57
881,564	-12,55
881,777	-13,9
881,991	-14,67
882,205	-12,5
882,418	-13,83
882,632	-15,59
882,845	-15,79
883,059	-14,2
883,273	-15,76
883,486	-15,53
883,7	-13,74
883,913	-14,19
884,126	-13,22
884,34	-16,66
884,553	-18,44
884,767	-14,1
884,98	-14,82
885,193	-16,97
885,407	-18,67
885,62	-15,37
885,833	-16,59
886,046	-15,12
886,26	-17,6
886,473	-17,77
886,686	-17,92
886,899	-17,29
887,112	-19,06
887,326	-21,39
887,539	-20,66
887,752	-18,86
887,965	-20,7
888,178	-19,43
888,391	-17,89
888,604	-16,96
888,817	-18,44
889,03	-17,36
889,243	-18,72
889,455	-20,84
889,668	-19,76
889,881	-16,59
890,094	-17,7
890,307	-20,84
890,52	-18,58
890,732	-17,52
890,945	-15,94
891,158	-15,98
891,37	-18,96
891,583	-18,59
891,796	-16,27
892,008	-15,89
892,221	-16,54
892,434	-20,11
892,646	-21,17
892,859	-21,13
893,071	-20,07
893,284	-19,67
893,496	-19,81
893,709	-19,27
893,921	-18,86
894,133	-20,87
894,346	-22,52
894,558	-22,16
894,771	-22,56
894,983	-21,79
895,195	-22,54
895,407	-20,57
895,62	-22,94
895,832	-20,64
896,044	-17,63
896,256	-17,72
896,468	-19,8
896,681	-17,88
896,893	-17,35
897,105	-19,02
897,317	-19,79
897,529	-18,39
897,741	-18,16
897,953	-15,24
898,165	-17,79
898,377	-18,77
898,589	-18,5
898,801	-19,99
899,013	-16,24
899,224	-13,36
899,436	-10,82
899,648	-11,43
899,86	-12,81
900,072	-12
900,283	-10,74
900,495	-9,37
900,707	-8,33
900,919	-10,42
901,13	-9,89
901,342	-11,59
901,554	-11,98
901,765	-10,24
901,977	-14,16
902,188	-14,91
902,4	-17,11
902,611	-19,1
902,823	-20,29
903,034	-20,66
903,246	-22,65
903,457	-22,51
903,669	-22,65
903,88	-23,08
904,091	-22,73
904,303	-21,76
904,514	-23,93
904,725	-21,34
904,936	-21,47
905,148	-21,41
905,359	-18,74
905,57	-19,39
905,781	-22,04
905,992	-23,74
906,204	-23,31
906,415	-22,53
906,626	-24,09
906,837	-22,3
907,048	-23,21
907,259	-23,95
907,47	-24,5
907,681	-26,02
907,892	-23,06
908,103	-24,1
908,314	-27,04
908,525	-24,96
908,735	-23,04
908,946	-21,94
909,157	-21,8
909,368	-20,56
909,579	-20,12
909,789	-19,61
910	-19,76
910,211	-17,55
910,421	-18,38
910,632	-18,33
910,843	-21,57
911,053	-19,16
911,264	-18,05
911,475	-18,07
911,685	-18,15
911,896	-17,74
912,106	-17,11
912,317	-19,88
912,527	-18,43
912,737	-18,68
912,948	-18,99
913,158	-17,72
913,369	-20,89
913,579	-18,52
913,789	-18,34
914	-15,2
914,21	-14,56
914,42	-14,73
914,63	-15,74
914,841	-14,38
915,051	-12,62
915,261	-12,2
915,471	-10,24
915,681	-9,61
915,891	-8,39
916,101	-8,84
916,311	-9,74
916,521	-10,26
916,731	-9,7
916,941	-7,28
917,151	-7,89
917,361	-4,18
917,571	-8,14
917,781	-9,61
917,991	-11,3
918,201	-10,47
918,411	-14,38
918,621	-14,74
918,83	-11,18
919,04	-13,34
919,25	-11,54
919,46	-10,3
919,669	-12,62
919,879	-12,89
920,089	-14,85
920,298	-14,78
920,508	-14,31
920,717	-12,56
920,927	-13,76
921,136	-12,06
921,346	-13,58
921,555	-16,97
921,765	-17,43
921,974	-20,32
922,184	-22,72
922,393	-24,35
922,603	-25,48
922,812	-22,95
923,021	-24,33
923,23	-26,39
923,44	-29,07
923,649	-28,85
923,858	-29,77
924,067	-29,65
924,277	-30,32
924,486	-29,09
924,695	-29,17
924,904	-26,22
925,113	-26,57
925,322	-25,87
925,531	-25,32
925,74	-27,46
925,949	-28,51
926,158	-27,09
926,367	-26,55
926,576	-25,84
926,785	-26,98
926,994	-29,37
927,203	-30,62
927,412	-31,77
927,621	-32,38
927,83	-29,85
928,038	-29,68
928,247	-31,03
928,456	-29,61
928,665	-27,71
928,873	-26,41
929,082	-24,6
929,291	-23,67
929,499	-21,65
929,708	-23,16
929,916	-21,7
930,125	-22,73
930,333	-23,23
930,542	-19,71
930,75	-17,56
930,959	-15,9
931,167	-17,47
931,376	-17,92
931,584	-17,04
931,793	-15,89
932,001	-15,75
932,209	-16,05
932,418	-17,81
932,626	-19,5
932,834	-21,02
933,042	-23,5
933,251	-22,95
933,459	-22,13
933,667	-21,99
933,875	-20,99
934,083	-19,99
934,291	-18,75
934,499	-16,54
934,707	-16,75
934,915	-16,68
935,123	-16,2
935,331	-16,17
935,539	-17,77
935,747	-20,14
935,955	-19,85
936,163	-18,82
936,371	-18,51
936,579	-17,36
936,787	-18,01
936,995	-19,53
937,202	-21,69
937,41	-22,04
937,618	-21,83
937,826	-21,76
938,033	-24,78
938,241	-27,29
938,449	-24,95
938,656	-23,86
938,864	-24,17
939,071	-22,94
939,279	-20,2
939,486	-17,39
939,694	-17,99
939,901	-18,73
940,109	-17,24
940,316	-18,01
940,524	-18,7
940,731	-20,92
940,939	-21,16
941,146	-20,05
941,353	-19,95
941,561	-19,98
941,768	-20,97
941,975	-18,72
942,182	-18,86
942,39	-18,83
942,597	-15,43
942,804	-16,28
943,011	-16,34
943,218	-15,26
943,425	-16,32
943,632	-15,48
943,839	-16,29
944,046	-16,89
944,253	-16,37
944,46	-15,3
944,667	-13,3
944,874	-15,59
945,081	-13,96
945,288	-11,71
945,495	-10,12
945,702	-9,63
945,909	-12,11
946,115	-10,93
946,322	-11,17
946,529	-14,25
946,736	-13,16
946,942	-12,35
947,149	-12,7
947,356	-14,44
947,562	-15,48
947,769	-16,37
947,976	-17,28
948,182	-16,05
948,389	-17,01
948,595	-15,9
948,802	-15,97
949,008	-17,56
949,215	-16,34
949,421	-17,53
949,628	-20,3
949,834	-19,37
950,04	-20,12
950,247	-17,28
950,453	-15,54
950,659	-17,54
950,865	-16,48
951,072	-19,72
951,278	-16,71
951,484	-18,94
951,69	-21,76
951,896	-22,85
952,103	-24,47
952,309	-23,8
952,515	-23,61
952,721	-22,45
952,927	-20,53
953,133	-21,27
953,339	-21,92
953,545	-22,35
953,751	-20,85
953,957	-19,73
954,163	-20,5
954,369	-20,44
954,574	-22,98
954,78	-22,73
954,986	-21,15
955,192	-19,67
955,398	-21,35
955,603	-23,65
955,809	-21,51
956,015	-20,14
956,22	-19,53
956,426	-18,04
956,632	-20,79
956,837	-20,62
957,043	-19,8
957,248	-19,54
957,454	-18,82
957,66	-21,35
957,865	-21,04
958,07	-20,58
958,276	-21,47
958,481	-22,85
958,687	-23,41
958,892	-22,33
959,097	-22,33
959,303	-21,42
959,508	-21,92
959,713	-21,35
959,919	-21,18
960,124	-20,38
960,329	-18,77
960,534	-15,72
960,739	-13,94
960,945	-12,37
961,15	-13,36
961,355	-15,73
961,56	-18,44
961,765	-19,39
961,97	-17,73
962,175	-18
962,38	-21,02
962,585	-20,91
962,79	-22,9
962,995	-23,97
963,2	-26,95
963,404	-27,16
963,609	-30,41
963,814	-30,96
964,019	-33,02
964,224	-34,4
964,428	-33,03
964,633	-32,07
964,838	-29,4
965,042	-30,11
965,247	-32,73
965,452	-32,52
965,656	-32,95
965,861	-32,75
966,066	-34,88
966,27	-32,78
966,475	-30,83
966,679	-35,04
966,884	-36,23
967,088	-38,69
967,292	-38,96
967,497	-37,75
967,701	-38,2
967,906	-36,73
968,11	-32,47
968,314	-30,53
968,518	-30,32
968,723	-26,43
968,927	-25,33
969,131	-23,49
969,335	-20,75
969,539	-18,92
969,744	-17,84
969,948	-14,82
970,152	-12,84
970,356	-11,78
970,56	-10,83
970,764	-10,42
970,968	-7,75
971,172	-8,94
971,376	-7,48
971,58	-6
971,784	-6,65
971,988	-6,9
972,192	-4,15
972,395	-4,18
972,599	-6,97
972,803	-8,78
973,007	-6,13
973,21	-4,37
973,414	-3,32
973,618	-3,74
973,822	-5,07
974,025	-5,33
974,229	-6,12
974,432	-11,09
974,636	-13,43
974,84	-14,33
975,043	-14,72
975,247	-17,88
975,45	-20,16
975,654	-19,81
975,857	-18,65
976,06	-21,1
976,264	-22,38
976,467	-21,6
976,671	-21,56
976,874	-21,99
977,077	-23,63
977,28	-26,1
977,484	-27,71
977,687	-27,56
977,89	-26,44
978,093	-25,89
978,297	-25,12
978,5	-27,52
978,703	-25,81
978,906	-24,87
979,109	-24,17
979,312	-23,39
979,515	-25,06
979,718	-25,52
979,921	-25,57
980,124	-25,82
980,327	-25,73
980,53	-26,06
980,733	-23,14
980,936	-20,88
981,138	-21
981,341	-20,94
981,544	-18,46
981,747	-18,04
981,949	-19,51
982,152	-19,28
982,355	-18,44
982,558	-14,77
982,76	-17,47
982,963	-18,46
983,165	-17,73
983,368	-16,93
983,571	-17
983,773	-13,71
983,976	-13,73
984,178	-12,8
984,381	-12,82
984,583	-14,99
984,785	-14,45
984,988	-13,41
985,19	-11,85
985,392	-14,79
985,595	-17,46
985,797	-17,61
985,999	-15,48
986,202	-12,95
986,404	-12,37
986,606	-9,31
986,808	-9,87
987,01	-9,09
987,212	-10
987,415	-10,85
987,617	-8,94
987,819	-9,87
988,021	-9,11
988,223	-9,56
988,425	-10,72
988,627	-11,06
988,829	-16,15
989,031	-13,94
989,232	-14,28
989,434	-12,74
989,636	-13,47
989,838	-13,87
990,04	-14,05
990,242	-14,88
990,443	-17,37
990,645	-16,1
990,847	-13,27
991,048	-12,35
991,25	-13,65
991,452	-14,24
991,653	-14,93
991,855	-14,77
992,057	-16,01
992,258	-15,23
992,46	-16,11
992,661	-15,33
992,863	-18,03
993,064	-17,45
993,265	-18,38
993,467	-19,22
993,668	-17,71
993,87	-17,37
994,071	-18,24
994,272	-17,09
994,473	-15,59
994,675	-15,08
994,876	-13,7
995,077	-13
995,278	-11,57
995,48	-10
995,681	-11,78
995,882	-10,17
996,083	-10,73
996,284	-14,72
996,485	-15,11
996,686	-15,24
996,887	-16,67
997,088	-21,48
997,289	-23,3
997,49	-23,76
997,691	-23,61
997,892	-21,84
998,092	-19,07
998,293	-20,47
998,494	-22,03
998,695	-22,6
998,896	-22,76
999,096	-21,85
999,297	-20,4
999,498	-22,89
999,698	-25,29
999,899	-26,92
1000,1	-29,03
1000,3	-28,62
1000,501	-28,06
1000,701	-29,51
1000,902	-29,15
1001,102	-28,59
1001,303	-27,36
1001,503	-30
1001,704	-29,44
1001,904	-29,95
1002,105	-30,25
1002,305	-29,07
1002,505	-29,52
1002,706	-29,96
1002,906	-30,25
1003,106	-29,67
1003,306	-27,18
1003,507	-26,07
1003,707	-26,84
1003,907	-26,43
1004,107	-26,41
1004,307	-27,45
1004,507	-23,03
1004,707	-23,04
1004,907	-24,63
1005,107	-23,58
1005,308	-23,21
1005,507	-24,34
1005,707	-21,41
1005,907	-20,33
1006,107	-18,25
1006,307	-17,98
1006,507	-18,9
1006,707	-19,63
1006,907	-18,51
1007,106	-19,13
1007,306	-20,5
1007,506	-19,72
1007,706	-19,01
1007,905	-22,14
1008,105	-22,31
1008,305	-22,99
1008,504	-23,4
1008,704	-17,65
1008,903	-16,83
1009,103	-14,14
1009,303	-16,1
1009,502	-15,54
1009,702	-14,7
1009,901	-13,56
1010,1	-15,5
1010,3	-13,62
1010,499	-14,33
1010,699	-17,12
1010,898	-19,11
1011,097	-17,27
1011,296	-18
1011,496	-18,98
1011,695	-19,29
1011,894	-20,81
1012,093	-18,73
1012,293	-18,7
1012,492	-19,45
1012,691	-18,38
1012,89	-18
1013,089	-20,28
1013,288	-18,86
1013,487	-18,92
1013,686	-20,31
1013,885	-21,43
1014,084	-19,79
1014,283	-19,34
1014,482	-19,68
1014,681	-19,54
1014,88	-23,94
1015,078	-21,78
1015,277	-24,77
1015,476	-24,78
1015,675	-24,21
1015,873	-25,14
1016,072	-27,51
1016,271	-24,71
1016,47	-27,54
1016,668	-26,07
1016,867	-26,43
1017,065	-26,99
1017,264	-28,47
1017,463	-28,16
1017,661	-28,82
1017,86	-29,16
1018,058	-27,98
1018,256	-28,43
1018,455	-30,58
1018,653	-28,63
1018,852	-28,48
1019,05	-30,84
1019,248	-31,87
1019,447	-33,04
1019,645	-32,79
1019,843	-32,86
1020,041	-31,78
1020,24	-31,96
1020,438	-28,68
1020,636	-28,79
1020,834	-29,85
1021,032	-27,48
1021,23	-28,74
1021,428	-27,17
1021,626	-24,46
1021,824	-24,11
1022,022	-24,4
1022,22	-21,96
1022,418	-21,97
1022,616	-22,81
1022,814	-23,72
1023,012	-24,9
1023,21	-22,18
1023,408	-22,42
1023,606	-23,32
1023,803	-18,05
1024,001	-16,79
1024,199	-19,63
1024,397	-19,54
1024,594	-18,18
1024,792	-20,2
1024,99	-19,75
1025,187	-19,11
1025,385	-14,87
1025,582	-15,41
1025,78	-16,01
1025,977	-14,95
1026,175	-15,22
1026,372	-15,26
1026,57	-17,78
1026,767	-14,5
1026,965	-14,01
1027,162	-13,91
1027,359	-13,61
1027,557	-12,88
1027,754	-15,6
1027,951	-17,15
1028,148	-15,51
1028,346	-16,51
1028,543	-18,29
1028,74	-19,12
1028,937	-21,31
1029,134	-20,71
1029,331	-22,34
1029,528	-21,48
1029,725	-21,62
1029,923	-25,22
1030,12	-23,49
1030,317	-22,21
1030,513	-22,48
1030,71	-22,31
1030,907	-21,02
1031,104	-22,36
1031,301	-22,87
1031,498	-23,29
1031,695	-23,02
1031,892	-21,54
1032,088	-21,21
1032,285	-22,82
1032,482	-22,94
1032,678	-25,84
1032,875	-29,24
1033,072	-29,93
1033,268	-30,75
1033,465	-32,02
1033,662	-34,24
1033,858	-33,87
1034,055	-34,11
1034,251	-33,64
1034,448	-34,49
1034,644	-34,67
1034,84	-31
1035,037	-29,4
1035,233	-27,71
1035,43	-26,06
1035,626	-27,24
1035,822	-25,44
1036,019	-27,18
1036,215	-30,4
1036,411	-30,64
1036,607	-31,76
1036,803	-34,23
1037	-35,12
1037,196	-35,36
1037,392	-34,83
1037,588	-37,34
1037,784	-36,32
1037,98	-38,41
1038,176	-39
1038,372	-38,96
1038,568	-37,64
1038,764	-34,36
1038,96	-31,96
1039,156	-31,33
1039,352	-31,89
1039,547	-30,15
1039,743	-29,39
1039,939	-27,21
1040,135	-27,33
1040,331	-27,73
1040,526	-25,21
1040,722	-26,77
1040,918	-29,07
1041,113	-31,18
1041,309	-32,56
1041,505	-35,55
1041,7	-33,73
1041,896	-36
1042,091	-35,96
1042,287	-35,66
1042,482	-34,79
1042,678	-34,03
1042,873	-32,58
1043,069	-32,74
1043,264	-32,14
1043,459	-32,14
1043,655	-30,81
1043,85	-32,21
1044,045	-30,51
1044,24	-30,76
1044,436	-28,98
1044,631	-29,89
1044,826	-31,84
1045,021	-35,07
1045,216	-35,53
