Data from led_4000k_2_FLMT021711__0__17-32-09-814.txt Node

Date: Tue Nov 05 17:32:09 CET 2024
User: Etudiants TP
Spectrometer: FLMT02171
Trigger mode: 0
Integration Time (sec): 1,000000E-1
Scans to average: 5
Electric dark correction enabled: true
Nonlinearity correction enabled: true
Boxcar width: 15
XAxis mode: Wavelengths
Number of Pixels in Spectrum: 3648
>>>>>Begin Spectral Data<<<<<
194,658	-69,91
194,923	-67,19
195,188	-62,34
195,453	-62,11
195,717	-55,79
195,982	-55,97
196,247	-54,37
196,512	-55,85
196,777	-53,01
197,042	-50,33
197,307	-49,58
197,572	-44,84
197,837	-44,25
198,101	-42,09
198,366	-38,37
198,631	-36,01
198,896	-28,64
199,161	-20,89
199,425	-12,57
199,69	-2,6
199,955	-4,34
200,22	-7,09
200,484	-7,94
200,749	-8,33
201,014	-6,06
201,278	-6,63
201,543	-5,24
201,807	-6,57
202,072	-5,93
202,337	-6,55
202,601	-7
202,866	-8,7
203,13	-7,84
203,395	-8,31
203,659	-7,75
203,924	-10,07
204,189	-8,12
204,453	-7,27
204,717	-5,87
204,982	-5,09
205,246	-4,61
205,511	-2,84
205,775	-3,99
206,04	1,06
206,304	1,5
206,568	2,19
206,833	2,67
207,097	2,94
207,361	4,36
207,626	7,61
207,89	8,42
208,154	10,26
208,419	12,02
208,683	12,5
208,947	15,96
209,211	16,4
209,476	15,89
209,74	16,18
210,004	15,55
210,268	15,58
210,532	19,86
210,796	19,66
211,061	20,05
211,325	20,86
211,589	18,49
211,853	19,46
212,117	20,01
212,381	19,73
212,645	19,63
212,909	19,85
213,173	17,12
213,437	18,05
213,701	18,71
213,965	18,5
214,229	13,15
214,493	12,69
214,757	11,3
215,021	10,61
215,285	14,58
215,549	15,74
215,813	12,16
216,077	12,13
216,34	14,71
216,604	13,59
216,868	12,09
217,132	12,2
217,396	12,06
217,659	13,17
217,923	9,72
218,187	10,68
218,451	10,62
218,714	7,17
218,978	8,1
219,242	10,57
219,505	10,52
219,769	11,89
220,033	11,96
220,296	12,92
220,56	13,57
220,824	12,28
221,087	12,54
221,351	12,49
221,614	11,22
221,878	11,94
222,142	11,14
222,405	11,45
222,669	14,25
222,932	10,03
223,196	7,52
223,459	4,19
223,722	5,24
223,986	5,46
224,249	4,15
224,513	3,19
224,776	3,69
225,04	5,23
225,303	4,6
225,566	4,33
225,83	5
226,093	7,92
226,356	5,54
226,62	3,72
226,883	5,77
227,146	6,03
227,409	5,34
227,673	4,16
227,936	5,05
228,199	5,71
228,462	4
228,725	4,49
228,989	4,03
229,252	6,2
229,515	11,4
229,778	10,5
230,041	8,73
230,304	7,53
230,567	8,2
230,83	5,22
231,093	8,3
231,356	9,08
231,619	16,28
231,882	15,53
232,145	18,12
232,408	17,35
232,671	17,32
232,934	16,82
233,197	14,92
233,46	14,17
233,723	15,71
233,986	13,83
234,249	10,64
234,512	14,56
234,775	17,35
235,037	16,82
235,3	17,35
235,563	16,72
235,826	17,17
236,089	18,65
236,351	17,45
236,614	19,06
236,877	18,77
237,14	21,42
237,402	19,37
237,665	12,32
237,928	11,59
238,19	10,87
238,453	13,45
238,716	13,13
238,978	14,59
239,241	14,05
239,503	15,24
239,766	9,46
240,029	8,06
240,291	9,63
240,554	8,95
240,816	7,89
241,079	7,6
241,341	6,92
241,604	4,66
241,866	0,8
242,129	2,53
242,391	4,06
242,653	2,08
242,916	2,88
243,178	2,14
243,441	2,36
243,703	1,27
243,965	-1,26
244,228	-1,48
244,49	-1,14
244,752	-0,62
245,015	0,05
245,277	1,58
245,539	1,8
245,801	4,6
246,064	5,01
246,326	2,82
246,588	1,35
246,85	3,65
247,112	2,41
247,374	4,22
247,637	6,99
247,899	6,33
248,161	6,85
248,423	3,55
248,685	4,74
248,947	3,7
249,209	4,09
249,471	6,21
249,733	7,52
249,995	5,83
250,257	6,03
250,519	6,79
250,781	8,51
251,043	5,9
251,305	7,24
251,567	9,53
251,829	10,85
252,091	12,58
252,353	8,73
252,615	9,84
252,876	7,7
253,138	5,48
253,4	1,92
253,662	3,04
253,924	4,45
254,185	4,59
254,447	6,58
254,709	7,31
254,971	7,97
255,232	10,81
255,494	9,44
255,756	7,45
256,017	8,77
256,279	9,29
256,541	8,56
256,802	8,76
257,064	9,91
257,326	9,78
257,587	9,04
257,849	11,22
258,11	14,24
258,372	14,03
258,633	13,65
258,895	14,45
259,156	14,33
259,418	12,57
259,679	6,53
259,941	3,9
260,202	6,43
260,464	9,73
260,725	6,66
260,987	6,57
261,248	5,78
261,509	6,21
261,771	5,17
262,032	5,61
262,293	5,92
262,555	4,61
262,816	3,4
263,077	1,57
263,338	-2,42
263,6	-3,32
263,861	-4,08
264,122	-5,26
264,383	-3,28
264,645	-2,24
264,906	-4,42
265,167	-3,43
265,428	-3,93
265,689	-1,18
265,95	-5,05
266,211	-2,8
266,473	-2,58
266,734	-6,11
266,995	-10,81
267,256	-11,37
267,517	-8,55
267,778	-4,85
268,039	-2,53
268,3	-5,02
268,561	-7,11
268,822	-3,12
269,083	-4,95
269,344	-5,03
269,604	-5,7
269,865	-5,18
270,126	-8,08
270,387	-6,95
270,648	-5,28
270,909	-5,03
271,17	-7,22
271,43	-9,21
271,691	-11,19
271,952	-13,25
272,213	-10,72
272,473	-13,36
272,734	-12,59
272,995	-10,99
273,256	-11,25
273,516	-8,95
273,777	-12,42
274,038	-10,37
274,298	-14,06
274,559	-14,95
274,82	-9,21
275,08	-6,01
275,341	-4,15
275,601	-5,76
275,862	-6,75
276,122	-6,29
276,383	-6,12
276,643	-5,62
276,904	-6,09
277,164	-2,67
277,425	-1,68
277,685	2,85
277,946	1,52
278,206	3,44
278,467	4,73
278,727	5,82
278,987	3,33
279,248	4,45
279,508	6,71
279,768	9,51
280,029	12,84
280,289	8,62
280,549	7,23
280,81	6,71
281,07	7,31
281,33	8,84
281,59	6,94
281,851	9,22
282,111	9,61
282,371	9,51
282,631	10,88
282,891	8,95
283,151	8,45
283,412	6,63
283,672	5,78
283,932	4,77
284,192	6,42
284,452	4,58
284,712	3,34
284,972	0,51
285,232	-1,21
285,492	0,37
285,752	-2,83
286,012	3,2
286,272	4,34
286,532	1,36
286,792	0,91
287,052	4,96
287,312	4,37
287,571	2,72
287,831	3,48
288,091	0,42
288,351	1,9
288,611	6,3
288,871	6,42
289,13	6,13
289,39	3,35
289,65	4,48
289,91	2,98
290,17	5,48
290,429	7,55
290,689	4,41
290,949	1,61
291,208	1,72
291,468	6,72
291,728	8,26
291,987	9,56
292,247	5,89
292,506	9,09
292,766	11,7
293,026	11,84
293,285	12,93
293,545	14,43
293,804	14,2
294,064	11,32
294,323	10,34
294,583	11,51
294,842	11,4
295,102	9,17
295,361	9,9
295,621	11,5
295,88	11,59
296,139	10,5
296,399	11,23
296,658	4,82
296,917	4,81
297,177	1,3
297,436	2,14
297,695	0,42
297,955	1,92
298,214	-0,46
298,473	1,03
298,732	5,15
298,992	7,63
299,251	7,68
299,51	1,76
299,769	2,46
300,028	3,49
300,287	5,08
300,547	4,22
300,806	1,89
301,065	4,92
301,324	5,97
301,583	2,88
301,842	-0,07
302,101	-1,65
302,36	-1,51
302,619	-1,62
302,878	-1,12
303,137	-1,11
303,396	0,72
303,655	2,41
303,914	-0,59
304,173	1,4
304,432	1,03
304,691	5,46
304,95	4,08
305,208	9,22
305,467	10,44
305,726	10,43
305,985	10,98
306,244	11,82
306,503	11,9
306,761	9,62
307,02	6,65
307,279	6,57
307,537	7,97
307,796	5,54
308,055	3,33
308,314	4,72
308,572	3,42
308,831	4,2
309,09	5,51
309,348	6,67
309,607	6,33
309,865	10,07
310,124	9,45
310,382	10,05
310,641	10,06
310,9	7,73
311,158	8,45
311,417	8,99
311,675	8,7
311,933	10,07
312,192	10,84
312,45	10,26
312,709	10,4
312,967	9,38
313,226	8,87
313,484	7,84
313,742	6,43
314,001	3,67
314,259	4,15
314,517	4,45
314,776	6,8
315,034	10,21
315,292	7,8
315,55	5,22
315,809	4,49
316,067	5,44
316,325	3,13
316,583	3,46
316,841	3,28
317,1	0,34
317,358	-2,66
317,616	-3,98
317,874	-5,78
318,132	-5,75
318,39	-7,22
318,648	-7,86
318,906	-6,55
319,164	-7,37
319,422	-9,89
319,68	-12,56
319,938	-12,94
320,196	-12,76
320,454	-11,81
320,712	-12,84
320,97	-12,48
321,228	-15
321,486	-13,59
321,744	-10,78
322,002	-7,89
322,26	-10,91
322,517	-12,21
322,775	-15,1
323,033	-16,46
323,291	-12,72
323,549	-10,23
323,806	-8,94
324,064	-9,83
324,322	-7,49
324,58	-8,82
324,837	-7,2
325,095	-8,57
325,353	-8,21
325,61	-5,71
325,868	-5,74
326,126	-2,81
326,383	-2,16
326,641	-2,71
326,898	-1,73
327,156	-1,28
327,413	-0,87
327,671	1,05
327,928	3,1
328,186	3,05
328,443	1,64
328,701	5,53
328,958	7,66
329,216	8,99
329,473	6,78
329,731	6,18
329,988	6,47
330,245	8,91
330,503	11,25
330,76	11,48
331,017	13,61
331,275	10,4
331,532	10,74
331,789	8,5
332,047	8,92
332,304	5,62
332,561	6,77
332,818	5,2
333,076	6,49
333,333	8,89
333,59	9,19
333,847	10,81
334,104	8,52
334,361	7,08
334,618	6,52
334,876	3,67
335,133	3,61
335,39	2,68
335,647	3,75
335,904	0,02
336,161	-2,6
336,418	-0,97
336,675	-4,89
336,932	-3,47
337,189	-3,98
337,446	-3,49
337,703	-5,39
337,96	-10,4
338,216	-10,11
338,473	-13,66
338,73	-13,61
338,987	-14,2
339,244	-9,75
339,501	-11,7
339,757	-9,69
340,014	-8,94
340,271	-7,9
340,528	-6,36
340,785	-1,53
341,041	-0,97
341,298	-4,43
341,555	-5
341,811	-5,77
342,068	-7,86
342,325	-7,55
342,581	-4,8
342,838	-3,89
343,094	-4,91
343,351	-5,3
343,608	-8,57
343,864	-4,9
344,121	-3,57
344,377	-5,04
344,634	-6,06
344,89	-8,21
345,147	-9,66
345,403	-10,48
345,66	-9,02
345,916	-4,91
346,172	-6,87
346,429	-7,3
346,685	-8,2
346,942	-8,52
347,198	-12,23
347,454	-10,37
347,711	-10,51
347,967	-11,81
348,223	-10,64
348,48	-12,19
348,736	-10,48
348,992	-11,97
349,248	-9,54
349,504	-9,96
349,761	-8,82
350,017	-8,13
350,273	-7,15
350,529	-7,99
350,785	-7,53
351,041	-7,89
351,297	-5,5
351,554	-6,94
351,81	-9,69
352,066	-10,23
352,322	-10,39
352,578	-9,89
352,834	-10,84
353,09	-9,85
353,346	-9,51
353,602	-11,14
353,858	-14,05
354,114	-15,32
354,369	-14,07
354,625	-12,02
354,881	-12,94
355,137	-12,46
355,393	-13,76
355,649	-13,42
355,905	-14,14
356,16	-15,03
356,416	-13,74
356,672	-20,28
356,928	-18,35
357,183	-19,23
357,439	-19,08
357,695	-21,54
357,951	-16,93
358,206	-18,72
358,462	-19,38
358,718	-21,19
358,973	-19,74
359,229	-20,68
359,484	-18,4
359,74	-16,25
359,996	-15,29
360,251	-11,24
360,507	-11,49
360,762	-11,87
361,018	-9,01
361,273	-11,07
361,529	-8,63
361,784	-8,6
362,04	-6,04
362,295	-7,32
362,55	-6,83
362,806	-4,96
363,061	-3,75
363,316	-2,27
363,572	-0,61
363,827	0,04
364,082	-2,32
364,338	-2,5
364,593	-1,87
364,848	-1,92
365,104	-3
365,359	0,32
365,614	1,57
365,869	-0,84
366,124	0,29
366,38	-1,02
366,635	1,63
366,89	2,81
367,145	2,98
367,4	6,9
367,655	7,53
367,91	7,16
368,165	4,31
368,42	2,56
368,675	4,13
368,93	3,6
369,185	2,04
369,44	0,96
369,695	3,78
369,95	2,81
370,205	3,13
370,46	2
370,715	0,64
370,97	0,69
371,225	-0,92
371,48	-0,81
371,734	0,73
371,989	3,33
372,244	2,57
372,499	3,45
372,754	2,5
373,008	0,9
373,263	-4,35
373,518	-1,77
373,773	-4,21
374,027	-4,72
374,282	-2,52
374,537	-1,85
374,791	-1,24
375,046	-2,34
375,301	-5,34
375,555	-7,07
375,81	-5,87
376,064	-5,04
376,319	-1,13
376,573	-2,74
376,828	-5,52
377,082	-0,5
377,337	-2,42
377,591	-5,16
377,846	-4,93
378,1	-2,46
378,355	-1,83
378,609	-0,97
378,863	-3,21
379,118	-0,57
379,372	-2,03
379,627	-3,54
379,881	-6,63
380,135	-7,05
380,389	-6,53
380,644	-6,15
380,898	-4,79
381,152	-3,08
381,407	-3,38
381,661	-1,39
381,915	-0,22
382,169	0,68
382,423	-0,91
382,677	-4,22
382,932	-3,19
383,186	-2
383,44	-1,28
383,694	1,62
383,948	-0,88
384,202	-3,28
384,456	-0,8
384,71	0,27
384,964	-1,87
385,218	0,51
385,472	1,57
385,726	1,5
385,98	1,26
386,234	1,47
386,488	-2,43
386,742	-0,4
386,996	-2,87
387,249	-1,8
387,503	0,36
387,757	2,16
388,011	3,18
388,265	3,52
388,518	4,48
388,772	6,48
389,026	7,7
389,28	5,55
389,533	4,38
389,787	6,28
390,041	3,44
390,295	3,74
390,548	5,23
390,802	8,06
391,055	6,74
391,309	5,46
391,563	2,26
391,816	3,34
392,07	2,48
392,323	2,64
392,577	2,65
392,83	4,58
393,084	8,93
393,337	11,46
393,591	12,32
393,844	11,23
394,098	14,9
394,351	20,34
394,604	20,65
394,858	22,96
395,111	21,36
395,364	19,02
395,618	20,32
395,871	18,48
396,124	17,73
396,378	16,79
396,631	15,24
396,884	12,24
397,137	11,19
397,391	12,54
397,644	9,34
397,897	10,74
398,15	10,96
398,403	12,54
398,657	10,32
398,91	9,27
399,163	10,26
399,416	10,51
399,669	9,8
399,922	9,69
400,175	7,07
400,428	7,2
400,681	6,38
400,934	2,95
401,187	2,36
401,44	2,14
401,693	1,55
401,946	-1,7
402,199	-6,68
402,452	-6,79
402,704	-10,8
402,957	-10,27
403,21	-8,37
403,463	-8,68
403,716	-6,5
403,969	-5,97
404,221	-7,25
404,474	-3,89
404,727	-0,4
404,98	1,65
405,232	1,75
405,485	4,73
405,738	5,32
405,99	6,04
406,243	6,89
406,496	9,37
406,748	9,8
407,001	8,8
407,253	8,99
407,506	10
407,759	10,1
408,011	9,15
408,264	10,26
408,516	11,1
408,769	8,94
409,021	10,12
409,274	10,34
409,526	11,98
409,778	10,04
410,031	13,85
410,283	13,03
410,536	18,46
410,788	17,24
411,04	15,52
411,293	16,06
411,545	16,64
411,797	16,06
412,049	16,33
412,302	15,9
412,554	15,49
412,806	13,68
413,058	11,52
413,311	10,11
413,563	10,04
413,815	10,78
414,067	7,83
414,319	5,07
414,571	7,36
414,823	6,73
415,075	6,16
415,328	5,91
415,58	10,2
415,832	12,59
416,084	12,1
416,336	10,49
416,588	14,21
416,84	12,41
417,091	14,99
417,343	11,88
417,595	14,77
417,847	15,54
418,099	17,46
418,351	16,34
418,603	19,23
418,855	22,1
419,106	21,82
419,358	21,33
419,61	21,18
419,862	23,52
420,114	22,27
420,365	23,35
420,617	25,08
420,869	24,88
421,12	25,74
421,372	26,72
421,624	25,76
421,875	26,93
422,127	26,09
422,379	26,17
422,63	28,6
422,882	27,59
423,133	29,21
423,385	29,24
423,636	30,47
423,888	33,01
424,139	36,07
424,391	34,82
424,642	34,21
424,894	33,48
425,145	34,51
425,396	32,32
425,648	33,98
425,899	32,1
426,151	33,9
426,402	33,23
426,653	33,73
426,905	34,22
427,156	33,35
427,407	33,97
427,658	33,79
427,91	31,99
428,161	32,66
428,412	34,44
428,663	36,05
428,914	37,32
429,166	37,92
429,417	38,37
429,668	37,83
429,919	36,57
430,17	36,17
430,421	36,82
430,672	41,74
430,923	41,07
431,174	40,44
431,425	40,8
431,676	40,82
431,927	37,3
432,178	38,2
432,429	38,74
432,68	39,05
432,931	42,79
433,182	46,55
433,433	44,04
433,683	46,32
433,934	46,24
434,185	45,81
434,436	45,23
434,687	47,96
434,937	51,06
435,188	51,79
435,439	50,16
435,69	52,3
435,94	51,57
436,191	52,7
436,442	53,79
436,692	52,68
436,943	51,1
437,194	51,13
437,444	55,3
437,695	60,56
437,945	62,1
438,196	61,92
438,447	60,77
438,697	63,57
438,948	63,08
439,198	62,16
439,449	60,24
439,699	62,78
439,949	65,48
440,2	66,78
440,45	68,92
440,701	69,03
440,951	69,29
441,201	72,2
441,452	73,86
441,702	75,35
441,952	78,28
442,203	80,16
442,453	80,19
442,703	82,08
442,953	84,66
443,204	88,97
443,454	89,8
443,704	92,7
443,954	92,35
444,204	95,49
444,455	98,82
444,705	104,26
444,955	106,99
445,205	107,34
445,455	106,98
445,705	109,7
445,955	113,32
446,205	114,66
446,455	116,74
446,705	120,72
446,955	124,45
447,205	127,34
447,455	132,22
447,705	130,78
447,955	132,08
448,205	134,71
448,454	137,3
448,704	142,28
448,954	143,26
449,204	146,11
449,454	148,01
449,704	149,59
449,953	151,59
450,203	155,32
450,453	155,56
450,703	159,75
450,952	160,98
451,202	165,03
451,452	166,78
451,701	171,25
451,951	176,21
452,201	178,12
452,45	177,72
452,7	180,88
452,949	183,34
453,199	186,16
453,448	190,17
453,698	193,14
453,947	194,56
454,197	194,24
454,446	195,58
454,696	199,97
454,945	201,17
455,195	200,24
455,444	203,19
455,693	208,11
455,943	207,66
456,192	209,8
456,442	208,68
456,691	209,83
456,94	208,9
457,189	208,12
457,439	210,53
457,688	212,22
457,937	211,62
458,186	212,23
458,436	212,45
458,685	213,71
458,934	211,87
459,183	211,33
459,432	212,59
459,681	210,93
459,93	210,94
460,179	211,46
460,429	208,44
460,678	209,21
460,927	209,27
461,176	206,26
461,425	203,46
461,674	205,73
461,923	205,83
462,172	203,49
462,42	200,6
462,669	202,1
462,918	200,92
463,167	199,55
463,416	195,88
463,665	194,92
463,914	193,01
464,162	190,16
464,411	189,49
464,66	190,32
464,909	188,17
465,158	186,02
465,406	184,65
465,655	185,97
465,904	187,14
466,152	184,94
466,401	184,16
466,65	184,9
466,898	181,9
467,147	178,38
467,395	178,2
467,644	178,61
467,893	176,06
468,141	176,63
468,39	174,49
468,638	171,8
468,887	169,4
469,135	168,65
469,384	166,59
469,632	166,36
469,88	165,08
470,129	165,46
470,377	161,29
470,626	163,42
470,874	164,27
471,122	166,1
471,371	164,4
471,619	162,85
471,867	164,54
472,115	163,53
472,364	161,28
472,612	164,92
472,86	164,26
473,108	164,56
473,356	163,55
473,605	161,68
473,853	158,26
474,101	155,86
474,349	155,03
474,597	157,67
474,845	155,46
475,093	152,86
475,341	149,14
475,589	149,56
475,837	150,13
476,085	151
476,333	149,41
476,581	149,7
476,829	149,88
477,077	152,23
477,325	151,47
477,573	152,54
477,821	150,26
478,069	152,21
478,317	150,45
478,564	151,85
478,812	147,99
479,06	146,08
479,308	144,16
479,555	145,23
479,803	143,68
480,051	144
480,299	142,59
480,546	142,65
480,794	139,64
481,042	140,85
481,289	140,85
481,537	142,36
481,784	142,98
482,032	146,5
482,28	146,59
482,527	146,88
482,775	147,38
483,022	149,17
483,27	151,68
483,517	154,77
483,765	153,84
484,012	155,04
484,259	155,96
484,507	158,72
484,754	158,08
485,002	159,12
485,249	158,28
485,496	162,7
485,744	163
485,991	164,28
486,238	161,74
486,486	166,66
486,733	169,15
486,98	173,81
487,227	172,42
487,474	176,21
487,722	180,16
487,969	178,04
488,216	178,1
488,463	179,82
488,71	178,06
488,957	177,83
489,204	180,2
489,451	181,97
489,699	180,33
489,946	178,01
490,193	177,51
490,44	178,51
490,687	179,81
490,934	177,62
491,18	174,32
491,427	177
491,674	179,75
491,921	180,03
492,168	179,08
492,415	177,5
492,662	179,3
492,909	182,78
493,155	181,72
493,402	179,86
493,649	178,64
493,896	182,57
494,142	178,68
494,389	179,91
494,636	178,06
494,883	176,8
495,129	174,98
495,376	171,92
495,623	174,91
495,869	177,05
496,116	178,7
496,362	180,62
496,609	185,42
496,855	190,27
497,102	191,19
497,348	191,65
497,595	193,87
497,841	199,64
498,088	199,11
498,334	199,58
498,581	199,2
498,827	200,87
499,074	202,31
499,32	205,68
499,566	209,43
499,813	210,86
500,059	210,65
500,305	210,35
500,552	210,3
500,798	211,82
501,044	218,03
501,29	218,32
501,537	216,39
501,783	220,23
502,029	224
502,275	222,37
502,521	221,91
502,767	224,03
503,013	228,79
503,26	227,96
503,506	225,49
503,752	227,21
503,998	225,34
504,244	224,47
504,49	221,36
504,736	221,81
504,982	222,03
505,228	225,64
505,474	226,45
505,72	229,08
505,966	229,02
506,211	234,92
506,457	235,63
506,703	233,13
506,949	231,11
507,195	229,92
507,441	226,74
507,686	229,86
507,932	231,81
508,178	235,06
508,424	233,27
508,669	232,26
508,915	232,46
509,161	233,9
509,406	235,59
509,652	235,28
509,898	240,57
510,143	241,95
510,389	242,04
510,634	239,14
510,88	242,97
511,125	247,72
511,371	248,82
511,616	251,87
511,862	250,12
512,107	248,79
512,353	251
512,598	252,44
512,844	251,11
513,089	249,18
513,335	250,54
513,58	250,42
513,825	249,23
514,071	248,12
514,316	247,78
514,561	247,87
514,806	247,81
515,052	251,44
515,297	251,29
515,542	253,04
515,787	251,36
516,033	252,51
516,278	252,53
516,523	254,27
516,768	255,22
517,013	252,16
517,258	252,39
517,503	252,32
517,748	253,14
517,993	251,77
518,238	251,4
518,483	249,52
518,728	248,69
518,973	247,45
519,218	247,64
519,463	248,73
519,708	249,35
519,953	248,64
520,198	248,47
520,443	250,25
520,688	252,9
520,933	251,88
521,177	252,93
521,422	250,97
521,667	254,52
521,912	255,21
522,157	253,95
522,401	257,29
522,646	258,41
522,891	259,75
523,135	259,59
523,38	261,64
523,625	260,57
523,869	262,57
524,114	263,46
524,358	262,37
524,603	262,55
524,848	260,38
525,092	259,7
525,337	262,34
525,581	266,35
525,826	270,03
526,07	271,46
526,315	272,82
526,559	271,93
526,803	269,21
527,048	273,66
527,292	273,65
527,537	274,42
527,781	274,52
528,025	273,28
528,269	276,02
528,514	278,04
528,758	277,74
529,002	278,02
529,247	281,13
529,491	281,54
529,735	286,48
529,979	287,46
530,223	287,91
530,467	285,14
530,712	283,28
530,956	282,09
531,2	284,25
531,444	282,8
531,688	284,12
531,932	283,79
532,176	285,55
532,42	286,96
532,664	287,89
532,908	286,94
533,152	285,29
533,396	284,64
533,64	282,47
533,884	279,54
534,128	280,73
534,371	283,33
534,615	283,94
534,859	283,64
535,103	281,45
535,347	282,33
535,59	282,83
535,834	278,91
536,078	279,88
536,322	280,78
536,565	284,91
536,809	282,64
537,053	284,06
537,296	281,73
537,54	279,74
537,784	279,35
538,027	281,07
538,271	280,27
538,514	279,64
538,758	279,84
539,001	277,58
539,245	277,9
539,488	278,7
539,732	281,58
539,975	282,54
540,219	285,37
540,462	285,79
540,706	287,03
540,949	286,03
541,192	287,76
541,436	294,07
541,679	298,92
541,922	299,66
542,166	294,99
542,409	296,57
542,652	299,08
542,895	299,98
543,139	301,73
543,382	306,08
543,625	305,84
543,868	306,04
544,111	305,01
544,354	303,22
544,598	303,07
544,841	305,07
545,084	304,69
545,327	303,93
545,57	305,37
545,813	307,41
546,056	306,48
546,299	307,84
546,542	310,15
546,785	312,37
547,028	315,4
547,271	315,26
547,514	315,24
547,756	311,45
547,999	312,41
548,242	313,84
548,485	313,03
548,728	314,51
548,971	311,03
549,213	311,63
549,456	310,48
549,699	312,28
549,942	311,66
550,184	310,8
550,427	311,15
550,67	311,19
550,912	306,33
551,155	306,37
551,398	307,92
551,64	307,04
551,883	308,67
552,125	308,06
552,368	306,86
552,61	304,89
552,853	306,7
553,095	306,03
553,338	306,18
553,58	307,54
553,823	305,09
554,065	308,08
554,308	304,72
554,55	301,83
554,792	299,73
555,035	298,24
555,277	298,58
555,519	299,18
555,762	297,22
556,004	297,52
556,246	294,71
556,488	294,25
556,731	290,3
556,973	293,87
557,215	292,98
557,457	294,75
557,699	296,9
557,941	293,83
558,183	293,59
558,426	296,46
558,668	293,16
558,91	293,88
559,152	294,2
559,394	294,83
559,636	297,59
559,878	300,13
560,12	300,33
560,362	302,25
560,604	302,89
560,845	303,75
561,087	303,28
561,329	305,82
561,571	304,1
561,813	304,74
562,055	304,33
562,297	304,42
562,538	305,61
562,78	308,12
563,022	305,89
563,264	307,28
563,505	308,25
563,747	308,62
563,989	307,39
564,23	307,73
564,472	305,9
564,714	308,59
564,955	309,34
565,197	307,29
565,438	309,49
565,68	312,1
565,921	310,82
566,163	314,37
566,404	313,21
566,646	317,34
566,887	320,66
567,129	322,94
567,37	320,39
567,612	324,45
567,853	322,73
568,094	325,1
568,336	325,36
568,577	327,48
568,818	329,83
569,06	327,64
569,301	326,95
569,542	328,83
569,783	331,01
570,025	332,73
570,266	334,09
570,507	336,38
570,748	337,54
570,989	339,13
571,23	342,95
571,472	344,26
571,713	343,66
571,954	345,05
572,195	344,29
572,436	345,9
572,677	348,38
572,918	351,52
573,159	350,53
573,4	349,71
573,641	348,6
573,882	349,34
574,123	347,1
574,364	340,6
574,604	339,94
574,845	339,34
575,086	336,81
575,327	338,02
575,568	335,51
575,809	334,64
576,049	334,79
576,29	331,83
576,531	337,01
576,771	341,63
577,012	343,52
577,253	343,78
577,494	342,58
577,734	341,86
577,975	341,56
578,215	340,15
578,456	336,8
578,697	335,7
578,937	338,17
579,178	337,27
579,418	335,46
579,659	334,6
579,899	331,54
580,14	330,94
580,38	328,87
580,62	327,5
580,861	331,84
581,101	331,5
581,342	332,29
581,582	326,89
581,822	329,62
582,063	328,1
582,303	328,43
582,543	329,72
582,783	330,55
583,024	331,92
583,264	333,49
583,504	330,18
583,744	330,97
583,984	328,88
584,224	327,95
584,465	325,48
584,705	326,71
584,945	326,8
585,185	326,35
585,425	328,05
585,665	328,59
585,905	329,36
586,145	329,88
586,385	327,09
586,625	330,14
586,865	329,91
587,105	329,32
587,345	329,49
587,585	328,93
587,824	329,53
588,064	330,69
588,304	327,18
588,544	327,78
588,784	324,41
589,024	329,12
589,263	328,49
589,503	327,38
589,743	330,59
589,982	328,2
590,222	327,32
590,462	325,39
590,701	324,2
590,941	328,51
591,181	328,16
591,42	327,93
591,66	329,82
591,899	332,92
592,139	331,46
592,378	331,98
592,618	330,99
592,857	331,05
593,097	332,08
593,336	332,59
593,576	332,21
593,815	335,12
594,055	334,46
594,294	334,65
594,533	334,75
594,773	334,84
595,012	337,78
595,251	339,14
595,491	341,11
595,73	343,85
595,969	345,9
596,208	348,81
596,447	351,98
596,687	354,12
596,926	355,28
597,165	352,4
597,404	357,5
597,643	356
597,882	356,74
598,121	358,7
598,36	358,58
598,599	359,52
598,838	358,71
599,077	356,02
599,316	356,79
599,555	357,64
599,794	357,65
600,033	359,72
600,272	359,44
600,511	357,05
600,75	359,61
600,989	361,43
601,228	360,78
601,466	360,47
601,705	361,72
601,944	363,37
602,183	365,9
602,422	363,24
602,66	360,52
602,899	358,69
603,138	358,4
603,376	357,37
603,615	357,26
603,854	355,05
604,092	354,54
604,331	354,85
604,569	356,26
604,808	354,03
605,047	355,67
605,285	354,54
605,524	352,59
605,762	349,77
606	350,29
606,239	350,21
606,477	349,52
606,716	344,54
606,954	341,78
607,193	338,62
607,431	333,33
607,669	331,02
607,908	329,13
608,146	329,1
608,384	325,8
608,622	322,69
608,861	321,4
609,099	318,93
609,337	315,86
609,575	312,52
609,813	313,9
610,052	312,43
610,29	306,8
610,528	302,73
610,766	299,1
611,004	296,65
611,242	293,33
611,48	292,13
611,718	288,93
611,956	286,66
612,194	282,78
612,432	279,94
612,67	278,72
612,908	278,16
613,146	274,87
613,384	272,06
613,621	270,06
613,859	268,01
614,097	266,45
614,335	264,72
614,573	265,19
614,811	266,19
615,048	263,94
615,286	264,54
615,524	262,85
615,761	258,84
615,999	259,82
616,237	257,89
616,474	260,03
616,712	261,39
616,95	260,23
617,187	256,17
617,425	256,96
617,662	258,4
617,9	257,07
618,137	255,05
618,375	252,57
618,612	251,58
618,85	251,37
619,087	252,3
619,325	251,83
619,562	250,59
619,799	249,61
620,037	247,19
620,274	245,31
620,511	247,63
620,749	244,7
620,986	243,45
621,223	240,02
621,461	239,62
621,698	240,63
621,935	238,24
622,172	236,07
622,409	239
622,647	237,2
622,884	233,43
623,121	236,09
623,358	232,79
623,595	233,22
623,832	232,01
624,069	229,11
624,306	229,01
624,543	230,52
624,78	229,55
625,017	228,92
625,254	229,45
625,491	230,01
625,728	233,01
625,965	231,04
626,202	228,79
626,438	226,73
626,675	224,18
626,912	225,85
627,149	225,29
627,386	224,29
627,622	222,71
627,859	220,48
628,096	220,51
628,333	220,02
628,569	221,63
628,806	221,29
629,043	219,82
629,279	221,14
629,516	221,68
629,752	217,1
629,989	217,43
630,225	215,67
630,462	214,33
630,699	213,45
630,935	211,88
631,171	206,83
631,408	205,9
631,644	202,61
631,881	198,39
632,117	195,31
632,354	194,63
632,59	192,84
632,826	192,7
633,063	190,56
633,299	192,26
633,535	189,72
633,771	187,68
634,008	189,66
634,244	188,01
634,48	184,9
634,716	185,89
634,953	183,35
635,189	182,41
635,425	183,21
635,661	184,33
635,897	182,54
636,133	182,12
636,369	180,58
636,605	175,54
636,841	175,58
637,077	174,42
637,313	173,34
637,549	172,09
637,785	170,49
638,021	169,8
638,257	167,23
638,493	169,2
638,729	166,58
638,965	169,55
639,2	171,01
639,436	170,19
639,672	169,65
639,908	166,86
640,144	169,23
640,379	169,83
640,615	165,06
640,851	166,25
641,086	168,19
641,322	165,8
641,558	163,65
641,793	165,09
642,029	163,21
642,264	161,95
642,5	161,02
642,736	157,03
642,971	155,95
643,207	153,1
643,442	150,79
643,678	149,63
643,913	151,76
644,148	149,41
644,384	151,7
644,619	150,42
644,855	152,25
645,09	151,89
645,325	151,91
645,561	151,92
645,796	149,45
646,031	152,31
646,266	147,85
646,502	145,7
646,737	146,68
646,972	145,22
647,207	145,89
647,442	142,13
647,678	139,09
647,913	142
648,148	141,74
648,383	138,96
648,618	138,44
648,853	139,71
649,088	140,96
649,323	142,27
649,558	143,89
649,793	144,43
650,028	143,75
650,263	140,64
650,498	142,36
650,733	140,64
650,968	138,87
651,202	139,66
651,437	136,78
651,672	133,26
651,907	131,28
652,142	131,13
652,376	130,19
652,611	130,79
652,846	132,66
653,081	131,11
653,315	128,75
653,55	130,03
653,785	130,28
654,019	130,31
654,254	128,67
654,488	129,25
654,723	124,99
654,958	122,16
655,192	119,48
655,427	115
655,661	115,58
655,896	116,74
656,13	117,43
656,364	113,77
656,599	109,67
656,833	116,97
657,068	118,18
657,302	119,01
657,536	116,12
657,771	116,04
658,005	117,81
658,239	119,27
658,474	115,22
658,708	116,97
658,942	115,08
659,176	113,54
659,41	109,58
659,645	109,68
659,879	106,83
660,113	101,7
660,347	100,55
660,581	97,85
660,815	97,42
661,049	93,77
661,283	91,4
661,517	89,15
661,751	86,56
661,985	86,1
662,219	87,63
662,453	85,36
662,687	86,28
662,921	82,92
663,155	80,72
663,389	74,89
663,622	72,66
663,856	75,04
664,09	65,22
664,324	62,53
664,558	61,6
664,791	60,68
665,025	60,17
665,259	59,52
665,492	58,49
665,726	61,2
665,96	61,92
666,193	62,03
666,427	62,4
666,661	61,06
666,894	57,04
667,128	57,61
667,361	59,08
667,595	59,57
667,828	58,83
668,062	55,87
668,295	56,18
668,529	54,64
668,762	55,19
668,995	53,9
669,229	57,31
669,462	56,32
669,695	57,29
669,929	55,91
670,162	55,49
670,395	55
670,629	55,71
670,862	55,96
671,095	52,28
671,328	52,6
671,561	49,8
671,795	50,4
672,028	51,53
672,261	51,76
672,494	51,08
672,727	48,51
672,96	49,07
673,193	46,31
673,426	48,61
673,659	48,71
673,892	48,56
674,125	48,47
674,358	46,25
674,591	44,43
674,824	42,59
675,057	40,74
675,29	41,1
675,523	42,33
675,755	41,82
675,988	42,2
676,221	45,09
676,454	42,99
676,687	44,6
676,919	43,38
677,152	42,79
677,385	43,18
677,617	41,37
677,85	42,62
678,083	41,64
678,315	44,35
678,548	43,76
678,78	43,24
679,013	42,78
679,246	43,51
679,478	43,01
679,711	40,65
679,943	42,19
680,175	39,16
680,408	42,05
680,64	38,8
680,873	40,79
681,105	40,9
681,338	44,81
681,57	44,37
681,802	46,21
682,034	46,1
682,267	50,06
682,499	50,6
682,731	47,74
682,964	46,46
683,196	44,47
683,428	42,1
683,66	39,12
683,892	39,99
684,124	41,93
684,356	45,33
684,589	44,04
684,821	42,86
685,053	41,31
685,285	43,19
685,517	43,77
685,749	42,59
685,981	43,75
686,213	43,68
686,445	43,81
686,676	40,61
686,908	41,41
687,14	40,51
687,372	39,92
687,604	36,3
687,836	36,17
688,068	34,32
688,299	35,02
688,531	32,45
688,763	36,5
688,995	33,67
689,226	37,38
689,458	35,17
689,69	32,31
689,921	32,54
690,153	32,87
690,384	34,27
690,616	34,54
690,848	36,7
691,079	33,38
691,311	29,35
691,542	26,66
691,774	24,78
692,005	27,94
692,237	31,49
692,468	28,82
692,699	27,43
692,931	26,8
693,162	25,03
693,393	23,05
693,625	21,21
693,856	22,76
694,087	23,77
694,319	23,15
694,55	23,95
694,781	23,49
695,012	22,69
695,243	21,78
695,475	19,97
695,706	20
695,937	19,6
696,168	19,7
696,399	17,54
696,63	17,39
696,861	18,75
697,092	23,01
697,323	26,37
697,554	26,75
697,785	26,28
698,016	27,87
698,247	26,67
698,478	29,25
698,709	30,4
698,94	33,86
699,171	33,19
699,401	29,35
699,632	29,43
699,863	26,41
700,094	26,97
700,325	28,43
700,555	28,87
700,786	30,24
701,017	28,94
701,247	27,69
701,478	28,4
701,709	27,47
701,939	26,71
702,17	28,97
702,401	31,09
702,631	32,91
702,862	30,88
703,092	26,25
703,323	28,69
703,553	28,18
703,784	28,02
704,014	28,15
704,244	22,36
704,475	18,96
704,705	18,61
704,936	17,9
705,166	15,34
705,396	16,39
705,627	16,79
705,857	16,85
706,087	16,05
706,317	14,02
706,548	11,58
706,778	11,51
707,008	13,25
707,238	12,92
707,468	12,32
707,698	11,13
707,928	10,65
708,158	10,46
708,389	9,5
708,619	7,85
708,849	6,44
709,079	7,09
709,309	4,67
709,539	0,39
709,768	-0,33
709,998	2,6
710,228	3,04
710,458	2,18
710,688	0,02
710,918	-0,08
711,148	-1,07
711,378	0,07
711,607	-0,14
711,837	0,41
712,067	1,37
712,297	2,2
712,526	2,8
712,756	3,63
712,986	0,21
713,215	-1,54
713,445	-1,98
713,674	0,02
713,904	-0,33
714,134	2,2
714,363	1,91
714,593	-0,15
714,822	-1,18
715,052	-2,09
715,281	-1,17
715,511	-1,75
715,74	-1,95
715,969	-1,9
716,199	-2,14
716,428	-1,48
716,657	-0,38
716,887	2,18
717,116	-0,25
717,345	3,05
717,575	2,46
717,804	3,72
718,033	2,29
718,262	1,91
718,492	3,11
718,721	4,03
718,95	3,61
719,179	1,82
719,408	1,65
719,637	-0,92
719,866	-2,4
720,095	-1,02
720,324	-1,29
720,553	-4,34
720,782	-5,74
721,011	-5,17
721,24	-7,63
721,469	-8,04
721,698	-6,76
721,927	-5,72
722,156	-6,27
722,385	-7,07
722,613	-3,02
722,842	-2,22
723,071	0,42
723,3	1,94
723,529	0,5
723,757	0,14
723,986	-3,39
724,215	-4,37
724,443	-5,42
724,672	-3,56
724,901	-3,43
725,129	-0,31
725,358	3,24
725,586	0,27
725,815	0,95
726,043	-1,24
726,272	-3,62
726,5	-4,5
726,729	-3,93
726,957	-8,34
727,186	-9,7
727,414	-9,25
727,642	-6,75
727,871	-5,32
728,099	-5,66
728,327	-6,44
728,556	-5,17
728,784	-4,05
729,012	-6,77
729,241	-5,7
729,469	-7,11
729,697	-11,81
729,925	-10,67
730,153	-12,3
730,381	-13,53
730,61	-12,98
730,838	-14,79
731,066	-15,14
731,294	-14,09
731,522	-15,74
731,75	-19,9
731,978	-20,7
732,206	-24,15
732,434	-26,37
732,662	-23,7
732,89	-26,45
733,118	-27,4
733,346	-26,03
733,573	-24,81
733,801	-24,78
734,029	-16,95
734,257	-16,1
734,485	-11,69
734,712	-10,32
734,94	-13,18
735,168	-10,33
735,396	-10,37
735,623	-11,41
735,851	-10,28
736,078	-6,88
736,306	-5,23
736,534	-5,27
736,761	-3,84
736,989	-7,36
737,216	-7,53
737,444	-8,59
737,671	-6,65
737,899	-1,26
738,126	-1,1
738,354	-1,69
738,581	-1,85
738,809	-0,42
739,036	-3,32
739,263	-2,02
739,491	-4,93
739,718	-5,85
739,945	-0,72
740,173	2,64
740,4	1,91
740,627	0,47
740,854	-0,28
741,081	-3,75
741,309	-6,1
741,536	-11,39
741,763	-11,83
741,99	-9,67
742,217	-9,24
742,444	-8,85
742,671	-7,3
742,898	-8,17
743,125	-11,26
743,352	-15,19
743,579	-13,66
743,806	-14,31
744,033	-10,17
744,26	-10,1
744,487	-10,85
744,714	-10,98
744,941	-13,38
745,167	-10,04
745,394	-11,81
745,621	-12,11
745,848	-11,84
746,075	-8,75
746,301	-5,62
746,528	-0,47
746,755	-2,16
746,981	-4,34
747,208	-3,33
747,435	-0,74
747,661	-0,8
747,888	0,36
748,114	-0,82
748,341	2,85
748,567	5,26
748,794	3,11
749,02	2,22
749,247	-0,53
749,473	-1,82
749,7	-3,31
749,926	-4,67
750,152	0,05
750,379	0,97
750,605	0,74
750,831	0,72
751,058	-1,73
751,284	-2,23
751,51	0,68
751,737	0,76
751,963	0,64
752,189	0,78
752,415	1,03
752,641	1,57
752,867	0,2
753,094	-1,28
753,32	-2,28
753,546	-4,83
753,772	-3,03
753,998	-4,21
754,224	-4,89
754,45	-5,3
754,676	-5,04
754,902	-5,46
755,128	-5,26
755,354	-7,26
755,579	-6,24
755,805	-4,56
756,031	-5,94
756,257	-7,3
756,483	-7,88
756,709	-9,34
756,934	-9,34
757,16	-12,93
757,386	-13,52
757,612	-16,46
757,837	-17,44
758,063	-14,85
758,289	-12,99
758,514	-14,98
758,74	-17,13
758,965	-19,97
759,191	-20,11
759,416	-17,37
759,642	-15,89
759,868	-15,16
760,093	-12,18
760,318	-14,99
760,544	-14,11
760,769	-14,88
760,995	-14,99
761,22	-16,11
761,445	-16,13
761,671	-15,01
761,896	-13,08
762,121	-13,63
762,347	-13,59
762,572	-16,87
762,797	-17,12
763,022	-15,6
763,248	-10,36
763,473	-8,66
763,698	-9,17
763,923	-7,84
764,148	-7,17
764,373	-6,46
764,598	-4,27
764,823	-2,31
765,048	-5,15
765,273	-8,33
765,498	-9,03
765,723	-9,46
765,948	-8,33
766,173	-9,89
766,398	-10,92
766,623	-14,29
766,848	-14,18
767,073	-16,33
767,298	-15,14
767,522	-16,4
767,747	-14,88
767,972	-16,44
768,197	-15,53
768,421	-15,37
768,646	-18,34
768,871	-20,91
769,095	-20,37
769,32	-18,57
769,545	-18,7
769,769	-17,3
769,994	-15,77
770,218	-19
770,443	-18,26
770,667	-16,25
770,892	-16,58
771,116	-18,97
771,341	-16,54
771,565	-16,49
771,79	-16,36
772,014	-17,51
772,238	-19,58
772,463	-17,58
772,687	-17,24
772,911	-16,02
773,136	-17,54
773,36	-16,77
773,584	-15,13
773,808	-16,13
774,033	-15,4
774,257	-14,94
774,481	-14,65
774,705	-16,25
774,929	-16,05
775,153	-16,42
775,377	-14,86
775,602	-14,47
775,826	-12,5
776,05	-10,72
776,274	-11,97
776,498	-11,61
776,722	-13,15
776,945	-12,95
777,169	-14,21
777,393	-16,06
777,617	-16,64
777,841	-16,21
778,065	-13,26
778,289	-14,81
778,512	-15,72
778,736	-15,54
778,96	-15,82
779,184	-11,96
779,407	-13,6
779,631	-12,71
779,855	-14,85
780,078	-12,8
780,302	-13,62
780,526	-15,9
780,749	-15,51
780,973	-14,22
781,196	-14,55
781,42	-18,05
781,643	-17,97
781,867	-16,57
782,09	-18,47
782,314	-19,59
782,537	-19,56
782,76	-20,2
782,984	-19,94
783,207	-20,12
783,431	-20,57
783,654	-21,78
783,877	-23,74
784,1	-25,2
784,324	-25,26
784,547	-25,5
784,77	-29,17
784,993	-29,69
785,216	-31,75
785,44	-30,43
785,663	-32,57
785,886	-27,89
786,109	-27,86
786,332	-26,92
786,555	-26,97
786,778	-25,32
787,001	-26,39
787,224	-25,54
787,447	-23,85
787,67	-22,5
787,893	-22,5
788,116	-22,38
788,339	-20,15
788,561	-20,6
788,784	-24,23
789,007	-26,18
789,23	-26,93
789,453	-27,69
789,675	-30,17
789,898	-31,91
790,121	-33,45
790,344	-31,95
790,566	-29,92
790,789	-29,73
791,012	-28,2
791,234	-25,93
791,457	-22,71
791,679	-20,75
791,902	-20,96
792,124	-20,08
792,347	-22,49
792,569	-21,46
792,792	-26,04
793,014	-22,75
793,237	-21,46
793,459	-21,45
793,681	-19,98
793,904	-19,48
794,126	-20,77
794,348	-20,13
794,571	-18,72
794,793	-20,26
795,015	-18,39
795,237	-17,88
795,46	-16,49
795,682	-14,68
795,904	-11
796,126	-13,06
796,348	-12,94
796,57	-9,04
796,792	-7,86
797,014	-4
797,237	-2,88
797,459	-2,98
797,681	-0,95
797,903	-2,47
798,124	-1,78
798,346	9,75
798,568	11,99
798,79	15,93
799,012	17,75
799,234	19,71
799,456	19,55
799,678	22,76
799,899	19,55
800,121	16,99
800,343	17,9
800,565	17,47
800,786	17,36
801,008	18,4
801,23	18,43
801,451	18,14
801,673	16,5
801,895	14,35
802,116	15,55
802,338	16,49
802,559	16,67
802,781	14,28
803,002	18,04
803,224	21,24
803,445	18,79
803,667	19,29
803,888	16,65
804,109	16,58
804,331	17,52
804,552	16,92
804,773	19,77
804,995	17,18
805,216	1,64
805,437	-1,97
805,658	-5,16
805,88	-7,18
806,101	-7,09
806,322	-6,31
806,543	-8,33
806,764	-10,51
806,985	-9,07
807,207	-9,49
807,428	-9,86
807,649	-12,81
807,87	-14,22
808,091	-14,49
808,312	-14,27
808,533	-8,81
808,754	-6,46
808,975	-8,5
809,195	-8,11
809,416	-6,7
809,637	-7,45
809,858	-10,88
810,079	-13,54
810,3	-11,06
810,52	-11,93
810,741	-13,45
810,962	-16,09
811,183	-18,87
811,403	-18,19
811,624	-17,86
811,845	-16,51
812,065	-14,1
812,286	-13,58
812,506	-12,44
812,727	-12,52
812,948	-10,92
813,168	-9,46
813,389	-10,34
813,609	-9
813,83	-10,19
814,05	-11,25
814,27	-10,64
814,491	-6,79
814,711	-8,03
814,931	-11,19
815,152	-11,89
815,372	-15,95
815,592	-17,12
815,813	-17,89
816,033	-18,62
816,253	-18,23
816,473	-17,5
816,694	-16,42
816,914	-14,11
817,134	-15,87
817,354	-17,67
817,574	-16,51
817,794	-16,12
818,014	-15,7
818,234	-17,1
818,454	-19,66
818,674	-21,24
818,894	-22,84
819,114	-20,12
819,334	-20,45
819,554	-16,92
819,774	-14,99
819,994	-16,94
820,214	-16,78
820,433	-16,26
820,653	-15,12
820,873	-13,75
821,093	-13,62
821,312	-15,96
821,532	-12,35
821,752	-8,74
821,972	-11,04
822,191	-8,16
822,411	-9,48
822,63	-8,6
822,85	-7,82
823,07	-11,21
823,289	-10,43
823,509	-11,14
823,728	-10,89
823,948	-11,4
824,167	-12,32
824,387	-12,65
824,606	-11,1
824,825	-12,27
825,045	-11,8
825,264	-12,49
825,483	-10,15
825,703	-9,39
825,922	-11,87
826,141	-13,54
826,361	-15,99
826,58	-20,17
826,799	-21,96
827,018	-21,28
827,237	-21,02
827,456	-20,2
827,676	-19,68
827,895	-19,86
828,114	-18,3
828,333	-19,65
828,552	-20,76
828,771	-18,94
828,99	-22,13
829,209	-22,07
829,428	-18,73
829,647	-19,94
829,866	-17,3
830,084	-17,58
830,303	-17,29
830,522	-17,9
830,741	-17,44
830,96	-16,5
831,179	-16,22
831,397	-18,64
831,616	-17,05
831,835	-17,68
832,053	-16,65
832,272	-18,13
832,491	-16,37
832,709	-15,83
832,928	-15,99
833,147	-15,02
833,365	-14,29
833,584	-11,63
833,802	-8,43
834,021	-7,99
834,239	-7,31
834,458	-7,54
834,676	-10,55
834,894	-11,77
835,113	-11,07
835,331	-11,1
835,55	-12,47
835,768	-10,82
835,986	-9,31
836,204	-11,8
836,423	-10,97
836,641	-11,59
836,859	-12,23
837,077	-11,26
837,296	-11,67
837,514	-13,87
837,732	-13,82
837,95	-13,43
838,168	-9,68
838,386	-10,77
838,604	-9,48
838,822	-8,96
839,04	-9,62
839,258	-10,03
839,476	-9,33
839,694	-8,44
839,912	-10,67
840,13	-10,36
840,348	-8,51
840,566	-12,29
840,783	-10,72
841,001	-12,19
841,219	-12,78
841,437	-11,37
841,655	-10,22
841,872	-11,85
842,09	-11,85
842,308	-9,84
842,525	-10,3
842,743	-9,11
842,961	-10,22
843,178	-12,51
843,396	-9,73
843,613	-9,32
843,831	-9,1
844,048	-9,91
844,266	-7,93
844,483	-8,56
844,701	-10,75
844,918	-11,83
845,136	-12,14
845,353	-14,55
845,57	-13,4
845,788	-10,96
846,005	-13,16
846,222	-13,58
846,439	-12,21
846,657	-10,52
846,874	-10,94
847,091	-12,48
847,308	-10,99
847,526	-13,47
847,743	-12,89
847,96	-13,89
848,177	-14,12
848,394	-15,84
848,611	-15,39
848,828	-16,81
849,045	-17,81
849,262	-18,49
849,479	-19,83
849,696	-21,27
849,913	-22,34
850,13	-26,88
850,347	-23,18
850,564	-23,68
850,78	-24,52
850,997	-26,38
851,214	-26,3
851,431	-25,07
851,647	-26,02
851,864	-25,87
852,081	-21,86
852,298	-24,95
852,514	-25,93
852,731	-24,46
852,948	-23,62
853,164	-23,58
853,381	-24,29
853,597	-25,2
853,814	-27,85
854,03	-30,35
854,247	-28,62
854,463	-29,46
854,68	-29,34
854,896	-27,37
855,113	-25,87
855,329	-25,97
855,545	-22,46
855,762	-23,53
855,978	-25,05
856,194	-26,11
856,411	-22,22
856,627	-19,72
856,843	-19,38
857,059	-18,42
857,275	-20,11
857,492	-19,35
857,708	-16,23
857,924	-14,49
858,14	-11
858,356	-12,2
858,572	-11,67
858,788	-13,88
859,004	-12,26
859,22	-14,44
859,436	-15,07
859,652	-15,31
859,868	-17,3
860,084	-17,45
860,3	-17,06
860,516	-15,98
860,731	-15,75
860,947	-17,83
861,163	-17,16
861,379	-17,29
861,595	-18,18
861,81	-17,32
862,026	-16,51
862,242	-16,36
862,457	-14,76
862,673	-13,9
862,889	-14,22
863,104	-15,26
863,32	-15,33
863,535	-13,52
863,751	-19,23
863,966	-15,36
864,182	-13,29
864,397	-15,75
864,613	-17,5
864,828	-21,05
865,044	-19,9
865,259	-18,02
865,474	-19,32
865,69	-17,59
865,905	-16,47
866,12	-18,42
866,336	-19,78
866,551	-18,27
866,766	-18,45
866,981	-19,63
867,196	-19,2
867,412	-17,86
867,627	-17,43
867,842	-18,2
868,057	-18,18
868,272	-17,61
868,487	-18,77
868,702	-21,51
868,917	-23,31
869,132	-23,53
869,347	-21,38
869,562	-22,03
869,777	-21,89
869,992	-22,66
870,207	-22,96
870,422	-21,02
870,636	-23,68
870,851	-26,18
871,066	-26,7
871,281	-26,07
871,495	-26,07
871,71	-23,81
871,925	-25,19
872,14	-26,01
872,354	-29,24
872,569	-28,63
872,783	-25,86
872,998	-25,84
873,213	-26,12
873,427	-24,36
873,642	-22,15
873,856	-22,53
874,071	-23,33
874,285	-24,3
874,5	-26
874,714	-26,97
874,928	-28,38
875,143	-28,16
875,357	-27,21
875,571	-29,2
875,786	-28,39
876	-26,62
876,214	-24,86
876,429	-26,92
876,643	-25,63
876,857	-24,6
877,071	-24,23
877,285	-24,66
877,499	-26,08
877,714	-23,36
877,928	-21,34
878,142	-23,71
878,356	-26,36
878,57	-26,77
878,784	-24,9
878,998	-24,24
879,212	-22,74
879,426	-24,46
879,639	-22,33
879,853	-23,79
880,067	-24,71
880,281	-25,99
880,495	-23,57
880,709	-20,99
880,922	-20,53
881,136	-19,6
881,35	-16,91
881,564	-16,11
881,777	-18,68
881,991	-17,21
882,205	-13,55
882,418	-14,4
882,632	-17,27
882,845	-18,42
883,059	-17,84
883,273	-18,13
883,486	-20,16
883,7	-18,89
883,913	-19,12
884,126	-17,86
884,34	-21,18
884,553	-24,14
884,767	-18,94
884,98	-19,01
885,193	-21,13
885,407	-22,09
885,62	-19,57
885,833	-20,85
886,046	-19,74
886,26	-21,49
886,473	-21,95
886,686	-21,37
886,899	-19,46
887,112	-20,61
887,326	-23,23
887,539	-22,24
887,752	-20,35
887,965	-24,21
888,178	-23,25
888,391	-21,79
888,604	-22,15
888,817	-22,38
889,03	-19,82
889,243	-20,7
889,455	-23,22
889,668	-22,42
889,881	-20,45
890,094	-20,26
890,307	-22,69
890,52	-21,3
890,732	-20,39
890,945	-20,4
891,158	-19,37
891,37	-22,42
891,583	-21,92
891,796	-18,83
892,008	-19,58
892,221	-22,3
892,434	-25,12
892,646	-26,07
892,859	-26,08
893,071	-23,8
893,284	-22,39
893,496	-24,07
893,709	-25,49
893,921	-23,28
894,133	-23,88
894,346	-24,74
894,558	-22,76
894,771	-22,92
894,983	-20,11
895,195	-18,8
895,407	-19,56
895,62	-23,92
895,832	-22,96
896,044	-19,64
896,256	-21,11
896,468	-22,47
896,681	-20,96
896,893	-19,81
897,105	-19,64
897,317	-20,83
897,529	-18,84
897,741	-18,36
897,953	-15,77
898,165	-17
898,377	-18,85
898,589	-17,52
898,801	-17,69
899,013	-14,81
899,224	-10,97
899,436	-10,49
899,648	-11,29
899,86	-12,58
900,072	-10,05
900,283	-8,52
900,495	-8,15
900,707	-8,01
900,919	-11,02
901,13	-10,34
901,342	-11,91
901,554	-13,92
901,765	-13,91
901,977	-16,46
902,188	-15,96
902,4	-16,12
902,611	-16,78
902,823	-16,92
903,034	-20,15
903,246	-21,57
903,457	-23,85
903,669	-25,29
903,88	-24,84
904,091	-25,13
904,303	-24,81
904,514	-26,33
904,725	-23,43
904,936	-22,33
905,148	-22,26
905,359	-19,75
905,57	-21,23
905,781	-24,2
905,992	-24,32
906,204	-24,69
906,415	-25,62
906,626	-27,95
906,837	-24,98
907,048	-25,89
907,259	-26,48
907,47	-26,03
907,681	-27,34
907,892	-25,26
908,103	-25,87
908,314	-27,24
908,525	-24,21
908,735	-23,37
908,946	-26,44
909,157	-26,24
909,368	-24,95
909,579	-21,74
909,789	-23,29
910	-23,29
910,211	-21,5
910,421	-21,86
910,632	-19,86
910,843	-21,82
911,053	-18,23
911,264	-18,85
911,475	-20
911,685	-19,85
911,896	-18,79
912,106	-16,57
912,317	-18,7
912,527	-16,47
912,737	-16,82
912,948	-16,67
913,158	-16,27
913,369	-20,7
913,579	-19,79
913,789	-18,76
914	-14,9
914,21	-13,62
914,42	-14,31
914,63	-15,07
914,841	-14,56
915,051	-13,18
915,261	-13,82
915,471	-9,32
915,681	-9,37
915,891	-8,45
916,101	-10,32
916,311	-10,11
916,521	-7,71
916,731	-6,38
916,941	-4,91
917,151	-6,53
917,361	-2,72
917,571	-6,61
917,781	-6,16
917,991	-7,24
918,201	-6,92
918,411	-11,14
918,621	-11,4
918,83	-9,61
919,04	-12,45
919,25	-9,77
919,46	-7,16
919,669	-9,36
919,879	-8,33
920,089	-9,93
920,298	-10,8
920,508	-11,01
920,717	-11,54
920,927	-13,11
921,136	-11,19
921,346	-14,48
921,555	-17,27
921,765	-16,26
921,974	-19,23
922,184	-22,91
922,393	-22,69
922,603	-24,14
922,812	-21,58
923,021	-23,15
923,23	-25,61
923,44	-28,48
923,649	-29,14
923,858	-32,46
924,067	-32,57
924,277	-34,83
924,486	-32,46
924,695	-32,61
924,904	-30,2
925,113	-31,43
925,322	-30,8
925,531	-28,84
925,74	-31,76
925,949	-33,75
926,158	-31,28
926,367	-32,84
926,576	-30,47
926,785	-30,95
926,994	-32,87
927,203	-32,43
927,412	-32,97
927,621	-33,95
927,83	-30,54
928,038	-31,01
928,247	-30,99
928,456	-30,2
928,665	-28,53
928,873	-27,96
929,082	-25,72
929,291	-25,19
929,499	-23,19
929,708	-23,83
929,916	-21,52
930,125	-22,08
930,333	-21,63
930,542	-19,81
930,75	-16,9
930,959	-17,37
931,167	-18,84
931,376	-20,53
931,584	-18,34
931,793	-16,99
932,001	-19,56
932,209	-21,39
932,418	-22,75
932,626	-23,94
932,834	-24,08
933,042	-28,5
933,251	-27,94
933,459	-27,04
933,667	-26,96
933,875	-24,83
934,083	-24,27
934,291	-23,07
934,499	-23,56
934,707	-24,38
934,915	-24,9
935,123	-22,37
935,331	-23,82
935,539	-25,91
935,747	-27,48
935,955	-29,05
936,163	-28,98
936,371	-29,37
936,579	-27,36
936,787	-26,62
936,995	-27,25
937,202	-30,75
937,41	-29,93
937,618	-30,13
937,826	-28,29
938,033	-32,59
938,241	-35,17
938,449	-32,83
938,656	-29,29
938,864	-30,39
939,071	-30,14
939,279	-26,26
939,486	-22,67
939,694	-22,82
939,901	-24,66
940,109	-23,63
940,316	-24,82
940,524	-25,42
940,731	-26,78
940,939	-23,89
941,146	-24,26
941,353	-24,89
941,561	-25,84
941,768	-26,66
941,975	-25,19
942,182	-25,29
942,39	-24,25
942,597	-21,86
942,804	-22,53
943,011	-24,02
943,218	-23,09
943,425	-23,77
943,632	-22,56
943,839	-23,87
944,046	-24,33
944,253	-24,74
944,46	-23,74
944,667	-20,5
944,874	-20,09
945,081	-19,38
945,288	-17,06
945,495	-15,22
945,702	-16,91
945,909	-19,52
946,115	-19,22
946,322	-19,76
946,529	-21,79
946,736	-21,94
946,942	-20,08
947,149	-21,83
947,356	-25,01
947,562	-25,19
947,769	-24,3
947,976	-24,81
948,182	-21,76
948,389	-22,68
948,595	-23,26
948,802	-23,57
949,008	-25,32
949,215	-23,26
949,421	-23,22
949,628	-25,87
949,834	-25,74
950,04	-25,57
950,247	-21,58
950,453	-20,09
950,659	-21,09
950,865	-19,51
951,072	-23,66
951,278	-21,87
951,484	-22,56
951,69	-25,21
951,896	-27,57
952,103	-28,84
952,309	-27,24
952,515	-26,69
952,721	-23,73
952,927	-22,97
953,133	-23,43
953,339	-25,23
953,545	-24,61
953,751	-23,62
953,957	-21,58
954,163	-23,18
954,369	-23,49
954,574	-27,98
954,78	-28,23
954,986	-27,05
955,192	-24,3
955,398	-24,11
955,603	-26,75
955,809	-26,15
956,015	-23,71
956,22	-23,89
956,426	-23,4
956,632	-27,56
956,837	-27,24
957,043	-27,13
957,248	-26,34
957,454	-25,78
957,66	-27,87
957,865	-29,03
958,07	-27,41
958,276	-27,27
958,481	-28,03
958,687	-29,05
958,892	-28,78
959,097	-29,2
959,303	-28,65
959,508	-29,44
959,713	-29,17
959,919	-29,47
960,124	-29,88
960,329	-29,65
960,534	-26,19
960,739	-24,55
960,945	-21,19
961,15	-19,95
961,355	-21,66
961,56	-26,15
961,765	-28,18
961,97	-26,99
962,175	-25,1
962,38	-29,1
962,585	-27,49
962,79	-28,66
962,995	-28,94
963,2	-30,3
963,404	-29,83
963,609	-33,36
963,814	-33,48
964,019	-36,16
964,224	-37,53
964,428	-36,77
964,633	-35,76
964,838	-33,38
965,042	-32,88
965,247	-34,52
965,452	-34,12
965,656	-32,94
965,861	-32,68
966,066	-33,06
966,27	-30,74
966,475	-25,96
966,679	-30,87
966,884	-30,96
967,088	-33,39
967,292	-33,59
967,497	-32,61
967,701	-32,93
967,906	-30,71
968,11	-26,36
968,314	-23,37
968,518	-25,03
968,723	-20,72
968,927	-19,57
969,131	-19,88
969,335	-17,52
969,539	-16,98
969,744	-15,76
969,948	-11,19
970,152	-8,82
970,356	-7,85
970,56	-7,3
970,764	-8,26
970,968	-5,72
971,172	-6,78
971,376	-6,3
971,58	-6,62
971,784	-7,2
971,988	-9,49
972,192	-6,96
972,395	-7,41
972,599	-10,44
972,803	-12,98
973,007	-9,31
973,21	-8,52
973,414	-8,48
973,618	-9,86
973,822	-10,35
974,025	-8,95
974,229	-9,3
974,432	-13,75
974,636	-15,46
974,84	-13,97
975,043	-15,07
975,247	-17,8
975,45	-17,37
975,654	-16,76
975,857	-15,32
976,06	-16,99
976,264	-20,25
976,467	-20,47
976,671	-20,45
976,874	-19,06
977,077	-19,22
977,28	-21,14
977,484	-23,71
977,687	-24,49
977,89	-21,82
978,093	-22,16
978,297	-20,24
978,5	-21,91
978,703	-21,08
978,906	-19,27
979,109	-19,83
979,312	-18,76
979,515	-19,98
979,718	-19,45
979,921	-18,62
980,124	-20,47
980,327	-21,19
980,53	-21,43
980,733	-19,03
980,936	-17,71
981,138	-19,39
981,341	-19,25
981,544	-19,15
981,747	-18,64
981,949	-19,91
982,152	-18,8
982,355	-18,35
982,558	-16,05
982,76	-18,53
982,963	-19,8
983,165	-21,15
983,368	-21,07
983,571	-21,23
983,773	-16,96
983,976	-16,12
984,178	-17,29
984,381	-17,44
984,583	-20,4
984,785	-19,34
984,988	-18,01
985,19	-17,35
985,392	-18,4
985,595	-21,7
985,797	-21,66
985,999	-18,75
986,202	-17,98
986,404	-18,77
986,606	-16,42
986,808	-17,8
987,01	-16,47
987,212	-18,02
987,415	-18,7
987,617	-18,05
987,819	-18,62
988,021	-17,92
988,223	-20,89
988,425	-23,06
988,627	-23,3
988,829	-26,59
989,031	-24,12
989,232	-23,63
989,434	-22,29
989,636	-22,6
989,838	-23,09
990,04	-22,89
990,242	-24,62
990,443	-25,07
990,645	-23,3
990,847	-20,98
991,048	-21,87
991,25	-23,29
991,452	-23,28
991,653	-24,61
991,855	-25,26
992,057	-27,67
992,258	-28,68
992,46	-28,42
992,661	-26,68
992,863	-27,73
993,064	-26,4
993,265	-28,35
993,467	-29,65
993,668	-28,17
993,87	-27,94
994,071	-27,45
994,272	-27,89
994,473	-25,63
994,675	-24,27
994,876	-23,12
995,077	-22,78
995,278	-22,49
995,48	-22,38
995,681	-23,97
995,882	-21,98
996,083	-21,75
996,284	-24,7
996,485	-23,45
996,686	-25,81
996,887	-26,75
997,088	-30,46
997,289	-31,69
997,49	-32,1
997,691	-31,62
997,892	-30,44
998,092	-25,82
998,293	-24,23
998,494	-25,03
998,695	-25,9
998,896	-24,49
999,096	-24,39
999,297	-24,53
999,498	-25,65
999,698	-27,96
999,899	-29,84
1000,1	-31,68
1000,3	-31,69
1000,501	-31,92
1000,701	-31,68
1000,902	-32,14
1001,102	-32,99
1001,303	-30,29
1001,503	-32,71
1001,704	-30,44
1001,904	-31,26
1002,105	-32,64
1002,305	-31,71
1002,505	-32,74
1002,706	-32,44
1002,906	-31,04
1003,106	-32,16
1003,306	-29,29
1003,507	-27,63
1003,707	-28,41
1003,907	-26,41
1004,107	-25,29
1004,307	-25,36
1004,507	-23,28
1004,707	-22
1004,907	-24,08
1005,107	-23,62
1005,308	-24,32
1005,507	-25,78
1005,707	-22,99
1005,907	-22,7
1006,107	-21,48
1006,307	-20,96
1006,507	-21,35
1006,707	-20,63
1006,907	-17,93
1007,106	-19,83
1007,306	-20,17
1007,506	-20,65
1007,706	-20,26
1007,905	-22,59
1008,105	-21
1008,305	-21,68
1008,504	-21,95
1008,704	-16,28
1008,903	-16,36
1009,103	-13,45
1009,303	-14,28
1009,502	-15,05
1009,702	-16,34
1009,901	-15,35
1010,1	-19,01
1010,3	-17,25
1010,499	-20,63
1010,699	-22,6
1010,898	-24,85
1011,097	-22,84
1011,296	-22,94
1011,496	-23,35
1011,695	-22,62
1011,894	-23,66
1012,093	-20,11
1012,293	-20,32
1012,492	-20,33
1012,691	-19,44
1012,89	-20,13
1013,089	-24,98
1013,288	-22,53
1013,487	-21,87
1013,686	-21,92
1013,885	-23,18
1014,084	-22,62
1014,283	-22,9
1014,482	-22,72
1014,681	-24,9
1014,88	-30,68
1015,078	-31,16
1015,277	-34,47
1015,476	-35,28
1015,675	-34,58
1015,873	-33,35
1016,072	-34,94
1016,271	-30,62
1016,47	-34,74
1016,668	-31,88
1016,867	-33,35
1017,065	-34,49
1017,264	-35,44
1017,463	-36,87
1017,661	-37
1017,86	-36,92
1018,058	-36,28
1018,256	-38,07
1018,455	-38,69
1018,653	-37,46
1018,852	-37,55
1019,05	-39,4
1019,248	-39,63
1019,447	-41,46
1019,645	-42,49
1019,843	-44,46
1020,041	-43,55
1020,24	-42,64
1020,438	-39,34
1020,636	-39,23
1020,834	-40,13
1021,032	-37,7
1021,23	-38,07
1021,428	-36,15
1021,626	-31,93
1021,824	-32,5
1022,022	-33,64
1022,22	-31,9
1022,418	-32,99
1022,616	-33,23
1022,814	-34,52
1023,012	-33,89
1023,21	-33,16
1023,408	-34
1023,606	-34,95
1023,803	-30,39
1024,001	-30,59
1024,199	-34,36
1024,397	-33
1024,594	-33,81
1024,792	-35,88
1024,99	-33,98
1025,187	-33,74
1025,385	-29,19
1025,582	-28,08
1025,78	-28,17
1025,977	-26,03
1026,175	-23,78
1026,372	-25,06
1026,57	-28,46
1026,767	-26,01
1026,965	-24,82
1027,162	-25,02
1027,359	-25,32
1027,557	-24,66
1027,754	-28,76
1027,951	-29,54
1028,148	-27,1
1028,346	-28,11
1028,543	-29,53
1028,74	-28,74
1028,937	-31,04
1029,134	-31,21
1029,331	-31,17
1029,528	-30,49
1029,725	-29,98
1029,923	-32,13
1030,12	-28,05
1030,317	-24,78
1030,513	-22,67
1030,71	-20,27
1030,907	-18,55
1031,104	-19,6
1031,301	-19,67
1031,498	-20,31
1031,695	-21,74
1031,892	-21,58
1032,088	-22,23
1032,285	-24,53
1032,482	-24,85
1032,678	-26,88
1032,875	-29,66
1033,072	-29,26
1033,268	-28
1033,465	-28,2
1033,662	-31,41
1033,858	-30,02
1034,055	-28,99
1034,251	-27,54
1034,448	-27,12
1034,644	-28,72
1034,84	-27,32
1035,037	-24,86
1035,233	-25,29
1035,43	-22,33
1035,626	-21,79
1035,822	-22,23
1036,019	-24,46
1036,215	-28,67
1036,411	-29,74
1036,607	-32,44
1036,803	-34,98
1037	-35,13
1037,196	-37,24
1037,392	-37,46
1037,588	-39,96
1037,784	-39,19
1037,98	-40,04
1038,176	-39,96
1038,372	-40,54
1038,568	-39,31
1038,764	-36,19
1038,96	-34,12
1039,156	-36,14
1039,352	-37,6
1039,547	-34,95
1039,743	-34,17
1039,939	-31,83
1040,135	-31,54
1040,331	-32,73
1040,526	-30,89
1040,722	-32,03
1040,918	-32,8
1041,113	-36,36
1041,309	-36,29
1041,505	-40,28
1041,7	-40,41
1041,896	-39,47
1042,091	-38,82
1042,287	-37,96
1042,482	-37,6
1042,678	-37,93
1042,873	-36,72
1043,069	-37,87
1043,264	-37,19
1043,459	-36,02
1043,655	-35
1043,85	-34,84
1044,045	-32,89
1044,24	-33,63
1044,436	-31,71
1044,631	-31,94
1044,826	-33,58
1045,021	-36,24
1045,216	-32,43
