Data from led_4000k_2_FLMT021711__23__17-35-24-669.txt Node

Date: Tue Nov 05 17:35:24 CET 2024
User: Etudiants TP
Spectrometer: FLMT02171
Trigger mode: 0
Integration Time (sec): 1,000000E-1
Scans to average: 5
Electric dark correction enabled: true
Nonlinearity correction enabled: true
Boxcar width: 15
XAxis mode: Wavelengths
Number of Pixels in Spectrum: 3648
>>>>>Begin Spectral Data<<<<<
194,658	-63,04
194,923	-59,86
195,188	-52,77
195,453	-52,07
195,717	-44,68
195,982	-43,65
196,247	-41,5
196,512	-45,03
196,777	-43,72
197,042	-41,48
197,307	-42,24
197,572	-37,84
197,837	-39,01
198,101	-35,45
198,366	-33,4
198,631	-30,72
198,896	-25,81
199,161	-18,59
199,425	-12,09
199,69	-1,41
199,955	-1,92
200,22	-5,88
200,484	-6,12
200,749	-6,8
201,014	-6,15
201,278	-5,47
201,543	-4,81
201,807	-4,86
202,072	-4,05
202,337	-4,04
202,601	-2,89
202,866	-4,23
203,13	-2,15
203,395	-3,69
203,659	-3,89
203,924	-7,55
204,189	-6,78
204,453	-5,45
204,717	-2,29
204,982	-0,97
205,246	-1,33
205,511	2,18
205,775	0,54
206,04	6,83
206,304	5,86
206,568	8,58
206,833	8,69
207,097	10,71
207,361	12,03
207,626	15,68
207,89	15,97
208,154	16,71
208,419	19,27
208,683	19,36
208,947	21,98
209,211	22,54
209,476	23,17
209,74	23,88
210,004	23,93
210,268	25,73
210,532	28,88
210,796	28,56
211,061	29,16
211,325	28,14
211,589	26,47
211,853	27,99
212,117	29,35
212,381	29,62
212,645	29,15
212,909	29,08
213,173	27,01
213,437	28,22
213,701	27,77
213,965	29,73
214,229	24,89
214,493	24,76
214,757	23,36
215,021	21,64
215,285	25,72
215,549	28,26
215,813	26,09
216,077	25,2
216,34	26,41
216,604	25,92
216,868	26,98
217,132	27,57
217,396	26,77
217,659	27,18
217,923	23,95
218,187	23,94
218,451	20,97
218,714	17,91
218,978	18,17
219,242	20,39
219,505	20,33
219,769	21,29
220,033	20,84
220,296	21,07
220,56	22,03
220,824	19,88
221,087	21,1
221,351	21,28
221,614	21,57
221,878	24,2
222,142	20,58
222,405	20,6
222,669	21,9
222,932	18,04
223,196	16,88
223,459	13,96
223,722	13,82
223,986	13,08
224,249	12,34
224,513	13,23
224,776	14,42
225,04	13,04
225,303	12,04
225,566	11,73
225,83	12,11
226,093	15,36
226,356	13,81
226,62	13,91
226,883	15,76
227,146	16,73
227,409	16,05
227,673	16,07
227,936	15,52
228,199	16,21
228,462	14,17
228,725	13,37
228,989	13,82
229,252	13,61
229,515	18,12
229,778	17,57
230,041	15,4
230,304	15,78
230,567	17,07
230,83	16,15
231,093	19,12
231,356	19,58
231,619	24,43
231,882	23,07
232,145	24,17
232,408	23,01
232,671	21,5
232,934	21,27
233,197	20,39
233,46	20,48
233,723	22,54
233,986	21,02
234,249	18,14
234,512	20,24
234,775	23,56
235,037	23,68
235,3	22,7
235,563	23,01
235,826	23,35
236,089	25,95
236,351	24,69
236,614	27,7
236,877	26,85
237,14	29,2
237,402	29,6
237,665	24,01
237,928	21,43
238,19	19,07
238,453	21,58
238,716	20,69
238,978	20,94
239,241	18,29
239,503	20,24
239,766	17,13
240,029	15,08
240,291	18,35
240,554	18,17
240,816	17,47
241,079	16,32
241,341	16,71
241,604	14,12
241,866	10,46
242,129	12,06
242,391	14,11
242,653	13,44
242,916	12,95
243,178	11,46
243,441	12,79
243,703	10,99
243,965	8,59
244,228	7,79
244,49	8,05
244,752	10,22
245,015	11,61
245,277	13,03
245,539	12,86
245,801	13,95
246,064	14,51
246,326	13,92
246,588	13,24
246,85	16,35
247,112	16,93
247,374	20,58
247,637	23,24
247,899	21,12
248,161	22,42
248,423	18,35
248,685	19,37
248,947	19,83
249,209	20,51
249,471	20,61
249,733	22,02
249,995	20,88
250,257	21,3
250,519	19,48
250,781	21,3
251,043	19,3
251,305	21,12
251,567	22,48
251,829	23,29
252,091	22,97
252,353	20,09
252,615	20,73
252,876	15,73
253,138	14,05
253,4	9,39
253,662	8,63
253,924	11,37
254,185	13,8
254,447	15,21
254,709	15,8
254,971	15,53
255,232	17,61
255,494	15,51
255,756	13,23
256,017	15,08
256,279	14,49
256,541	14,15
256,802	13,66
257,064	14,84
257,326	13,58
257,587	15,28
257,849	15,59
258,11	18,17
258,372	18,42
258,633	19,64
258,895	18,64
259,156	17,89
259,418	16,1
259,679	11,05
259,941	8,59
260,202	12,8
260,464	15,6
260,725	13,81
260,987	14,69
261,248	13,49
261,509	14,97
261,771	15,18
262,032	15,01
262,293	13,51
262,555	13,01
262,816	10,89
263,077	9,23
263,338	5,37
263,6	5,58
263,861	3,73
264,122	2,45
264,383	5,53
264,645	6,93
264,906	6,66
265,167	7,19
265,428	6,11
265,689	6,08
265,95	5,05
266,211	5,86
266,473	4,98
266,734	2,39
266,995	-1,25
267,256	0,1
267,517	3,87
267,778	7,32
268,039	9,66
268,3	7,01
268,561	3,61
268,822	7,12
269,083	5,17
269,344	5,51
269,604	4,34
269,865	4,12
270,126	1,44
270,387	2,38
270,648	3,24
270,909	2,7
271,17	1,35
271,43	-1,3
271,691	-2,67
271,952	-3,48
272,213	-2,19
272,473	-4,95
272,734	-3,18
272,995	-1,83
273,256	-2,31
273,516	0,89
273,777	-0,46
274,038	1,77
274,298	0,08
274,559	-0,22
274,82	5,49
275,08	8,82
275,341	9,82
275,601	8,08
275,862	6,75
276,122	7,39
276,383	7,31
276,643	8,98
276,904	7,27
277,164	10,34
277,425	11,27
277,685	16,21
277,946	17,4
278,206	18,93
278,467	21,95
278,727	21,71
278,987	20,93
279,248	20,93
279,508	23,94
279,768	25,52
280,029	27,34
280,289	24,76
280,549	23,54
280,81	22,11
281,07	20,42
281,33	23,31
281,59	21,29
281,851	23,61
282,111	22,77
282,371	21,66
282,631	22,27
282,891	19,94
283,151	18,34
283,412	15,34
283,672	13,4
283,932	12,95
284,192	13,55
284,452	12,3
284,712	10,65
284,972	9,71
285,232	7,53
285,492	9,38
285,752	6,87
286,012	12,22
286,272	15
286,532	11,56
286,792	10,51
287,052	13,53
287,312	13,26
287,571	11,47
287,831	12,64
288,091	10,22
288,351	11,38
288,611	16,13
288,871	16,48
289,13	16,25
289,39	10,81
289,65	12,6
289,91	8,98
290,17	11,62
290,429	14,9
290,689	12,44
290,949	10,39
291,208	12,56
291,468	16,7
291,728	18,32
291,987	20,19
292,247	17,41
292,506	19,82
292,766	23,18
293,026	22,75
293,285	24,99
293,545	27,42
293,804	26,93
294,064	24,26
294,323	20,49
294,583	20,73
294,842	22,19
295,102	22,36
295,361	23,39
295,621	22,8
295,88	21,92
296,139	22,54
296,399	23,35
296,658	17,67
296,917	16,71
297,177	15,12
297,436	17,61
297,695	15,98
297,955	18,11
298,214	15,73
298,473	16,8
298,732	19,83
298,992	22,65
299,251	20,98
299,51	16,63
299,769	18,4
300,028	17,77
300,287	18,48
300,547	19
300,806	16,21
301,065	18,71
301,324	19,02
301,583	14,39
301,842	11,15
302,101	8,89
302,36	8,79
302,619	8,76
302,878	9,7
303,137	6,35
303,396	8,38
303,655	11,17
303,914	8,2
304,173	9,19
304,432	8,48
304,691	11,25
304,95	10,58
305,208	15,04
305,467	14,76
305,726	15,55
305,985	17,32
306,244	18,71
306,503	18,14
306,761	16,3
307,02	11,66
307,279	13,81
307,537	15,15
307,796	11,49
308,055	11,1
308,314	12,77
308,572	9,55
308,831	11,23
309,09	11,18
309,348	12,43
309,607	11,89
309,865	15,61
310,124	14,1
310,382	16,4
310,641	17,74
310,9	16,3
311,158	17,73
311,417	16,51
311,675	16,83
311,933	19,01
312,192	20,17
312,45	19,15
312,709	19,4
312,967	18,42
313,226	17,97
313,484	17,32
313,742	15,36
314,001	13,32
314,259	12,19
314,517	13,1
314,776	16,09
315,034	19,09
315,292	16,43
315,55	13,77
315,809	13,07
316,067	11,33
316,325	10,38
316,583	12,73
316,841	12,27
317,1	9,92
317,358	6,26
317,616	6,79
317,874	6,64
318,132	7,09
318,39	7,42
318,648	6,05
318,906	5,34
319,164	4,83
319,422	4,24
319,68	2,87
319,938	2,89
320,196	1,31
320,454	3,53
320,712	3,2
320,97	2,73
321,228	0,25
321,486	2,6
321,744	4,06
322,002	5,72
322,26	5,12
322,517	3,76
322,775	0,28
323,033	-0,79
323,291	0,79
323,549	4,07
323,806	7,86
324,064	8,31
324,322	10,28
324,58	8,31
324,837	8,81
325,095	8,65
325,353	10,22
325,61	12,81
325,868	11,03
326,126	13,36
326,383	11,64
326,641	10,49
326,898	12,45
327,156	12,33
327,413	12,43
327,671	12,57
327,928	14,29
328,186	15,38
328,443	13,84
328,701	17,61
328,958	19,23
329,216	20,93
329,473	18,96
329,731	18,49
329,988	17,31
330,245	18,56
330,503	19,58
330,76	19,74
331,017	22,05
331,275	20,14
331,532	19,57
331,789	16,09
332,047	15,62
332,304	12,36
332,561	13,97
332,818	13,31
333,076	15,91
333,333	18,43
333,59	17,37
333,847	19,62
334,104	17,81
334,361	17,66
334,618	17,57
334,876	15,81
335,133	16,48
335,39	14,96
335,647	16,41
335,904	13,03
336,161	11,1
336,418	12,21
336,675	8,12
336,932	9,24
337,189	7,78
337,446	8,74
337,703	7,48
337,96	4,66
338,216	5,03
338,473	3,33
338,73	4,15
338,987	3,93
339,244	6,88
339,501	5,52
339,757	6,13
340,014	8,55
340,271	10,45
340,528	9,91
340,785	13,39
341,041	11,53
341,298	7,42
341,555	7,54
341,811	5,97
342,068	3,55
342,325	3,53
342,581	5,77
342,838	6,72
343,094	6,06
343,351	5,2
343,608	2,73
343,864	4,59
344,121	6,26
344,377	3,77
344,634	3,5
344,89	2,81
345,147	2,94
345,403	0,23
345,66	1,83
345,916	3,78
346,172	3,27
346,429	1,17
346,685	-0,08
346,942	-0,13
347,198	-3,63
347,454	-3,2
347,711	-3,71
347,967	-7,51
348,223	-7,62
348,48	-6,5
348,736	-4,13
348,992	-3,62
349,248	-1,61
349,504	-1,61
349,761	-1,35
350,017	-1,04
350,273	-1,25
350,529	-2,73
350,785	-3,52
351,041	-4,22
351,297	-1,56
351,554	-3,16
351,81	-4,59
352,066	-6,79
352,322	-5,76
352,578	-5,21
352,834	-6,24
353,09	-6,04
353,346	-4,37
353,602	-5,24
353,858	-5,65
354,114	-7,18
354,369	-4,86
354,625	-1,99
354,881	-4,04
355,137	-1,5
355,393	-1,85
355,649	0,13
355,905	0,87
356,16	0,54
356,416	-0,86
356,672	-6,97
356,928	-6,77
357,183	-6,35
357,439	-6,32
357,695	-7,4
357,951	-2,37
358,206	-3,23
358,462	-3,7
358,718	-4,53
358,973	-2,94
359,229	-2,78
359,484	-1,18
359,74	0,47
359,996	0,94
360,251	4,72
360,507	4,05
360,762	4,39
361,018	5,64
361,273	2,8
361,529	3,39
361,784	3,43
362,04	4,38
362,295	2,75
362,55	1,83
362,806	4,94
363,061	4,89
363,316	5,54
363,572	4,86
363,827	8,01
364,082	5,43
364,338	6,51
364,593	5,91
364,848	6,27
365,104	4,42
365,359	6,07
365,614	6,95
365,869	3,26
366,124	5,1
366,38	4,01
366,635	5,32
366,89	7,35
367,145	7,41
367,4	10,33
367,655	11,02
367,91	12,66
368,165	9,05
368,42	5,62
368,675	7,16
368,93	8,36
369,185	6,83
369,44	7,72
369,695	10,19
369,95	9,75
370,205	10,31
370,46	9,11
370,715	6,37
370,97	7,86
371,225	9,15
371,48	11,68
371,734	11,82
371,989	12,81
372,244	13,32
372,499	15,11
372,754	15,82
373,008	11,99
373,263	8,13
373,518	9,32
373,773	8,37
374,027	4,64
374,282	6,77
374,537	7,47
374,791	7,8
375,046	5,24
375,301	4,32
375,555	3,1
375,81	4,11
376,064	6,07
376,319	10,64
376,573	8,16
376,828	4,33
377,082	9,1
377,337	5,64
377,591	1,77
377,846	2,2
378,1	4,54
378,355	5,46
378,609	6,21
378,863	3,42
379,118	3,86
379,372	2,88
379,627	-0,28
379,881	-1,39
380,135	-2,55
380,389	-2,18
380,644	-2,4
380,898	1,29
381,152	2,72
381,407	3,83
381,661	6,05
381,915	9,44
382,169	9,46
382,423	8,67
382,677	6,05
382,932	8,14
383,186	9,09
383,44	8,66
383,694	10,35
383,948	7,67
384,202	6,39
384,456	8,66
384,71	10,59
384,964	9,23
385,218	12,49
385,472	13,23
385,726	12,27
385,98	12,17
386,234	10,97
386,488	7,98
386,742	8,01
386,996	6,2
387,249	5,38
387,503	9,26
387,757	11,3
388,011	13,1
388,265	13,68
388,518	14,85
388,772	16,24
389,026	17,16
389,28	14,47
389,533	12,94
389,787	14,34
390,041	12,56
390,295	11,88
390,548	11,51
390,802	13,7
391,055	13,14
391,309	12,89
391,563	10,66
391,816	12,41
392,07	10,9
392,323	12,85
392,577	13,36
392,83	15,21
393,084	20,68
393,337	24,8
393,591	26,62
393,844	26,37
394,098	31,21
394,351	35,24
394,604	38,66
394,858	40,58
395,111	41,36
395,364	38,02
395,618	39,7
395,871	36,54
396,124	35,61
396,378	34,1
396,631	33,57
396,884	30,76
397,137	30,12
397,391	31,49
397,644	29,33
397,897	29,29
398,15	30,16
398,403	33,19
398,657	32
398,91	29,58
399,163	30,54
399,416	30,64
399,669	28,84
399,922	28,69
400,175	26,33
400,428	25,14
400,681	23,87
400,934	17,96
401,187	15,63
401,44	15,23
401,693	14
401,946	10,04
402,199	5,28
402,452	1,91
402,704	-1,62
402,957	-2,89
403,21	-1
403,463	-1,23
403,716	1,05
403,969	2,68
404,221	1,48
404,474	4,21
404,727	7,76
404,98	10,28
405,232	10,57
405,485	11,98
405,738	15,58
405,99	15,59
406,243	15,23
406,496	17,07
406,748	18,55
407,001	18,17
407,253	17,42
407,506	18,27
407,759	19,27
408,011	16,47
408,264	17,69
408,516	17,91
408,769	15,85
409,021	18,06
409,274	16,66
409,526	19,24
409,778	18,25
410,031	20,64
410,283	20,8
410,536	26,77
410,788	24,75
411,04	23,72
411,293	24,03
411,545	23,87
411,797	22,28
412,049	22,4
412,302	21,67
412,554	22,04
412,806	20,65
413,058	18,41
413,311	18,88
413,563	16,26
413,815	17,72
414,067	15,85
414,319	14,19
414,571	13,95
414,823	12,33
415,075	11,02
415,328	12,6
415,58	16,7
415,832	18,47
416,084	18,98
416,336	19,3
416,588	23,78
416,84	20,94
417,091	24,7
417,343	20,26
417,595	22,79
417,847	25,32
418,099	27,58
418,351	26,12
418,603	29,07
418,855	31,05
419,106	30,48
419,358	30,18
419,61	29,97
419,862	32,16
420,114	31,04
420,365	31,86
420,617	32,56
420,869	31,59
421,12	30,78
421,372	32,45
421,624	30,49
421,875	30,84
422,127	27,86
422,379	29,07
422,63	31,6
422,882	31,85
423,133	31,18
423,385	28,96
423,636	30,24
423,888	31,5
424,139	32,08
424,391	28,77
424,642	27,51
424,894	25,49
425,145	25,85
425,396	23,3
425,648	25,42
425,899	23,09
426,151	23,44
426,402	22,39
426,653	22,42
426,905	22,67
427,156	20,8
427,407	21,98
427,658	20,85
427,91	18,19
428,161	16,54
428,412	18,47
428,663	18,5
428,914	19,76
429,166	20,97
429,417	21,76
429,668	20,01
429,919	18,84
430,17	17,22
430,421	17,97
430,672	20,39
430,923	20,56
431,174	19,82
431,425	19,73
431,676	18,8
431,927	17,39
432,178	19,45
432,429	21,52
432,68	20,13
432,931	23,38
433,182	25,78
433,433	21,19
433,683	22,19
433,934	21,37
434,185	21,54
434,436	19,99
434,687	20,51
434,937	21,74
435,188	19,81
435,439	19,03
435,69	21,34
435,94	19,94
436,191	19,59
436,442	20,83
436,692	18,57
436,943	15,55
437,194	14,5
437,444	17,97
437,695	22,78
437,945	23,93
438,196	22,1
438,447	22,46
438,697	22,09
438,948	21,96
439,198	20,2
439,449	17,4
439,699	18,65
439,949	19,57
440,2	17,92
440,45	21,06
440,701	19,43
440,951	18,25
441,201	20,87
441,452	21,59
441,702	20,68
441,952	21,97
442,203	22,99
442,453	21,34
442,703	23,23
442,953	25,44
443,204	26,54
443,454	24,92
443,704	26,42
443,954	23,2
444,204	24,2
444,455	24,96
444,705	26,84
444,955	26,75
445,205	25,81
445,455	23,16
445,705	23,09
445,955	21,79
446,205	21,35
446,455	21,86
446,705	21,83
446,955	22,26
447,205	24,38
447,455	26,52
447,705	24,11
447,955	22,98
448,205	22,63
448,454	23,8
448,704	25,72
448,954	23,31
449,204	22,65
449,454	23,12
449,704	21,19
449,953	20,06
450,203	22,47
450,453	21
450,703	21,69
450,952	20,72
451,202	22,32
451,452	21,44
451,701	24,85
451,951	28,62
452,201	28,47
452,45	28,25
452,7	30,62
452,949	31
453,199	31,34
453,448	34,4
453,698	36,8
453,947	35,28
454,197	34,73
454,446	34,91
454,696	38,59
454,945	37,66
455,195	35,5
455,444	36,66
455,693	41,68
455,943	40,34
456,192	40,9
456,442	42,24
456,691	43,23
456,94	43,99
457,189	43,19
457,439	44,9
457,688	47,21
457,937	45,86
458,186	45,44
458,436	46,55
458,685	48,03
458,934	46,87
459,183	47,31
459,432	50,18
459,681	49,52
459,93	49,04
460,179	49,22
460,429	46,3
460,678	48,7
460,927	50,73
461,176	48,35
461,425	48,38
461,674	51,98
461,923	51,82
462,172	51,76
462,42	50,5
462,669	53,43
462,918	52,79
463,167	53,22
463,416	48,7
463,665	48,48
463,914	47,79
464,162	44,95
464,411	46,6
464,66	47,41
464,909	45,96
465,158	46,55
465,406	47,3
465,655	49,34
465,904	52,15
466,152	50,79
466,401	51,52
466,65	53,99
466,898	52,81
467,147	47,53
467,395	47,09
467,644	50,1
467,893	47,83
468,141	48,49
468,39	45,23
468,638	43,52
468,887	41,69
469,135	40,65
469,384	39,28
469,632	39,92
469,88	39,11
470,129	39,93
470,377	36,6
470,626	38,38
470,874	39,16
471,122	42,82
471,371	42,11
471,619	40,04
471,867	42,26
472,115	41,83
472,364	38,91
472,612	41,32
472,86	39,61
473,108	39,19
473,356	38,76
473,605	37,85
473,853	35,77
474,101	34,15
474,349	33,63
474,597	36,87
474,845	36,57
475,093	34,87
475,341	32,04
475,589	34,11
475,837	35,44
476,085	36,76
476,333	34,43
476,581	36,59
476,829	36,54
477,077	38,53
477,325	38,5
477,573	41,33
477,821	39,65
478,069	39,47
478,317	39,85
478,564	40,8
478,812	37,55
479,06	35,66
479,308	34,6
479,555	34,93
479,803	34,4
480,051	38,1
480,299	38,13
480,546	37,62
480,794	34,06
481,042	34,16
481,289	32,89
481,537	33,74
481,784	32,74
482,032	33,39
482,28	31,28
482,527	30,31
482,775	29,5
483,022	31,13
483,27	32,21
483,517	34,46
483,765	33,12
484,012	35,19
484,259	33,03
484,507	36,17
484,754	36,33
485,002	35,89
485,249	33,27
485,496	35,24
485,744	36,08
485,991	35,34
486,238	34,53
486,486	37,27
486,733	38,98
486,98	42,5
487,227	40,76
487,474	42,73
487,722	43,7
487,969	41,54
488,216	42,9
488,463	43,22
488,71	41,89
488,957	41,48
489,204	40,57
489,451	42,65
489,699	42,3
489,946	39,53
490,193	39,47
490,44	40,54
490,687	40,72
490,934	38,59
491,18	34,76
491,427	35,93
491,674	36,35
491,921	37,04
492,168	35,65
492,415	32,04
492,662	33,07
492,909	35,69
493,155	35,34
493,402	33,59
493,649	31,58
493,896	32,43
494,142	30,09
494,389	29,5
494,636	28,51
494,883	26,92
495,129	24,37
495,376	21,67
495,623	24
495,869	25,53
496,116	27,67
496,362	28,91
496,609	31,43
496,855	37,74
497,102	36,52
497,348	35,37
497,595	38,44
497,841	43,85
498,088	41,97
498,334	41,2
498,581	40,81
498,827	40,81
499,074	42,04
499,32	43,85
499,566	47,98
499,813	47,41
500,059	46,87
500,305	47,39
500,552	45,12
500,798	44,79
501,044	48,95
501,29	47,91
501,537	45,71
501,783	47,72
502,029	52,25
502,275	49,16
502,521	48,68
502,767	50,43
503,013	54,42
503,26	50,72
503,506	47,39
503,752	48,14
503,998	46,98
504,244	46,76
504,49	44,15
504,736	46,38
504,982	46,49
505,228	47,82
505,474	47,12
505,72	48,79
505,966	48,66
506,211	51,41
506,457	52,28
506,703	49,62
506,949	48,96
507,195	46,63
507,441	44,51
507,686	47,09
507,932	47,24
508,178	49,69
508,424	47,12
508,669	44,29
508,915	45,57
509,161	47,1
509,406	47,56
509,652	45,54
509,898	50,94
510,143	52,82
510,389	52,71
510,634	48,44
510,88	54,03
511,125	56,47
511,371	56,98
511,616	57,28
511,862	54,63
512,107	51,45
512,353	52,06
512,598	53,3
512,844	50,88
513,089	47,99
513,335	48,74
513,58	48,52
513,825	49,65
514,071	49,81
514,316	49,43
514,561	49,93
514,806	49,48
515,052	51,84
515,297	51,07
515,542	51,63
515,787	52,59
516,033	55,88
516,278	56,92
516,523	56,84
516,768	57,5
517,013	55,7
517,258	55,5
517,503	53,54
517,748	53,67
517,993	51,98
518,238	53,14
518,483	51,39
518,728	51,14
518,973	49,19
519,218	50,18
519,463	52,8
519,708	52,94
519,953	51,1
520,198	51,3
520,443	53,9
520,688	59,07
520,933	58,77
521,177	59,34
521,422	56,36
521,667	60,35
521,912	61,16
522,157	58,28
522,401	60,47
522,646	60,76
522,891	61,61
523,135	61,15
523,38	60,25
523,625	57,12
523,869	60,47
524,114	61,58
524,358	58,64
524,603	58,87
524,848	57,64
525,092	56,41
525,337	58,31
525,581	59,28
525,826	59,98
526,07	60,17
526,315	61,2
526,559	61,13
526,803	58,95
527,048	62,06
527,292	62,7
527,537	62,4
527,781	62,49
528,025	59,22
528,269	59,18
528,514	60,51
528,758	59,65
529,002	59,52
529,247	61,21
529,491	60,12
529,735	65,47
529,979	65,5
530,223	66,43
530,467	62,57
530,712	61,72
530,956	60,55
531,2	63,43
531,444	60,4
531,688	63,51
531,932	64,47
532,176	64,98
532,42	65,6
532,664	67,26
532,908	64,6
533,152	64,52
533,396	63,91
533,64	62,21
533,884	60,75
534,128	59,87
534,371	62,11
534,615	62,08
534,859	60,68
535,103	60,44
535,347	59,77
535,59	62,65
535,834	58,9
536,078	59,17
536,322	60,93
536,565	65,2
536,809	62,45
537,053	65,66
537,296	62,24
537,54	60,8
537,784	59,15
538,027	61,46
538,271	60,1
538,514	58,93
538,758	58,36
539,001	56,78
539,245	55,21
539,488	55,09
539,732	56,51
539,975	58,2
540,219	59,79
540,462	60,36
540,706	61,23
540,949	60,79
541,192	61,08
541,436	66,22
541,679	72,7
541,922	73,3
542,166	69,49
542,409	70,74
542,652	72,71
542,895	74,96
543,139	75,2
543,382	79,43
543,625	78,74
543,868	78,78
544,111	75,93
544,354	74,6
544,598	73,36
544,841	74,07
545,084	74,48
545,327	74,41
545,57	76,53
545,813	79,64
546,056	81,27
546,299	81,75
546,542	84,19
546,785	86,28
547,028	88,42
547,271	87,48
547,514	85,98
547,756	84,32
547,999	85,82
548,242	87,74
548,485	86,15
548,728	87,37
548,971	82,02
549,213	80,79
549,456	79,11
549,699	79,68
549,942	79,29
550,184	78,42
550,427	77,09
550,67	77,49
550,912	72,36
551,155	75,17
551,398	74,74
551,64	75,11
551,883	75,02
552,125	73,7
552,368	74,39
552,61	70,92
552,853	74,4
553,095	74,31
553,338	74,45
553,58	74,96
553,823	73,04
554,065	76,04
554,308	71,58
554,55	69,13
554,792	67,58
555,035	67,66
555,277	66,85
555,519	65,85
555,762	62,98
556,004	65,24
556,246	62,08
556,488	64,67
556,731	61,2
556,973	62,61
557,215	61,6
557,457	64,34
557,699	67,19
557,941	63,88
558,183	62,43
558,426	66,02
558,668	61,53
558,91	63,19
559,152	62,28
559,394	62,58
559,636	65,06
559,878	66,65
560,12	68,46
560,362	68,91
560,604	67,38
560,845	65,78
561,087	64,96
561,329	67,34
561,571	63,81
561,813	65,61
562,055	65,04
562,297	67,51
562,538	68,77
562,78	71,77
563,022	69,96
563,264	71,32
563,505	71,99
563,747	73,65
563,989	71,34
564,23	72,26
564,472	70,76
564,714	73,05
564,955	73,02
565,197	68,16
565,438	71,14
565,68	75,32
565,921	72,73
566,163	75,26
566,404	73,71
566,646	77,5
566,887	80,42
567,129	81,4
567,37	78,97
567,612	80,07
567,853	77,05
568,094	78,29
568,336	79,03
568,577	79,98
568,818	80,87
569,06	79,16
569,301	77,64
569,542	79,95
569,783	80,6
570,025	80,51
570,266	80,73
570,507	82,88
570,748	83,67
570,989	84,71
571,23	88,13
571,472	88,65
571,713	87,97
571,954	91,41
572,195	91,54
572,436	93,08
572,677	96,39
572,918	98,22
573,159	95,29
573,4	95,34
573,641	94,57
573,882	94,49
574,123	91,48
574,364	86,07
574,604	88,26
574,845	87,25
575,086	88,64
575,327	90,27
575,568	90,53
575,809	90,05
576,049	87,85
576,29	86,85
576,531	93,99
576,771	98,03
577,012	99,15
577,253	100,35
577,494	100,26
577,734	100,88
577,975	101,69
578,215	100,79
578,456	97,98
578,697	98,92
578,937	100,81
579,178	101,15
579,418	98,25
579,659	97,52
579,899	95,44
580,14	95,17
580,38	93,83
580,62	93,99
580,861	98,25
581,101	98,8
581,342	100,08
581,582	96,57
581,822	99,69
582,063	96,88
582,303	99,63
582,543	99,61
582,783	99,9
583,024	101,51
583,264	103,84
583,504	104,1
583,744	104,71
583,984	100,1
584,224	99,93
584,465	98,76
584,705	98,34
584,945	98,28
585,185	98,45
585,425	99,15
585,665	100,22
585,905	100,57
586,145	99,63
586,385	98,59
586,625	100,73
586,865	100,99
587,105	101,75
587,345	102,35
587,585	102,51
587,824	101,73
588,064	102,81
588,304	100,58
588,544	100,93
588,784	99,88
589,024	102,35
589,263	102,27
589,503	101,6
589,743	102,84
589,982	102,18
590,222	103,14
590,462	102,06
590,701	99,77
590,941	102,29
591,181	102,4
591,42	102,32
591,66	104,34
591,899	107,91
592,139	107,09
592,378	109,04
592,618	107,87
592,857	107,64
593,097	108,75
593,336	107,5
593,576	105,01
593,815	106,61
594,055	107,66
594,294	107,72
594,533	107,52
594,773	106,38
595,012	107,34
595,251	109,44
595,491	111,67
595,73	113,27
595,969	113,21
596,208	113,61
596,447	119,28
596,687	120,59
596,926	121,25
597,165	118,01
597,404	120,94
597,643	119,2
597,882	116,77
598,121	119,07
598,36	121,11
598,599	121,3
598,838	121,94
599,077	118,72
599,316	118,62
599,555	118,07
599,794	117,78
600,033	120,07
600,272	120,6
600,511	118,76
600,75	121,23
600,989	125,32
601,228	124,26
601,466	122,11
601,705	123,73
601,944	123,62
602,183	126,99
602,422	127,8
602,66	127,19
602,899	125,71
603,138	126,03
603,376	126,04
603,615	126,84
603,854	124,63
604,092	124,26
604,331	126,37
604,569	128,19
604,808	125,66
605,047	128,66
605,285	130,45
605,524	129,43
605,762	127,21
606	128,83
606,239	129,81
606,477	129,44
606,716	125,14
606,954	125,94
607,193	123,99
607,431	119,57
607,669	119,15
607,908	118,31
608,146	120,74
608,384	119
608,622	118,49
608,861	118,71
609,099	117,94
609,337	117,05
609,575	115,39
609,813	114,16
610,052	114,01
610,29	109,53
610,528	106,98
610,766	105,69
611,004	105,2
611,242	103,33
611,48	103,25
611,718	99,81
611,956	98,77
612,194	97,68
612,432	95,61
612,67	93,85
612,908	95,09
613,146	92,45
613,384	91,46
613,621	89,17
613,859	90,82
614,097	90,86
614,335	90,71
614,573	91,64
614,811	94,54
615,048	92,73
615,286	93,31
615,524	91,39
615,761	87,04
615,999	88,06
616,237	87,55
616,474	89,17
616,712	89,89
616,95	87,86
617,187	88,08
617,425	88,07
617,662	89,24
617,9	87,44
618,137	85,85
618,375	84,82
618,612	83,36
618,85	85,02
619,087	87,3
619,325	87,05
619,562	86,93
619,799	84,2
620,037	84,39
620,274	83,3
620,511	86,52
620,749	83,33
620,986	83,54
621,223	80,42
621,461	79,84
621,698	81,55
621,935	81,23
622,172	78,37
622,409	80,6
622,647	79,62
622,884	77,47
623,121	80,92
623,358	79,47
623,595	79,4
623,832	77,57
624,069	76,67
624,306	79,77
624,543	81,17
624,78	81,63
625,017	83,19
625,254	86,24
625,491	88,9
625,728	90,28
625,965	90,75
626,202	88,08
626,438	86,54
626,675	85,9
626,912	86,38
627,149	88
627,386	87,27
627,622	85,57
627,859	84,94
628,096	85,8
628,333	85,94
628,569	86,09
628,806	87,69
629,043	86,2
629,279	86,61
629,516	88,72
629,752	85,31
629,989	87,07
630,225	86,06
630,462	85,86
630,699	86
630,935	85,28
631,171	83,58
631,408	83,83
631,644	79,36
631,881	75,74
632,117	73,7
632,354	73,06
632,59	70,85
632,826	70,33
633,063	69,6
633,299	70,53
633,535	69,02
633,771	66,79
634,008	69,35
634,244	69,04
634,48	66,81
634,716	68,93
634,953	68,77
635,189	68,43
635,425	70,24
635,661	73,32
635,897	72,6
636,133	73,1
636,369	71,29
636,605	67,72
636,841	66,75
637,077	67,88
637,313	68,14
637,549	69,33
637,785	67,31
638,021	68,17
638,257	66,83
638,493	69,99
638,729	67,3
638,965	71,36
639,2	73,96
639,436	73,06
639,672	72,96
639,908	71,7
640,144	75,66
640,379	77,87
640,615	74,51
640,851	76,52
641,086	79,41
641,322	77,03
641,558	77,56
641,793	78,66
642,029	76,91
642,264	75,99
642,5	74,56
642,736	71,55
642,971	70,9
643,207	68,91
643,442	65,29
643,678	65,53
643,913	65,63
644,148	63,99
644,384	66,54
644,619	65,06
644,855	65,94
645,09	67,16
645,325	64,95
645,561	65,74
645,796	62,02
646,031	66,33
646,266	63,43
646,502	60,94
646,737	63,44
646,972	62,71
647,207	63,35
647,442	57,84
647,678	55,02
647,913	58,86
648,148	58,63
648,383	56,54
648,618	57,18
648,853	58,42
649,088	60,39
649,323	62,24
649,558	63,57
649,793	64,96
650,028	64,55
650,263	60,3
650,498	62,85
650,733	63,48
650,968	61,95
651,202	65,51
651,437	63,93
651,672	60,82
651,907	61,15
652,142	61,06
652,376	61,34
652,611	64,53
652,846	66,3
653,081	66,7
653,315	65,04
653,55	65,4
653,785	65,58
654,019	66,63
654,254	65,72
654,488	66,18
654,723	64,45
654,958	62,57
655,192	60,83
655,427	58,83
655,661	60,13
655,896	61,35
656,13	61,05
656,364	57,73
656,599	54,57
656,833	57,06
657,068	58,71
657,302	58,68
657,536	57,67
657,771	59,09
658,005	60,42
658,239	62,84
658,474	59,14
658,708	61,08
658,942	60,58
659,176	57,5
659,41	53,98
659,645	54,07
659,879	51,63
660,113	47,32
660,347	44,88
660,581	41,93
660,815	41,09
661,049	40,44
661,283	37,31
661,517	35,25
661,751	34,67
661,985	33,73
662,219	35,21
662,453	33,11
662,687	34,15
662,921	31,16
663,155	30,29
663,389	25,15
663,622	25,83
663,856	28,76
664,09	25,17
664,324	24,4
664,558	26,04
664,791	25,29
665,025	24,43
665,259	23,38
665,492	22,1
665,726	24,92
665,96	24,09
666,193	22,6
666,427	24,26
666,661	24
666,894	21,5
667,128	21,45
667,361	22,95
667,595	23,95
667,828	23,96
668,062	23,66
668,295	24,1
668,529	24,19
668,762	25,52
668,995	23,01
669,229	28,29
669,462	27,8
669,695	28,67
669,929	26,85
670,162	28,11
670,395	25,97
670,629	27,2
670,862	28,79
671,095	24,25
671,328	25,08
671,561	20,73
671,795	21,09
672,028	23,07
672,261	23,28
672,494	24,24
672,727	20,75
672,96	21,45
673,193	21,52
673,426	25,87
673,659	24,89
673,892	26,05
674,125	25,6
674,358	24,86
674,591	24,32
674,824	24,62
675,057	23,71
675,29	22,72
675,523	23,23
675,755	21,86
675,988	22,84
676,221	26,38
676,454	22,61
676,687	24,25
676,919	23,16
677,152	24,01
677,385	23,71
677,617	24,45
677,85	25,04
678,083	23,84
678,315	27,83
678,548	25,15
678,78	24,8
679,013	23,64
679,246	23,93
679,478	24,52
679,711	22,67
679,943	25,48
680,175	22,39
680,408	25,07
680,64	20,49
680,873	21,46
681,105	21,65
681,338	25,39
681,57	23,93
681,802	25,42
682,034	24,1
682,267	27,72
682,499	28,09
682,731	25,64
682,964	25,22
683,196	22,71
683,428	19,65
683,66	18,39
683,892	21,59
684,124	24,11
684,356	25,81
684,589	25,08
684,821	23,59
685,053	23,5
685,285	22,78
685,517	23,1
685,749	23,28
685,981	24,49
686,213	24,26
686,445	23,96
686,676	20,71
686,908	22,6
687,14	22,55
687,372	23,31
687,604	19,81
687,836	21,01
688,068	20,75
688,299	20,11
688,531	18,04
688,763	22,91
688,995	20,2
689,226	24,15
689,458	22,06
689,69	21,76
689,921	20,09
690,153	19,24
690,384	22,42
690,616	22,69
690,848	23,69
691,079	19,06
691,311	16,61
691,542	13,96
691,774	12,38
692,005	15,33
692,237	18,71
692,468	17,47
692,699	17,82
692,931	19,28
693,162	16,88
693,393	16,86
693,625	17,38
693,856	18,98
694,087	19,36
694,319	18,66
694,55	18,44
694,781	18,77
695,012	19,62
695,243	18,15
695,475	17,17
695,706	16,39
695,937	15
696,168	14,91
696,399	13,48
696,63	12,12
696,861	12,99
697,092	19,15
697,323	23,76
697,554	22,8
697,785	23,58
698,016	25,13
698,247	24,18
698,478	26,47
698,709	27,94
698,94	31
699,171	30,48
699,401	25,98
699,632	28,24
699,863	22,63
700,094	21,82
700,325	25,91
700,555	25,7
700,786	26,18
701,017	25,54
701,247	23,82
701,478	24,85
701,709	25,11
701,939	23,96
702,17	24,72
702,401	27,72
702,631	29,01
702,862	28,18
703,092	25,72
703,323	29,06
703,553	29,79
703,784	30,22
704,014	29,86
704,244	24
704,475	21,8
704,705	20,9
704,936	19,88
705,166	19,2
705,396	19,76
705,627	19
705,857	19,12
706,087	18,36
706,317	15,54
706,548	13,59
706,778	12,54
707,008	14,11
707,238	15,18
707,468	13,65
707,698	12,99
707,928	11,92
708,158	10,86
708,389	9,37
708,619	8,73
708,849	7,57
709,079	8,89
709,309	6,88
709,539	4,72
709,768	4,96
709,998	6,87
710,228	6,28
710,458	3,86
710,688	0,6
710,918	2,51
711,148	2,14
711,378	2,14
711,607	0,58
711,837	2,54
712,067	3,38
712,297	2,68
712,526	3,72
712,756	4,1
712,986	0,92
713,215	-0,36
713,445	1,86
713,674	4,23
713,904	3,93
714,134	6,9
714,363	5,74
714,593	3,83
714,822	3,1
715,052	2,49
715,281	4,41
715,511	3,8
715,74	3,12
715,969	2,45
716,199	1,14
716,428	1,68
716,657	0,38
716,887	2,23
717,116	-0,52
717,345	1,41
717,575	2,15
717,804	3,04
718,033	0,74
718,262	0,17
718,492	1,87
718,721	3,84
718,95	4,82
719,179	3,84
719,408	5,32
719,637	0,96
719,866	-1,28
720,095	0,84
720,324	0,32
720,553	-4,32
720,782	-4,99
721,011	-4,45
721,24	-6,25
721,469	-6,51
721,698	-5,84
721,927	-5,9
722,156	-6,94
722,385	-8,15
722,613	-3,25
722,842	-2,75
723,071	0,44
723,3	3,25
723,529	1,81
723,757	3,93
723,986	1,18
724,215	0,55
724,443	1,15
724,672	3,47
724,901	3,99
725,129	6,05
725,358	8,87
725,586	6,31
725,815	4,86
726,043	1,95
726,272	-0,38
726,5	-1,02
726,729	0,39
726,957	-2,62
727,186	-4,2
727,414	-3,03
727,642	-0,22
727,871	0,39
728,099	-0,43
728,327	-1,48
728,556	0,61
728,784	1,8
729,012	0,59
729,241	2,3
729,469	2,29
729,697	-2,38
729,925	-0,85
730,153	-3,46
730,381	-4,45
730,61	-3,74
730,838	-7,65
731,066	-7,68
731,294	-5,93
731,522	-9,51
731,75	-13,71
731,978	-14,42
732,206	-15,33
732,434	-17,3
732,662	-14,77
732,89	-15,67
733,118	-17,15
733,346	-15,9
733,573	-14,93
733,801	-13,64
734,029	-5,84
734,257	-3,15
734,485	-0,58
734,712	1,12
734,94	-1,02
735,168	1,91
735,396	1,93
735,623	0,44
735,851	0,07
736,078	3,13
736,306	4,23
736,534	4,73
736,761	6,09
736,989	3,44
737,216	3,53
737,444	0,8
737,671	1,89
737,899	7,42
738,126	7,53
738,354	7,86
738,581	8,28
738,809	10,82
739,036	9,04
739,263	8,06
739,491	5,47
739,718	4,92
739,945	11,12
740,173	14,21
740,4	13,53
740,627	11,79
740,854	10,49
741,081	6,82
741,309	4,16
741,536	1,26
741,763	-0,97
741,99	2,08
742,217	1,04
742,444	1,64
742,671	3,75
742,898	4,75
743,125	1,27
743,352	-1,78
743,579	-3,12
743,806	-3,21
744,033	-0,49
744,26	0,61
744,487	0,33
744,714	0,81
744,941	0,36
745,167	4,44
745,394	2,36
745,621	2,84
745,848	1,71
746,075	3,7
746,301	8,02
746,528	12,65
746,755	10,91
746,981	7,35
747,208	8,31
747,435	11,84
747,661	12,03
747,888	13,86
748,114	12,4
748,341	14,75
748,567	17,19
748,794	15,9
749,02	15,06
749,247	12,89
749,473	12,86
749,7	12,19
749,926	10,52
750,152	14,21
750,379	13,64
750,605	13,59
750,831	14,08
751,058	11,79
751,284	10,92
751,51	13,97
751,737	14,62
751,963	12,81
752,189	10,44
752,415	10,15
752,641	9,23
752,867	8,44
753,094	6,57
753,32	3,65
753,546	2,33
753,772	5,38
753,998	4,51
754,224	3,03
754,45	2,28
754,676	0,99
754,902	-0,27
755,128	0,29
755,354	-0,56
755,579	-1,82
755,805	1,19
756,031	-0,83
756,257	-1,65
756,483	-3,35
756,709	-5,07
756,934	-3,93
757,16	-5,45
757,386	-3,93
757,612	-5,11
757,837	-7,39
758,063	-4,16
758,289	-2,01
758,514	-3,47
758,74	-7,51
758,965	-9,92
759,191	-8,58
759,416	-6,32
759,642	-4,37
759,868	-3,74
760,093	-1,37
760,318	-1,83
760,544	-1,71
760,769	-3,59
760,995	-3,03
761,22	-2,8
761,445	-1,98
761,671	-0,14
761,896	3,06
762,121	3,02
762,347	2,91
762,572	1,11
762,797	0,55
763,022	0,99
763,248	5,67
763,473	8,73
763,698	8,34
763,923	8,46
764,148	8,93
764,373	7,76
764,598	9,02
764,823	11,32
765,048	8,42
765,273	4,28
765,498	2,76
765,723	3,47
765,948	5,32
766,173	3,82
766,398	4,54
766,623	2,13
766,848	1,17
767,073	0,79
767,298	0,44
767,522	-1,05
767,747	0,57
767,972	-0,37
768,197	0,85
768,421	-0,75
768,646	-4,11
768,871	-7,1
769,095	-5,08
769,32	-4,74
769,545	-3,84
769,769	-2,93
769,994	-0,52
770,218	-3,86
770,443	-3,96
770,667	-4,79
770,892	-5,48
771,116	-7,6
771,341	-5,26
771,565	-5,04
771,79	-4,87
772,014	-5,86
772,238	-6,08
772,463	-3,84
772,687	-2,56
772,911	-4,65
773,136	-6,42
773,36	-5,85
773,584	-3,3
773,808	-6,08
774,033	-5,41
774,257	-4,78
774,481	-4,86
774,705	-6,06
774,929	-7,95
775,153	-9,62
775,377	-9,36
775,602	-7,67
775,826	-6,66
776,05	-5,7
776,274	-6,1
776,498	-7,45
776,722	-8,58
776,945	-8,93
777,169	-7,84
777,393	-9,75
777,617	-9,55
777,841	-8,63
778,065	-6,23
778,289	-7,46
778,512	-7,83
778,736	-7,81
778,96	-7,77
779,184	-4,47
779,407	-4,95
779,631	-5,09
779,855	-5,21
780,078	-3,61
780,302	-5,54
780,526	-8,93
780,749	-7,26
780,973	-5,44
781,196	-4,74
781,42	-7,17
781,643	-6,54
781,867	-3,94
782,09	-6,57
782,314	-6,12
782,537	-6,66
782,76	-6,52
782,984	-6,02
783,207	-6,28
783,431	-4,71
783,654	-6,52
783,877	-8,48
784,1	-10,95
784,324	-12,11
784,547	-11,29
784,77	-14,43
784,993	-16,1
785,216	-16,67
785,44	-16,61
785,663	-18,3
785,886	-16,09
786,109	-17,33
786,332	-16,93
786,555	-15,76
786,778	-14,19
787,001	-15,11
787,224	-13,83
787,447	-12,04
787,67	-9,25
787,893	-10,81
788,116	-10,81
788,339	-8,62
788,561	-10,43
788,784	-14,5
789,007	-14,62
789,23	-17,13
789,453	-16,92
789,675	-20,46
789,898	-23,33
790,121	-24,51
790,344	-24,61
790,566	-21,7
790,789	-21,44
791,012	-19,82
791,234	-16,52
791,457	-13,37
791,679	-12,06
791,902	-11,2
792,124	-10,79
792,347	-12,19
792,569	-12,42
792,792	-15,26
793,014	-12,56
793,237	-12,23
793,459	-11,62
793,681	-10,68
793,904	-10,79
794,126	-12,13
794,348	-11,21
794,571	-10,42
794,793	-11,24
795,015	-11,64
795,237	-12,27
795,46	-10,56
795,682	-8,46
795,904	-5,18
796,126	-5,81
796,348	-6,66
796,57	-2,21
796,792	-1,07
797,014	3,23
797,237	4,82
797,459	6,01
797,681	7,1
797,903	4,21
798,124	5,08
798,346	15,81
798,568	16,52
798,79	19,75
799,012	19,63
799,234	22,15
799,456	24,26
799,678	26,77
799,899	24,48
800,121	22,06
800,343	20,43
800,565	19,34
800,786	20,71
801,008	22,86
801,23	21,4
801,451	21,59
801,673	18,98
801,895	18,49
802,116	20,42
802,338	21,37
802,559	20,94
802,781	18,51
803,002	21,7
803,224	24,51
803,445	23,71
803,667	24,13
803,888	21,2
804,109	20,29
804,331	18,91
804,552	18,76
804,773	21,4
804,995	18,71
805,216	3,24
805,437	1,34
805,658	-2,3
805,88	-2,55
806,101	-2,48
806,322	-2,59
806,543	-4,18
806,764	-7,26
806,985	-5,68
807,207	-5,81
807,428	-5,16
807,649	-8,78
807,87	-11,18
808,091	-10,12
808,312	-9,53
808,533	-4,88
808,754	-2,2
808,975	-3,05
809,195	-1,05
809,416	0,4
809,637	1,02
809,858	-1,6
810,079	-4,99
810,3	-4,18
810,52	-4,92
810,741	-6,73
810,962	-8,72
811,183	-9,54
811,403	-8,59
811,624	-8,68
811,845	-7,92
812,065	-4,04
812,286	-2,38
812,506	-1,88
812,727	-2,23
812,948	-1,77
813,168	-0,68
813,389	-1,22
813,609	1,37
813,83	1,25
814,05	0,5
814,27	1,1
814,491	5,83
814,711	4,68
814,931	1,69
815,152	0,26
815,372	-0,48
815,592	-2,56
815,813	-4,99
816,033	-6,62
816,253	-5,4
816,473	-7,89
816,694	-5,67
816,914	-3,03
817,134	-3,84
817,354	-6
817,574	-5,46
817,794	-4,89
818,014	-6,3
818,234	-8,31
818,454	-9,25
818,674	-11,32
818,894	-14,85
819,114	-13,26
819,334	-12,17
819,554	-10,94
819,774	-8,62
819,994	-12,2
820,214	-12,42
820,433	-12,13
820,653	-12,77
820,873	-9,61
821,093	-9,02
821,312	-12,09
821,532	-8,86
821,752	-5,45
821,972	-7,08
822,191	-5,38
822,411	-6,06
822,63	-5,5
822,85	-5,14
823,07	-8,28
823,289	-6,44
823,509	-7,8
823,728	-7,17
823,948	-9,37
824,167	-8,57
824,387	-8,61
824,606	-7,78
824,825	-8,85
825,045	-7,8
825,264	-8,93
825,483	-7,04
825,703	-4,89
825,922	-6,07
826,141	-8,52
826,361	-7,88
826,58	-11,81
826,799	-12,27
827,018	-12,5
827,237	-12,78
827,456	-9,77
827,676	-10,03
827,895	-10,66
828,114	-8,74
828,333	-9,39
828,552	-10,59
828,771	-9,33
828,99	-12,62
829,209	-12,61
829,428	-9,36
829,647	-11,06
829,866	-9,11
830,084	-8,02
830,303	-7,68
830,522	-7,62
830,741	-6,56
830,96	-5,99
831,179	-6,38
831,397	-6,96
831,616	-6,15
831,835	-6,8
832,053	-4,42
832,272	-4,19
832,491	-3,61
832,709	-5,05
832,928	-4,38
833,147	-5,03
833,365	-4,14
833,584	-0,54
833,802	2,81
834,021	3,65
834,239	1,83
834,458	-0,47
834,676	-3,03
834,894	-4,46
835,113	-5,76
835,331	-5,84
835,55	-6,82
835,768	-5,18
835,986	-4,99
836,204	-7,27
836,423	-5,62
836,641	-7,43
836,859	-9,32
837,077	-9,23
837,296	-8,67
837,514	-9,75
837,732	-10,07
837,95	-10,1
838,168	-7,99
838,386	-7,91
838,604	-5,18
838,822	-4,74
839,04	-5,96
839,258	-5,88
839,476	-2,73
839,694	-3,15
839,912	-4,96
840,13	-5,29
840,348	-3,03
840,566	-5,48
840,783	-4,42
841,001	-5,01
841,219	-2,18
841,437	-0,82
841,655	0,15
841,872	-0,93
842,09	-1,37
842,308	0,73
842,525	1,12
842,743	2,44
842,961	2,64
843,178	-0,04
843,396	4,1
843,613	5,93
843,831	6,62
844,048	6,47
844,266	7,03
844,483	5,26
844,701	3,59
844,918	3,8
845,136	4,07
845,353	1,54
845,57	1,74
845,788	5,91
846,005	3,86
846,222	1,03
846,439	4,51
846,657	6,47
846,874	6,86
847,091	4,21
847,308	4,47
847,526	2,99
847,743	2,9
847,96	0,39
848,177	0,48
848,394	-0,92
848,611	-0,86
848,828	-0,45
849,045	-2,56
849,262	-4,1
849,479	-4,52
849,696	-7,04
849,913	-7,85
850,13	-13,19
850,347	-11,94
850,564	-12,25
850,78	-14,05
850,997	-15,5
851,214	-13,64
851,431	-11,98
851,647	-15,61
851,864	-16,15
852,081	-14,82
852,298	-18,51
852,514	-21,55
852,731	-20,16
852,948	-18,15
853,164	-18,23
853,381	-19,36
853,597	-20,83
853,814	-23,52
854,03	-26,07
854,247	-24,1
854,463	-24,31
854,68	-25,53
854,896	-25,53
855,113	-23,65
855,329	-21,91
855,545	-20,28
855,762	-20,43
855,978	-23,78
856,194	-24,28
856,411	-20,47
856,627	-17,43
856,843	-15,9
857,059	-13,6
857,275	-14,45
857,492	-13,3
857,708	-8,85
857,924	-8,48
858,14	-6,03
858,356	-6,66
858,572	-5,07
858,788	-6,5
859,004	-5,01
859,22	-6,36
859,436	-6,05
859,652	-7,88
859,868	-10,26
860,084	-10,4
860,3	-9,95
860,516	-8,83
860,731	-8,1
860,947	-11,5
861,163	-9,65
861,379	-8,34
861,595	-7,4
861,81	-7,98
862,026	-7,61
862,242	-6,93
862,457	-5,89
862,673	-4,07
862,889	-3,92
863,104	-3,88
863,32	-4,27
863,535	-2,97
863,751	-7,78
863,966	-5,71
864,182	-4,75
864,397	-7,93
864,613	-9,68
864,828	-10,94
865,044	-9,59
865,259	-9,32
865,474	-10,33
865,69	-6,92
865,905	-4,71
866,12	-6,74
866,336	-6,94
866,551	-5,97
866,766	-7
866,981	-7,99
867,196	-8,36
867,412	-6,75
867,627	-5,34
867,842	-5,9
868,057	-4,78
868,272	-5,46
868,487	-5,92
868,702	-7,95
868,917	-9,07
869,132	-8,29
869,347	-6,07
869,562	-8,52
869,777	-8,94
869,992	-10,17
870,207	-10,95
870,422	-11,18
870,636	-13,17
870,851	-15,73
871,066	-15,41
871,281	-15,07
871,495	-15,5
871,71	-11,46
871,925	-14,58
872,14	-13,47
872,354	-16,74
872,569	-19,42
872,783	-16,53
872,998	-16,1
873,213	-15,96
873,427	-12,38
873,642	-12,01
873,856	-11,42
874,071	-12,58
874,285	-13,78
874,5	-14,94
874,714	-17,72
874,928	-17,67
875,143	-18,09
875,357	-17,83
875,571	-19,93
875,786	-20,04
876	-18,46
876,214	-15,04
876,429	-16,62
876,643	-15,48
876,857	-13,82
877,071	-12,1
877,285	-12,84
877,499	-15,13
877,714	-13,15
877,928	-10,44
878,142	-12,3
878,356	-15,68
878,57	-12,64
878,784	-12,31
878,998	-13,59
879,212	-10,65
879,426	-13,46
879,639	-10,72
879,853	-13,16
880,067	-13,32
880,281	-13,15
880,495	-12,32
880,709	-9,83
880,922	-8,92
881,136	-7,77
881,35	-4,56
881,564	-5,63
881,777	-7,16
881,991	-6,11
882,205	-2,58
882,418	-1,35
882,632	-4,11
882,845	-5,93
883,059	-6,7
883,273	-7,38
883,486	-9,17
883,7	-7,09
883,913	-6,76
884,126	-3,79
884,34	-7,31
884,553	-9,94
884,767	-5,46
884,98	-4,97
885,193	-7,39
885,407	-8,93
885,62	-6,32
885,833	-6,44
886,046	-5,3
886,26	-7,82
886,473	-7,67
886,686	-8,77
886,899	-6,48
887,112	-7,36
887,326	-9,8
887,539	-9,05
887,752	-8,63
887,965	-10,81
888,178	-8,91
888,391	-8,17
888,604	-8,47
888,817	-10,51
889,03	-10,03
889,243	-11,37
889,455	-13,07
889,668	-11,7
889,881	-9,53
890,094	-9,85
890,307	-12,91
890,52	-10,94
890,732	-10,5
890,945	-10,46
891,158	-10,09
891,37	-13,93
891,583	-14,25
891,796	-11,72
892,008	-12,23
892,221	-14,43
892,434	-17,77
892,646	-19,38
892,859	-20,12
893,071	-17,26
893,284	-16,11
893,496	-18,42
893,709	-17,45
893,921	-15,93
894,133	-16,74
894,346	-16,62
894,558	-16,9
894,771	-17,79
894,983	-14,13
895,195	-13,05
895,407	-12,49
895,62	-17,56
895,832	-16,91
896,044	-14,04
896,256	-15,54
896,468	-17,13
896,681	-16,2
896,893	-15,5
897,105	-16,25
897,317	-18,77
897,529	-16,03
897,741	-14,64
897,953	-10,84
898,165	-12,23
898,377	-14,08
898,589	-12,42
898,801	-11,75
899,013	-9,23
899,224	-4,35
899,436	-2,4
899,648	-5,26
899,86	-6,21
900,072	-3,61
900,283	-2,61
900,495	-1,37
900,707	-0,83
900,919	-4,26
901,13	-4,15
901,342	-5,43
901,554	-8,24
901,765	-8,1
901,977	-9,97
902,188	-8,58
902,4	-7,76
902,611	-9,28
902,823	-8,92
903,034	-10,58
903,246	-11,99
903,457	-11,9
903,669	-12,23
903,88	-9,79
904,091	-10,84
904,303	-9,61
904,514	-11,92
904,725	-9,8
904,936	-8,34
905,148	-7,99
905,359	-6,18
905,57	-5,83
905,781	-9,91
905,992	-11,32
906,204	-9,44
906,415	-10,42
906,626	-12,09
906,837	-11,13
907,048	-13,98
907,259	-15,36
907,47	-15
907,681	-15,87
907,892	-12,64
908,103	-13,05
908,314	-16,05
908,525	-13,91
908,735	-12,12
908,946	-12,95
909,157	-14,26
909,368	-11,96
909,579	-11,03
909,789	-10,64
910	-11,37
910,211	-10,31
910,421	-11,8
910,632	-10,95
910,843	-14,11
911,053	-10,46
911,264	-7,17
911,475	-8,79
911,685	-8,86
911,896	-9,15
912,106	-9,08
912,317	-9,38
912,527	-8,18
912,737	-7,32
912,948	-6,8
913,158	-6,15
913,369	-9,07
913,579	-5,21
913,789	-4,05
914	-1,09
914,21	-0,58
914,42	-1,84
914,63	-3,04
914,841	-2,21
915,051	-0,97
915,261	-1,48
915,471	0,63
915,681	2,73
915,891	2,02
916,101	0,6
916,311	-1
916,521	-1,29
916,731	-1,03
916,941	0,84
917,151	-1,46
917,361	1,94
917,571	-3,04
917,781	-6,95
917,991	-7,88
918,201	-7,8
918,411	-9,9
918,621	-9,44
918,83	-8,79
919,04	-9,06
919,25	-8,2
919,46	-6,42
919,669	-9,54
919,879	-9,15
920,089	-10,8
920,298	-10,66
920,508	-9,59
920,717	-7,72
920,927	-9,07
921,136	-6,76
921,346	-8,09
921,555	-10,68
921,765	-10,58
921,974	-12,92
922,184	-17,12
922,393	-17,92
922,603	-18,05
922,812	-14,93
923,021	-15,58
923,23	-17,01
923,44	-19,5
923,649	-18,15
923,858	-21,39
924,067	-21,2
924,277	-21,7
924,486	-20,43
924,695	-19,72
924,904	-17,73
925,113	-19,36
925,322	-19,19
925,531	-19,13
925,74	-20,92
925,949	-22,14
926,158	-19,19
926,367	-19,35
926,576	-18,6
926,785	-20,32
926,994	-22,16
927,203	-21,37
927,412	-21,48
927,621	-22,92
927,83	-20,15
928,038	-20,37
928,247	-20,36
928,456	-20,01
928,665	-16,99
928,873	-14,7
929,082	-12,09
929,291	-11,36
929,499	-8,13
929,708	-8,88
929,916	-7,52
930,125	-8,45
930,333	-8,2
930,542	-4,11
930,75	-1,03
930,959	-0,02
931,167	-1,87
931,376	-3,24
931,584	-2,12
931,793	0,32
932,001	-0,97
932,209	-2,34
932,418	-4,49
932,626	-6,82
932,834	-7,52
933,042	-10,48
933,251	-10,36
933,459	-10,93
933,667	-11,81
933,875	-12,04
934,083	-10,46
934,291	-9,87
934,499	-10,13
934,707	-11,75
934,915	-11,35
935,123	-9,73
935,331	-10,8
935,539	-12,8
935,747	-15,32
935,955	-16,69
936,163	-17,64
936,371	-16,79
936,579	-15,8
936,787	-16,25
936,995	-19,78
937,202	-22,85
937,41	-22,97
937,618	-22,85
937,826	-21,33
938,033	-24,99
938,241	-27,01
938,449	-23,79
938,656	-22,52
938,864	-21,91
939,071	-20,23
939,279	-18,5
939,486	-16,38
939,694	-16,6
939,901	-17,49
940,109	-18,07
940,316	-16,52
940,524	-17,61
940,731	-18,64
940,939	-16,87
941,146	-16,83
941,353	-16,26
941,561	-17,86
941,768	-18,69
941,975	-18,33
942,182	-19,01
942,39	-17,97
942,597	-13,08
942,804	-13,27
943,011	-12,78
943,218	-11,59
943,425	-10,65
943,632	-9,44
943,839	-11,18
944,046	-12,1
944,253	-12,88
944,46	-12,58
944,667	-10,29
944,874	-12,02
945,081	-10,93
945,288	-9,85
945,495	-8,62
945,702	-7,43
945,909	-9,05
946,115	-7,41
946,322	-9,17
946,529	-10,88
946,736	-11,87
946,942	-10,66
947,149	-11,71
947,356	-11,83
947,562	-12,04
947,769	-13,22
947,976	-13,44
948,182	-11,62
948,389	-12,06
948,595	-9,94
948,802	-11,36
949,008	-13,75
949,215	-13,46
949,421	-15,05
949,628	-16,39
949,834	-16,56
950,04	-17,14
950,247	-13,45
950,453	-11,08
950,659	-12,86
950,865	-9,94
951,072	-13,06
951,278	-10,31
951,484	-11,9
951,69	-15,51
951,896	-16,48
952,103	-17,57
952,309	-16,53
952,515	-16,2
952,721	-13,76
952,927	-11,27
953,133	-11,97
953,339	-13,34
953,545	-12,51
953,751	-13,15
953,957	-11,46
954,163	-12,79
954,369	-12,7
954,574	-15,83
954,78	-15,54
954,986	-15,59
955,192	-13,32
955,398	-15,38
955,603	-18,86
955,809	-17,31
956,015	-16,08
956,22	-15,5
956,426	-14,43
956,632	-17,28
956,837	-17,3
957,043	-16,45
957,248	-16,78
957,454	-17,11
957,66	-19,85
957,865	-20,16
958,07	-16,82
958,276	-18,76
958,481	-20,66
958,687	-21,93
958,892	-22,06
959,097	-21
959,303	-21,3
959,508	-21,58
959,713	-20,99
959,919	-21,35
960,124	-22,45
960,329	-22,33
960,534	-20,17
960,739	-18,38
960,945	-15,46
961,15	-15,45
961,355	-17,58
961,56	-21,26
961,765	-21,57
961,97	-18,66
962,175	-15,98
962,38	-20,17
962,585	-19,74
962,79	-21,77
962,995	-22,82
963,2	-24,57
963,404	-23,63
963,609	-25,72
963,814	-26,67
964,019	-29,18
964,224	-30,59
964,428	-30,76
964,633	-29,27
964,838	-27,53
965,042	-27,02
965,247	-29,4
965,452	-30,26
965,656	-28,22
965,861	-26,8
966,066	-28,26
966,27	-25,69
966,475	-21,13
966,679	-24,98
966,884	-23,7
967,088	-25,91
967,292	-27,09
967,497	-25,16
967,701	-25,11
967,906	-23,24
968,11	-20,37
968,314	-18,71
968,518	-21,42
968,723	-17,25
968,927	-15,78
969,131	-14,9
969,335	-10,98
969,539	-11,22
969,744	-10,49
969,948	-7,98
970,152	-6,06
970,356	-5,73
970,56	-5,43
970,764	-5,61
970,968	-2,89
971,172	-3,69
971,376	-2,89
971,58	-0,82
971,784	-1,3
971,988	-5,44
972,192	-2,63
972,395	-2,93
972,599	-6,92
972,803	-9,22
973,007	-6,37
973,21	-7,19
973,414	-6,69
973,618	-7,4
973,822	-9,09
974,025	-7,84
974,229	-8,85
974,432	-12,29
974,636	-14,18
974,84	-13,46
975,043	-13,54
975,247	-16,18
975,45	-16,55
975,654	-16,54
975,857	-14,49
976,06	-14,45
976,264	-16,48
976,467	-14,92
976,671	-12,79
976,874	-11,58
977,077	-11,87
977,28	-13,12
977,484	-14,6
977,687	-14,92
977,89	-13,24
978,093	-12,25
978,297	-9,18
978,5	-12,49
978,703	-11,97
978,906	-9,57
979,109	-9,53
979,312	-9,47
979,515	-10,83
979,718	-11,74
979,921	-11,42
980,124	-13,13
980,327	-13,25
980,53	-12,28
980,733	-10,31
980,936	-8,78
981,138	-10,72
981,341	-9,65
981,544	-9,21
981,747	-9,67
981,949	-11,35
982,152	-11,17
982,355	-12,53
982,558	-8,45
982,76	-12,03
982,963	-13,52
983,165	-12,86
983,368	-11,74
983,571	-12,38
983,773	-8,51
983,976	-7,55
984,178	-8,62
984,381	-9,53
984,583	-12,92
984,785	-12,36
984,988	-8,2
985,19	-7,5
985,392	-9,52
985,595	-12,11
985,797	-9,54
985,999	-6,51
986,202	-5,15
986,404	-5,59
986,606	-3,12
986,808	-4,22
987,01	-1,87
987,212	-2,01
987,415	-2,55
987,617	-1,84
987,819	-2,93
988,021	-0,34
988,223	-2,04
988,425	-3,03
988,627	-3,09
988,829	-8,05
989,031	-5,04
989,232	-6,25
989,434	-4,52
989,636	-4,92
989,838	-5,9
990,04	-5,07
990,242	-6,68
990,443	-8,24
990,645	-5,53
990,847	-1,83
991,048	-2,26
991,25	-5,58
991,452	-6,74
991,653	-7,75
991,855	-6,58
992,057	-7,32
992,258	-7,14
992,46	-7,3
992,661	-4,8
992,863	-5,59
993,064	-4,65
993,265	-6,39
993,467	-8,72
993,668	-6,86
993,87	-7,74
994,071	-7,67
994,272	-9,32
994,473	-7,78
994,675	-5,81
994,876	-4,51
995,077	-3,89
995,278	-4,52
995,48	-2,37
995,681	-4,79
995,882	-3,85
996,083	-3,69
996,284	-7,53
996,485	-7,84
996,686	-8,57
996,887	-9,9
997,088	-13,53
997,289	-14,87
997,49	-15,49
997,691	-15,6
997,892	-14,26
998,092	-8,73
998,293	-9,33
998,494	-9,54
998,695	-10,37
998,896	-9,14
999,096	-11,07
999,297	-11,98
999,498	-13,52
999,698	-15,67
999,899	-17,59
1000,1	-20,45
1000,3	-19,52
1000,501	-19,64
1000,701	-19,81
1000,902	-21,08
1001,102	-21,3
1001,303	-19,7
1001,503	-20,8
1001,704	-21,04
1001,904	-21,99
1002,105	-22,61
1002,305	-22,01
1002,505	-22,53
1002,706	-23,36
1002,906	-23,15
1003,106	-23,94
1003,306	-22,82
1003,507	-20,03
1003,707	-19,05
1003,907	-16,76
1004,107	-14,94
1004,307	-18,93
1004,507	-18,35
1004,707	-19,05
1004,907	-20,39
1005,107	-20,97
1005,308	-19,46
1005,507	-21,35
1005,707	-18,97
1005,907	-16,83
1006,107	-13,96
1006,307	-11,96
1006,507	-12,97
1006,707	-12,33
1006,907	-11,37
1007,106	-12,99
1007,306	-14,42
1007,506	-13,95
1007,706	-13,75
1007,905	-15,66
1008,105	-15,76
1008,305	-16,77
1008,504	-15,34
1008,704	-11,03
1008,903	-9
1009,103	-6,23
1009,303	-7,77
1009,502	-7,63
1009,702	-7,93
1009,901	-8,78
1010,1	-11,92
1010,3	-11,27
1010,499	-11,95
1010,699	-13,6
1010,898	-15,43
1011,097	-14,19
1011,296	-15,46
1011,496	-17,28
1011,695	-16,57
1011,894	-18,59
1012,093	-16,86
1012,293	-17,18
1012,492	-16,87
1012,691	-16,62
1012,89	-16,72
1013,089	-19,35
1013,288	-17,16
1013,487	-15,67
1013,686	-15,17
1013,885	-16,7
1014,084	-15,46
1014,283	-15,6
1014,482	-16,16
1014,681	-17,12
1014,88	-20,75
1015,078	-20,23
1015,277	-23,85
1015,476	-24,45
1015,675	-24,69
1015,873	-25,21
1016,072	-25,81
1016,271	-22,99
1016,47	-27,78
1016,668	-26,46
1016,867	-27,18
1017,065	-27,86
1017,264	-28,69
1017,463	-28,34
1017,661	-27,4
1017,86	-26,5
1018,058	-23,7
1018,256	-24,82
1018,455	-26,72
1018,653	-26,89
1018,852	-25,16
1019,05	-28,49
1019,248	-29,02
1019,447	-30,26
1019,645	-30,05
1019,843	-32,22
1020,041	-31,5
1020,24	-31,2
1020,438	-26,74
1020,636	-26,57
1020,834	-30,09
1021,032	-28,13
1021,23	-29,68
1021,428	-27,01
1021,626	-22,43
1021,824	-21,77
1022,022	-23,13
1022,22	-20,68
1022,418	-19,05
1022,616	-18,56
1022,814	-18,56
1023,012	-18,53
1023,21	-17,27
1023,408	-17,2
1023,606	-17,53
1023,803	-12,18
1024,001	-11,86
1024,199	-16,69
1024,397	-15,45
1024,594	-14,67
1024,792	-16,17
1024,99	-16,74
1025,187	-15,99
1025,385	-13,19
1025,582	-12,76
1025,78	-14,49
1025,977	-12,64
1026,175	-11,82
1026,372	-11,51
1026,57	-13,36
1026,767	-9,66
1026,965	-6,47
1027,162	-7,55
1027,359	-7,62
1027,557	-7,4
1027,754	-12,35
1027,951	-13,26
1028,148	-10,6
1028,346	-12,82
1028,543	-16,41
1028,74	-15,76
1028,937	-17,57
1029,134	-16,23
1029,331	-17,89
1029,528	-18
1029,725	-18,25
1029,923	-23,18
1030,12	-20,02
1030,317	-17,85
1030,513	-16,9
1030,71	-16,17
1030,907	-13,28
1031,104	-13,94
1031,301	-14,53
1031,498	-14,02
1031,695	-15,2
1031,892	-14,61
1032,088	-14,33
1032,285	-15,37
1032,482	-16,89
1032,678	-20,19
1032,875	-23,77
1033,072	-24,37
1033,268	-23,91
1033,465	-24,24
1033,662	-26,51
1033,858	-25,41
1034,055	-24,79
1034,251	-23,84
1034,448	-24,23
1034,644	-24,46
1034,84	-21,78
1035,037	-20,6
1035,233	-21,73
1035,43	-18,78
1035,626	-18,62
1035,822	-18,69
1036,019	-18,82
1036,215	-22,82
1036,411	-23,26
1036,607	-24,69
1036,803	-27,63
1037	-27,95
1037,196	-30,74
1037,392	-30,08
1037,588	-32,58
1037,784	-30,43
1037,98	-31,82
1038,176	-33,49
1038,372	-33,6
1038,568	-30,87
1038,764	-29,17
1038,96	-27,48
1039,156	-29,15
1039,352	-30
1039,547	-27,9
1039,743	-25,8
1039,939	-24,05
1040,135	-24,97
1040,331	-25,87
1040,526	-22,87
1040,722	-23,63
1040,918	-24,7
1041,113	-28,24
1041,309	-27,8
1041,505	-29,39
1041,7	-28,96
1041,896	-27,53
1042,091	-27,2
1042,287	-25,11
1042,482	-24,15
1042,678	-24,84
1042,873	-22,86
1043,069	-24,42
1043,264	-21,57
1043,459	-19,98
1043,655	-18,32
1043,85	-20,03
1044,045	-17,62
1044,24	-16,58
1044,436	-14,68
1044,631	-16,59
1044,826	-16,47
1045,021	-18,03
1045,216	-15,37
