Data from led_4000k_2_FLMT021711__3__17-32-31-414.txt Node

Date: Tue Nov 05 17:32:31 CET 2024
User: Etudiants TP
Spectrometer: FLMT02171
Trigger mode: 0
Integration Time (sec): 1,000000E-1
Scans to average: 5
Electric dark correction enabled: true
Nonlinearity correction enabled: true
Boxcar width: 15
XAxis mode: Wavelengths
Number of Pixels in Spectrum: 3648
>>>>>Begin Spectral Data<<<<<
194,658	-66,36
194,923	-63,94
195,188	-58,71
195,453	-59,67
195,717	-55,03
195,982	-52,86
196,247	-51,2
196,512	-54,51
196,777	-53,43
197,042	-51,17
197,307	-50,79
197,572	-46,18
197,837	-46,15
198,101	-43,88
198,366	-42,5
198,631	-40,92
198,896	-35,15
199,161	-28,25
199,425	-21,09
199,69	-11,42
199,955	-11,73
200,22	-14,75
200,484	-15,32
200,749	-16,73
201,014	-14,61
201,278	-14,67
201,543	-13,97
201,807	-14,95
202,072	-12,82
202,337	-14,81
202,601	-15,02
202,866	-16,96
203,13	-16,45
203,395	-18,44
203,659	-17,27
203,924	-18,13
204,189	-18,84
204,453	-17,12
204,717	-13,08
204,982	-10,97
205,246	-10,24
205,511	-9,41
205,775	-10,22
206,04	-4,97
206,304	-3,78
206,568	-0,99
206,833	-0,92
207,097	0,98
207,361	2,75
207,626	5,96
207,89	5,88
208,154	6,26
208,419	7,78
208,683	6,67
208,947	9,56
209,211	9,26
209,476	9,22
209,74	9,89
210,004	9,67
210,268	9,71
210,532	13,2
210,796	13,84
211,061	15,4
211,325	15,77
211,589	15,54
211,853	16,08
212,117	16,72
212,381	17,26
212,645	17,84
212,909	17,36
213,173	13,96
213,437	14,8
213,701	16,22
213,965	14,9
214,229	10,4
214,493	9,81
214,757	8,64
215,021	8,61
215,285	12,74
215,549	13,76
215,813	11,29
216,077	11,66
216,34	14,16
216,604	13,07
216,868	14,35
217,132	14,46
217,396	12,81
217,659	12,83
217,923	8,82
218,187	8,87
218,451	7,41
218,714	5
218,978	5,45
219,242	6,33
219,505	8,37
219,769	10,08
220,033	9,65
220,296	9,83
220,56	10,79
220,824	7,7
221,087	8,94
221,351	8,96
221,614	8,42
221,878	9,31
222,142	9,71
222,405	9,67
222,669	12,01
222,932	7,73
223,196	6,54
223,459	2,35
223,722	3,73
223,986	3,77
224,249	2,65
224,513	2,32
224,776	4,1
225,04	4,48
225,303	3,81
225,566	3,84
225,83	6,01
226,093	10,03
226,356	7,57
226,62	7,02
226,883	7,83
227,146	6,98
227,409	6,79
227,673	3,13
227,936	1,59
228,199	2,78
228,462	1,06
228,725	-0,05
228,989	-0,75
229,252	-0,7
229,515	5,65
229,778	3,48
230,041	2,34
230,304	-0,57
230,567	0,65
230,83	-3,07
231,093	-0,05
231,356	-1,15
231,619	4,35
231,882	4,07
232,145	5,46
232,408	4,86
232,671	2,69
232,934	0,76
233,197	-0,71
233,46	-1,7
233,723	-0,04
233,986	-1,93
234,249	-4,36
234,512	-0,83
234,775	4,32
235,037	3,73
235,3	4,64
235,563	4,7
235,826	6,51
236,089	8,89
236,351	8,25
236,614	11,29
236,877	12,41
237,14	15,99
237,402	15,57
237,665	8,32
237,928	8,84
238,19	6,27
238,453	8,86
238,716	8,02
238,978	8,4
239,241	7,97
239,503	11,51
239,766	7
240,029	4,28
240,291	6,76
240,554	6,13
240,816	6,01
241,079	7,16
241,341	6,05
241,604	5,17
241,866	1,96
242,129	3,37
242,391	5,22
242,653	3,9
242,916	1,27
243,178	0,93
243,441	1,85
243,703	0,4
243,965	-2,01
244,228	-2,23
244,49	-3,25
244,752	-3,19
245,015	-2,27
245,277	-0,78
245,539	-1,81
245,801	0,15
246,064	0,2
246,326	-0,12
246,588	-0,08
246,85	1,31
247,112	1,68
247,374	2,73
247,637	3,61
247,899	3,08
248,161	4,33
248,423	-0,09
248,685	1,67
248,947	1,38
249,209	0,69
249,471	2,4
249,733	2,92
249,995	2,61
250,257	1,15
250,519	0,12
250,781	1,97
251,043	-0,49
251,305	0,32
251,567	2,09
251,829	2,54
252,091	3,84
252,353	-0,23
252,615	1,09
252,876	-0,85
253,138	-3,31
253,4	-8,36
253,662	-8,36
253,924	-6,19
254,185	-6,8
254,447	-7,05
254,709	-6,55
254,971	-4,38
255,232	-1,05
255,494	-3,01
255,756	-4,85
256,017	-2,91
256,279	-2,36
256,541	-1,49
256,802	-2,24
257,064	-1,07
257,326	-0,69
257,587	0,77
257,849	2,74
258,11	6,3
258,372	7,51
258,633	8,15
258,895	7,69
259,156	7,9
259,418	8,32
259,679	2,81
259,941	0,89
260,202	3,37
260,464	6,4
260,725	5,06
260,987	4,2
261,248	3,5
261,509	5,13
261,771	4,5
262,032	6,01
262,293	6,84
262,555	7,29
262,816	6,52
263,077	3,88
263,338	-0,02
263,6	1,28
263,861	1,05
264,122	-0,72
264,383	0,83
264,645	1,47
264,906	-0,09
265,167	0,09
265,428	-0,94
265,689	-1,15
265,95	-4,23
266,211	-4,21
266,473	-5,34
266,734	-8,41
266,995	-11,41
267,256	-10,64
267,517	-9,64
267,778	-5,4
268,039	-3,58
268,3	-5,42
268,561	-8,55
268,822	-5,18
269,083	-8,35
269,344	-9,84
269,604	-11,06
269,865	-10,18
270,126	-13,93
270,387	-13,24
270,648	-11,5
270,909	-13,92
271,17	-15,34
271,43	-18,45
271,691	-21,17
271,952	-22,46
272,213	-20,37
272,473	-23,68
272,734	-23,23
272,995	-20,81
273,256	-19,56
273,516	-17,6
273,777	-21,28
274,038	-18,72
274,298	-22,65
274,559	-22,99
274,82	-18,81
275,08	-16,04
275,341	-15,16
275,601	-15,74
275,862	-19,17
276,122	-19,08
276,383	-18,59
276,643	-15,37
276,904	-17
277,164	-12,31
277,425	-11,04
277,685	-6,58
277,946	-5,52
278,206	-4,47
278,467	-3,36
278,727	-3,3
278,987	-3,07
279,248	-3,59
279,508	-0,39
279,768	3,21
280,029	3,53
280,289	-0,44
280,549	-1,08
280,81	-1,36
281,07	-3,2
281,33	-1,52
281,59	-2,92
281,851	0,78
282,111	0,78
282,371	1,1
282,631	2,71
282,891	2,17
283,151	1,09
283,412	-0,54
283,672	-1,44
283,932	-0,41
284,192	0,86
284,452	-1,24
284,712	-3,55
284,972	-5,45
285,232	-7,98
285,492	-5,63
285,752	-8,37
286,012	-3,49
286,272	-2,18
286,532	-4,75
286,792	-4,24
287,052	-1,27
287,312	-0,1
287,571	-2,1
287,831	-2,9
288,091	-4,58
288,351	-3,5
288,611	0,3
288,871	0,99
289,13	1,13
289,39	-2,75
289,65	-1,36
289,91	-4,77
290,17	-4,01
290,429	-0,96
290,689	-3,6
290,949	-6,52
291,208	-4,81
291,468	-2,29
291,728	-0,44
291,987	0,49
292,247	-1,35
292,506	1,38
292,766	4,04
293,026	4,24
293,285	5,1
293,545	8,16
293,804	8,18
294,064	4,46
294,323	3,02
294,583	4,11
294,842	3,29
295,102	3,73
295,361	4,27
295,621	5,19
295,88	4,27
296,139	4,76
296,399	5,91
296,658	1,15
296,917	1,31
297,177	-0,6
297,436	2,16
297,695	0,33
297,955	2,95
298,214	0,96
298,473	2,44
298,732	4,87
298,992	7,82
299,251	6,34
299,51	3,65
299,769	4,63
300,028	5,6
300,287	6,85
300,547	5,36
300,806	2,51
301,065	4,68
301,324	6,97
301,583	2,88
301,842	-0,53
302,101	-3,18
302,36	-3,51
302,619	-4,34
302,878	-3,73
303,137	-7,15
303,396	-6,88
303,655	-5,12
303,914	-6,09
304,173	-5,28
304,432	-5,96
304,691	-3,45
304,95	-6,16
305,208	-2,19
305,467	-2,82
305,726	-3,7
305,985	-3,15
306,244	-1,14
306,503	-2,3
306,761	-3,49
307,02	-7,46
307,279	-6,47
307,537	-5,59
307,796	-8,06
308,055	-10,11
308,314	-9,55
308,572	-10,27
308,831	-8,38
309,09	-7,08
309,348	-6,7
309,607	-8,04
309,865	-2,86
310,124	-3,18
310,382	-1,52
310,641	0,07
310,9	-1,82
311,158	-0,05
311,417	0,55
311,675	0,99
311,933	2,68
312,192	3,6
312,45	3,62
312,709	3,64
312,967	3,99
313,226	4,79
313,484	2,66
313,742	2,79
314,001	1,39
314,259	0,16
314,517	1,83
314,776	3,65
315,034	7,08
315,292	4,25
315,55	2,03
315,809	0,02
316,067	-0,37
316,325	-2,49
316,583	-1,97
316,841	-3,29
317,1	-5,88
317,358	-9,77
317,616	-9,64
317,874	-12,3
318,132	-12,35
318,39	-12,91
318,648	-14,68
318,906	-13,54
319,164	-14,91
319,422	-16,88
319,68	-18,78
319,938	-20,57
320,196	-21,43
320,454	-20,73
320,712	-20,89
320,97	-21,91
321,228	-24,74
321,486	-22,05
321,744	-21,01
322,002	-18,7
322,26	-20,67
322,517	-22,07
322,775	-25,31
323,033	-27,22
323,291	-24,43
323,549	-21,68
323,806	-18,7
324,064	-17,22
324,322	-15,33
324,58	-16,45
324,837	-14,28
325,095	-16,07
325,353	-14,83
325,61	-12,98
325,868	-12,87
326,126	-10,28
326,383	-11,28
326,641	-11,68
326,898	-10,62
327,156	-9,85
327,413	-9,09
327,671	-8,31
327,928	-5,37
328,186	-3,77
328,443	-4,78
328,701	0,1
328,958	2,04
329,216	2,73
329,473	0,66
329,731	0,63
329,988	-0,05
330,245	3,4
330,503	4,86
330,76	6,37
331,017	9,23
331,275	6,11
331,532	5,31
331,789	1,9
332,047	0,34
332,304	-2,62
332,561	-1,73
332,818	-2,38
333,076	1,25
333,333	3,2
333,59	3,9
333,847	4,98
334,104	2,77
334,361	2,24
334,618	2,92
334,876	1,72
335,133	2,63
335,39	1,6
335,647	2,44
335,904	-1,03
336,161	-3,42
336,418	-2,14
336,675	-7,26
336,932	-6,15
337,189	-6,18
337,446	-5,34
337,703	-6,37
337,96	-10,36
338,216	-11,38
338,473	-14,14
338,73	-13,65
338,987	-14,84
339,244	-10,53
339,501	-11,72
339,757	-9,79
340,014	-7,1
340,271	-6,1
340,528	-6,18
340,785	-3,26
341,041	-4,39
341,298	-7,32
341,555	-8,3
341,811	-8,67
342,068	-10,22
342,325	-10,11
342,581	-8,02
342,838	-6,98
343,094	-7,98
343,351	-8,63
343,608	-10,81
343,864	-7,86
344,121	-6,47
344,377	-8,31
344,634	-9,41
344,89	-10,84
345,147	-11,02
345,403	-12,4
345,66	-11,55
345,916	-7,95
346,172	-9,41
346,429	-9,41
346,685	-11,17
346,942	-10,98
347,198	-14,68
347,454	-13,85
347,711	-13,51
347,967	-17,82
348,223	-16,56
348,48	-16,67
348,736	-14,02
348,992	-13,35
349,248	-10,37
349,504	-10,54
349,761	-10,97
350,017	-9,85
350,273	-9,29
350,529	-10,45
350,785	-10,94
351,041	-11,43
351,297	-9
351,554	-10,3
351,81	-12,64
352,066	-14,05
352,322	-12,79
352,578	-11,31
352,834	-12,16
353,09	-13,74
353,346	-13,28
353,602	-15,13
353,858	-17,62
354,114	-18
354,369	-17,76
354,625	-16,11
354,881	-17,59
355,137	-15,18
355,393	-16,12
355,649	-16,45
355,905	-14,82
356,16	-14,72
356,416	-13,6
356,672	-20,29
356,928	-20,94
357,183	-21,63
357,439	-21,92
357,695	-22,82
357,951	-18,03
358,206	-19,67
358,462	-21,01
358,718	-22,82
358,973	-21,4
359,229	-22,79
359,484	-21,67
359,74	-19,15
359,996	-17,66
360,251	-15,76
360,507	-16,37
360,762	-15,8
361,018	-14,12
361,273	-15,91
361,529	-14,44
361,784	-13,93
362,04	-12,54
362,295	-12,98
362,55	-12,23
362,806	-9,17
363,061	-9,03
363,316	-7,11
363,572	-7,33
363,827	-5,47
364,082	-7,96
364,338	-8,29
364,593	-7,91
364,848	-8
365,104	-9,2
365,359	-5,86
365,614	-4,99
365,869	-8,45
366,124	-6,61
366,38	-6,59
366,635	-4,04
366,89	-2,59
367,145	-2,89
367,4	0,35
367,655	0,5
367,91	0,14
368,165	-0,98
368,42	-3,28
368,675	-2,52
368,93	-1
369,185	-3,71
369,44	-3,12
369,695	-1,13
369,95	-1,6
370,205	-0,91
370,46	-1,42
370,715	-3,31
370,97	-2,78
371,225	-3,21
371,48	-2,18
371,734	-2,32
371,989	-1,66
372,244	-1,7
372,499	0,33
372,754	-1,45
373,008	-4,34
373,263	-9,14
373,518	-8,11
373,773	-10,16
374,027	-11,62
374,282	-9,09
374,537	-8,28
374,791	-7,29
375,046	-7,05
375,301	-7,96
375,555	-9,48
375,81	-7,5
376,064	-6,65
376,319	-4,11
376,573	-6,17
376,828	-9,42
377,082	-3,53
377,337	-6,26
377,591	-8,28
377,846	-7,79
378,1	-6,44
378,355	-7,56
378,609	-7,52
378,863	-10,14
379,118	-9,18
379,372	-10,92
379,627	-13,09
379,881	-13,48
380,135	-14,02
380,389	-14,04
380,644	-11,91
380,898	-9,12
381,152	-8,54
381,407	-9,12
381,661	-4,67
381,915	-3,4
382,169	-4,31
382,423	-6,8
382,677	-11,61
382,932	-10,06
383,186	-9,12
383,44	-8,28
383,694	-7,5
383,948	-10,2
384,202	-10,53
384,456	-7,12
384,71	-5,85
384,964	-7,93
385,218	-5,54
385,472	-5,62
385,726	-6,29
385,98	-5,78
386,234	-5,15
386,488	-8,9
386,742	-8,61
386,996	-10,92
387,249	-8,33
387,503	-5,86
387,757	-4,99
388,011	-3,84
388,265	-3,93
388,518	-3,75
388,772	-1,56
389,026	0,95
389,28	-0,65
389,533	-3,13
389,787	-1,07
390,041	-2,94
390,295	-2,61
390,548	-1,46
390,802	0,96
391,055	-1,11
391,309	-2,29
391,563	-4,17
391,816	-2,98
392,07	-4,21
392,323	-3,92
392,577	-1,63
392,83	0,5
393,084	5,95
393,337	9,59
393,591	10,63
393,844	10,49
394,098	13,85
394,351	18,29
394,604	20,7
394,858	22,6
395,111	21,38
395,364	19,05
395,618	20,87
395,871	18,29
396,124	17,21
396,378	16,61
396,631	15,15
396,884	11,19
397,137	11,41
397,391	12,35
397,644	8,89
397,897	10,57
398,15	12,16
398,403	14,56
398,657	11,97
398,91	11,34
399,163	12,75
399,416	12,83
399,669	13,19
399,922	12,7
400,175	11
400,428	9,8
400,681	8,67
400,934	3,97
401,187	3,06
401,44	2,51
401,693	0,48
401,946	-3,19
402,199	-6,67
402,452	-7,69
402,704	-11,63
402,957	-11,56
403,21	-10,81
403,463	-12,39
403,716	-11,34
403,969	-9,68
404,221	-11,06
404,474	-9,93
404,727	-5,65
404,98	-3,51
405,232	-3,93
405,485	-2,42
405,738	-0,78
405,99	-1,58
406,243	-1,49
406,496	0
406,748	0,34
407,001	-1,48
407,253	-1,24
407,506	-2,56
407,759	-0,64
408,011	-2,91
408,264	-3,7
408,516	-3,18
408,769	-5,64
409,021	-4,25
409,274	-4,54
409,526	-3,3
409,778	-3,64
410,031	-0,09
410,283	-0,71
410,536	6,38
410,788	3,92
411,04	3,58
411,293	5,51
411,545	7,37
411,797	5,5
412,049	6,64
412,302	7,87
412,554	9,22
412,806	5,97
413,058	3,42
413,311	4,98
413,563	3,87
413,815	3,91
414,067	1,54
414,319	0,58
414,571	0,67
414,823	-0,41
415,075	-1,99
415,328	-1,37
415,58	1,82
415,832	3,17
416,084	5,3
416,336	4,06
416,588	9,08
416,84	6,79
417,091	10,34
417,343	7,96
417,595	9,21
417,847	9,61
418,099	11,34
418,351	9,39
418,603	13,96
418,855	16,07
419,106	16,17
419,358	15,72
419,61	16,67
419,862	16,56
420,114	14,11
420,365	13,96
420,617	15,41
420,869	13,8
421,12	12,18
421,372	12,33
421,624	12,32
421,875	13,14
422,127	9,64
422,379	10,59
422,63	14,06
422,882	12,97
423,133	14,19
423,385	14,1
423,636	14,74
423,888	16,17
424,139	18,3
424,391	14,73
424,642	12,4
424,894	10,04
425,145	10,44
425,396	8,47
425,648	10,72
425,899	7,61
426,151	7,98
426,402	5,87
426,653	5,55
426,905	5,28
427,156	3,64
427,407	3,28
427,658	3,83
427,91	2,78
428,161	1,17
428,412	5,25
428,663	8,35
428,914	10,94
429,166	11,95
429,417	12,57
429,668	11,3
429,919	9,52
430,17	9,14
430,421	7,64
430,672	11,74
430,923	11,41
431,174	9,45
431,425	10,27
431,676	9,26
431,927	6,48
432,178	9,09
432,429	10,69
432,68	10,33
432,931	14,68
433,182	19,12
433,433	16,47
433,683	19,59
433,934	19,79
434,185	19,92
434,436	18,8
434,687	20,44
434,937	22,98
435,188	22,2
435,439	21,58
435,69	23,05
435,94	22,66
436,191	23,32
436,442	24,34
436,692	22,2
436,943	20
437,194	17,86
437,444	22,06
437,695	29,17
437,945	30,3
438,196	30,66
438,447	28,7
438,697	29,25
438,948	28,74
439,198	26,8
439,449	23,39
439,699	25,31
439,949	24,95
440,2	24,59
440,45	26,04
440,701	23,37
440,951	22,71
441,201	23,6
441,452	22,05
441,702	22,35
441,952	23,79
442,203	25,47
442,453	23,75
442,703	24,59
442,953	26,67
443,204	28,58
443,454	26,35
443,704	26,81
443,954	22,61
444,204	22,68
444,455	25,31
444,705	27,92
444,955	29,88
445,205	29,25
445,455	26,33
445,705	27,64
445,955	27,45
446,205	28,49
446,455	29,27
446,705	31,01
446,955	32,5
447,205	35,36
447,455	37,62
447,705	36,71
447,955	36,98
448,205	39,52
448,454	40,53
448,704	41,8
448,954	40,97
449,204	44,27
449,454	43,6
449,704	42,69
449,953	43,21
450,203	45,44
450,453	44,67
450,703	47,96
450,952	48,27
451,202	52,4
451,452	53,39
451,701	56,38
451,951	61,08
452,201	60,88
452,45	60,91
452,7	63,12
452,949	63,22
453,199	63,45
453,448	64,9
453,698	67,49
453,947	69,04
454,197	68,89
454,446	68,25
454,696	71,91
454,945	71,63
455,195	70,84
455,444	71,43
455,693	76,32
455,943	73,54
456,192	74,44
456,442	75,76
456,691	77,31
456,94	75,44
457,189	75,46
457,439	77,32
457,688	79,34
457,937	78,11
458,186	77,7
458,436	76,56
458,685	76,59
458,934	74,89
459,183	74,57
459,432	76,79
459,681	76,22
459,93	75,07
460,179	73,85
460,429	71,25
460,678	72,95
460,927	75,31
461,176	72,99
461,425	73
461,674	73,45
461,923	72,81
462,172	71,84
462,42	69,83
462,669	72,4
462,918	71,92
463,167	72,62
463,416	69,7
463,665	71,32
463,914	71,86
464,162	67,85
464,411	66,58
464,66	68,49
464,909	65,89
465,158	66,12
465,406	64,13
465,655	65,71
465,904	68,28
466,152	69,08
466,401	69,37
466,65	70,59
466,898	68,9
467,147	64,66
467,395	62,56
467,644	64,53
467,893	63,71
468,141	63,4
468,39	61,75
468,638	60,22
468,887	59,78
469,135	58,75
469,384	57,93
469,632	59,86
469,88	59,26
470,129	60,93
470,377	57,25
470,626	59,91
470,874	60,17
471,122	61,63
471,371	58,99
471,619	57,5
471,867	61,09
472,115	61,18
472,364	58,53
472,612	62,46
472,86	59,97
473,108	60,95
473,356	60,9
473,605	59,53
473,853	55,27
474,101	53,83
474,349	52,13
474,597	55,25
474,845	55,1
475,093	54,23
475,341	51,58
475,589	51,18
475,837	52,85
476,085	52,85
476,333	50,95
476,581	51,89
476,829	50,74
477,077	53,37
477,325	51,08
477,573	53,33
477,821	51,11
478,069	54,07
478,317	53,19
478,564	55,46
478,812	51,76
479,06	51,79
479,308	50,71
479,555	50,31
479,803	48,76
480,051	50,45
480,299	49,2
480,546	49,73
480,794	45,72
481,042	46,02
481,289	44,63
481,537	46,17
481,784	46,52
482,032	49,81
482,28	47,61
482,527	47,72
482,775	48,32
483,022	49,85
483,27	52,65
483,517	55,86
483,765	55,58
484,012	56,72
484,259	54,89
484,507	55,89
484,754	55,79
485,002	55,64
485,249	54,15
485,496	56,94
485,744	55,07
485,991	54,19
486,238	51,59
486,486	54,92
486,733	55,11
486,98	56,96
487,227	55,16
487,474	57,5
487,722	60,06
487,969	58,06
488,216	58,09
488,463	60,41
488,71	58,1
488,957	57,22
489,204	57,04
489,451	57,76
489,699	57,29
489,946	55,52
490,193	54,89
490,44	54,95
490,687	55,89
490,934	54,37
491,18	50,04
491,427	51,37
491,674	52,72
491,921	53,07
492,168	54,18
492,415	51,37
492,662	53,94
492,909	57,19
493,155	55,95
493,402	52,91
493,649	51,55
493,896	54,59
494,142	52,78
494,389	53,84
494,636	51,57
494,883	50,31
495,129	48,99
495,376	46,14
495,623	48,23
495,869	50,44
496,116	50,22
496,362	52,98
496,609	56,76
496,855	62,62
497,102	61,54
497,348	60,9
497,595	63,16
497,841	66,15
498,088	64,36
498,334	63,61
498,581	62,57
498,827	62,76
499,074	64,02
499,32	65,23
499,566	69,38
499,813	69,69
500,059	67,41
500,305	67,28
500,552	64,94
500,798	64,65
501,044	69,39
501,29	67,87
501,537	64,27
501,783	65,42
502,029	67,71
502,275	67,6
502,521	66,36
502,767	67,98
503,013	71,35
503,26	69,26
503,506	67,41
503,752	68,96
503,998	67,12
504,244	67,24
504,49	61,92
504,736	65,2
504,982	64,16
505,228	66,15
505,474	67,55
505,72	69,26
505,966	67,85
506,211	70,72
506,457	72,79
506,703	70,13
506,949	69,49
507,195	68,27
507,441	65,41
507,686	70,08
507,932	69,61
508,178	71,76
508,424	69,56
508,669	68,25
508,915	69,63
509,161	71,95
509,406	73,24
509,652	73,89
509,898	77,13
510,143	79,24
510,389	79,2
510,634	75,33
510,88	78,84
511,125	79,9
511,371	81,27
511,616	82,3
511,862	80,11
512,107	80,6
512,353	81,09
512,598	83,72
512,844	81,67
513,089	79,76
513,335	80,84
513,58	82,03
513,825	83,12
514,071	80,93
514,316	81,44
514,561	83,64
514,806	81,9
515,052	84,12
515,297	82,5
515,542	84,41
515,787	85,68
516,033	87,86
516,278	88,3
516,523	89,18
516,768	88,41
517,013	86,15
517,258	84,26
517,503	84,19
517,748	84,38
517,993	84,08
518,238	84,99
518,483	83,86
518,728	84,18
518,973	82,45
519,218	82,76
519,463	84,77
519,708	83,37
519,953	81,47
520,198	80,63
520,443	82,67
520,688	85,12
520,933	84,6
521,177	84,67
521,422	81,31
521,667	84,35
521,912	83,8
522,157	78,94
522,401	81
522,646	82,35
522,891	82,63
523,135	83,97
523,38	83,91
523,625	83,44
523,869	86,4
524,114	86,49
524,358	86,46
524,603	87,02
524,848	85,17
525,092	84,75
525,337	85,11
525,581	86,13
525,826	88,92
526,07	90,49
526,315	92,09
526,559	91,44
526,803	89,06
527,048	91,72
527,292	93,15
527,537	93,34
527,781	93,35
528,025	91,56
528,269	92,9
528,514	93,57
528,758	92,27
529,002	93,56
529,247	96,73
529,491	96,02
529,735	100,92
529,979	101,19
530,223	101,4
530,467	99,38
530,712	96,7
530,956	95,14
531,2	95,67
531,444	93,58
531,688	95,58
531,932	94,48
532,176	95,85
532,42	97,6
532,664	97,81
532,908	97,81
533,152	97,29
533,396	97,21
533,64	95,78
533,884	93,64
534,128	93,19
534,371	95
534,615	95,81
534,859	95,25
535,103	94,86
535,347	94,39
535,59	95,65
535,834	91,81
536,078	92,82
536,322	94,98
536,565	97,71
536,809	94,95
537,053	97,44
537,296	94,89
537,54	94,83
537,784	93,87
538,027	95,94
538,271	94,48
538,514	93,82
538,758	94,9
539,001	92,17
539,245	92,05
539,488	93,7
539,732	94,36
539,975	93,65
540,219	96,61
540,462	97,19
540,706	98,82
540,949	97,99
541,192	98,74
541,436	103,69
541,679	109,21
541,922	110,02
542,166	105,26
542,409	104,55
542,652	105,63
542,895	106,97
543,139	108,14
543,382	113,83
543,625	113,61
543,868	114
544,111	112,68
544,354	112,84
544,598	112,51
544,841	115,53
545,084	115,91
545,327	115,11
545,57	115,9
545,813	119,15
546,056	119,52
546,299	120,07
546,542	122,6
546,785	123,93
547,028	125,14
547,271	124,57
547,514	124,45
547,756	121
547,999	121,96
548,242	121,7
548,485	118,28
548,728	118,64
548,971	114,39
549,213	114,29
549,456	113,9
549,699	113,93
549,942	115,52
550,184	114,09
550,427	113,85
550,67	113,16
550,912	108,15
551,155	109,15
551,398	107,31
551,64	106,27
551,883	105,99
552,125	104,31
552,368	102,58
552,61	98,74
552,853	101,76
553,095	100,43
553,338	99,09
553,58	99,22
553,823	96,95
554,065	99,07
554,308	95,87
554,55	93,52
554,792	91,59
555,035	91,43
555,277	90,02
555,519	89,01
555,762	87,83
556,004	89,46
556,246	87,06
556,488	87,93
556,731	83,73
556,973	85,98
557,215	85,91
557,457	86,7
557,699	89,38
557,941	86,4
558,183	86,17
558,426	88,59
558,668	86,18
558,91	88,27
559,152	88,9
559,394	88,9
559,636	92,08
559,878	93,49
560,12	93,64
560,362	93,93
560,604	93,85
560,845	93,48
561,087	92,51
561,329	94,48
561,571	93,25
561,813	93,19
562,055	92,01
562,297	93,71
562,538	94,3
562,78	98,75
563,022	97,03
563,264	97,93
563,505	97,72
563,747	98,03
563,989	96,99
564,23	97,81
564,472	95,49
564,714	98,93
564,955	99,98
565,197	97,27
565,438	100,63
565,68	103,76
565,921	101,71
566,163	104,13
566,404	103,17
566,646	106,36
566,887	107,87
567,129	108
567,37	106,72
567,612	109,21
567,853	106,67
568,094	110,08
568,336	109,62
568,577	112,01
568,818	113,13
569,06	110,24
569,301	108,51
569,542	110,23
569,783	111,53
570,025	113,26
570,266	113,8
570,507	115,67
570,748	114,2
570,989	117,18
571,23	120,15
571,472	119,37
571,713	117,9
571,954	119,34
572,195	117,82
572,436	119,57
572,677	122,82
572,918	123,41
573,159	119,72
573,4	118,15
573,641	115,19
573,882	115,25
574,123	111,62
574,364	107,46
574,604	109,06
574,845	107,1
575,086	107,05
575,327	107,26
575,568	105,18
575,809	105,21
576,049	103,26
576,29	99,36
576,531	106,28
576,771	110,87
577,012	112,94
577,253	113,98
577,494	113,05
577,734	110,77
577,975	111,47
578,215	112,59
578,456	110,1
578,697	109,54
578,937	111,65
579,178	111,1
579,418	108,62
579,659	107,61
579,899	102,45
580,14	99,54
580,38	99,91
580,62	100,93
580,861	105,05
581,101	105,73
581,342	106,65
581,582	102,93
581,822	105,79
582,063	104,29
582,303	106,14
582,543	105,65
582,783	107,63
583,024	109,57
583,264	113,18
583,504	112,27
583,744	115,9
583,984	112,65
584,224	111,7
584,465	109,98
584,705	108,65
584,945	109,33
585,185	110,23
585,425	111,13
585,665	110,09
585,905	110,03
586,145	109,5
586,385	108,66
586,625	112,61
586,865	112,74
587,105	112,88
587,345	115,9
587,585	117,37
587,824	114,72
588,064	115,42
588,304	112,95
588,544	114,13
588,784	111,65
589,024	114,92
589,263	113,75
589,503	111,45
589,743	114,07
589,982	113,33
590,222	112,3
590,462	109,75
590,701	106,27
590,941	107,76
591,181	106,98
591,42	106,52
591,66	109,28
591,899	112
592,139	113,28
592,378	113,2
592,618	111,69
592,857	111,09
593,097	112,97
593,336	113
593,576	113,17
593,815	113,83
594,055	113,56
594,294	115,37
594,533	115,05
594,773	112,38
595,012	113,87
595,251	115,37
595,491	117,98
595,73	120,66
595,969	120,77
596,208	122,48
596,447	127,36
596,687	128,32
596,926	129,61
597,165	124,62
597,404	127,03
597,643	125,53
597,882	123,36
598,121	123,99
598,36	125,08
598,599	125,41
598,838	124,11
599,077	120,13
599,316	119,79
599,555	117,63
599,794	118,02
600,033	120,87
600,272	121,32
600,511	119,89
600,75	121,33
600,989	122,62
601,228	122,85
601,466	122,29
601,705	121,74
601,944	121,97
602,183	125,62
602,422	124,47
602,66	123,61
602,899	122,66
603,138	121,78
603,376	121,32
603,615	121,44
603,854	119,81
604,092	120,08
604,331	121,08
604,569	123,51
604,808	123,04
605,047	125,77
605,285	127,61
605,524	128,79
605,762	127,01
606	128,25
606,239	129,59
606,477	129,84
606,716	126,04
606,954	124,55
607,193	121,59
607,431	117,61
607,669	115,37
607,908	114,16
608,146	115,69
608,384	113,05
608,622	111,69
608,861	110,62
609,099	109,94
609,337	109,09
609,575	108,37
609,813	108,71
610,052	106,92
610,29	100,8
610,528	98,17
610,766	96,88
611,004	96,76
611,242	93,64
611,48	92,97
611,718	90,08
611,956	90,98
612,194	89,19
612,432	87,24
612,67	86,91
612,908	87,57
613,146	85,72
613,384	84,77
613,621	83,38
613,859	84,54
614,097	83,64
614,335	84,3
614,573	85,08
614,811	86,45
615,048	87,12
615,286	88,37
615,524	85,94
615,761	84,41
615,999	84,6
616,237	84
616,474	85,42
616,712	86,57
616,95	85,76
617,187	84,49
617,425	87,33
617,662	89,2
617,9	88,82
618,137	87,22
618,375	84,96
618,612	83,6
618,85	84,75
619,087	87,2
619,325	84,82
619,562	83,46
619,799	82,68
620,037	81,59
620,274	79,52
620,511	82,23
620,749	79,1
620,986	77,53
621,223	73,39
621,461	72,33
621,698	74,84
621,935	73,8
622,172	71,41
622,409	72,05
622,647	71,55
622,884	68,96
623,121	71,63
623,358	68,89
623,595	68,96
623,832	67,71
624,069	65,74
624,306	65,23
624,543	66,16
624,78	65,79
625,017	65,72
625,254	67,44
625,491	69,75
625,728	70,97
625,965	70,3
626,202	69,14
626,438	68,12
626,675	66,87
626,912	68,59
627,149	69,84
627,386	70
627,622	68,22
627,859	66,18
628,096	67,17
628,333	67,47
628,569	69,85
628,806	73,51
629,043	71,37
629,279	74,05
629,516	75,85
629,752	72,05
629,989	72,76
630,225	71,74
630,462	69,99
630,699	70,2
630,935	70,48
631,171	67,75
631,408	67,74
631,644	64,17
631,881	61,98
632,117	58,53
632,354	60,17
632,59	58,02
632,826	56,95
633,063	55,96
633,299	58,05
633,535	55,66
633,771	53,96
634,008	56,53
634,244	55,64
634,48	53,21
634,716	53,68
634,953	52,75
635,189	53,99
635,425	55,01
635,661	57,69
635,897	56,24
636,133	54,76
636,369	53,13
636,605	47,06
636,841	46,2
637,077	48,05
637,313	46,19
637,549	47,81
637,785	47,12
638,021	48,19
638,257	45,55
638,493	47,79
638,729	45,26
638,965	49,23
639,2	50,37
639,436	49,96
639,672	48,61
639,908	46,74
640,144	49,5
640,379	52,45
640,615	48,7
640,851	50,48
641,086	51,52
641,322	50,3
641,558	50,45
641,793	50,68
642,029	48,04
642,264	46,41
642,5	45,46
642,736	41,76
642,971	41,72
643,207	39,27
643,442	36,06
643,678	36,87
643,913	39,6
644,148	38,39
644,384	40,49
644,619	39,96
644,855	39,85
645,09	40,43
645,325	40,41
645,561	40,8
645,796	38,91
646,031	42,36
646,266	39,69
646,502	38,03
646,737	40,95
646,972	39,7
647,207	38,94
647,442	36,72
647,678	33,14
647,913	37,76
648,148	38,63
648,383	37,31
648,618	36,88
648,853	37,76
649,088	40,17
649,323	43,08
649,558	45,56
649,793	45,58
650,028	46,81
650,263	42,02
650,498	44,12
650,733	45,06
650,968	42,91
651,202	44,05
651,437	42,72
651,672	37,94
651,907	37,68
652,142	38,87
652,376	39,36
652,611	40,71
652,846	41,45
653,081	41,54
653,315	40,61
653,55	41,16
653,785	40,34
654,019	40,98
654,254	40,84
654,488	42,47
654,723	38,56
654,958	37,73
655,192	34,7
655,427	30,77
655,661	31,67
655,896	33,62
656,13	35,77
656,364	31,34
656,599	29,05
656,833	36,2
657,068	38,8
657,302	38,52
657,536	36,6
657,771	38,84
658,005	40,24
658,239	41,39
658,474	39,31
658,708	40,21
658,942	40,87
659,176	38,88
659,41	36,59
659,645	35,46
659,879	33,39
660,113	30,08
660,347	29,38
660,581	27,06
660,815	26,79
661,049	26,66
661,283	23,68
661,517	21,07
661,751	20,65
661,985	20,28
662,219	21,59
662,453	19,81
662,687	21,76
662,921	18,52
663,155	16,98
663,389	10,76
663,622	10,77
663,856	12,31
664,09	3,92
664,324	1,17
664,558	1,87
664,791	2,27
665,025	0,02
665,259	-0,42
665,492	-1,04
665,726	1,29
665,96	1,4
666,193	0,2
666,427	1,94
666,661	-0,11
666,894	-0,94
667,128	-1,01
667,361	1,08
667,595	0,68
667,828	-0,06
668,062	-2,08
668,295	-2,32
668,529	-2,76
668,762	-2,35
668,995	-2,61
669,229	1,47
669,462	1,46
669,695	2,86
669,929	1,57
670,162	2,97
670,395	1,76
670,629	2,66
670,862	4,45
671,095	0,86
671,328	1,52
671,561	-0,97
671,795	-0,65
672,028	0,39
672,261	1,59
672,494	3,05
672,727	2,41
672,96	3,27
673,193	2,31
673,426	6,63
673,659	6,7
673,892	7,17
674,125	6,61
674,358	7,06
674,591	6,16
674,824	6,01
675,057	5,9
675,29	5,93
675,523	7,21
675,755	6,42
675,988	10,2
676,221	13,51
676,454	10,61
676,687	10,85
676,919	9,68
677,152	9,23
677,385	8,2
677,617	8,56
677,85	8,67
678,083	8,25
678,315	10,92
678,548	9,29
678,78	8,64
679,013	8,5
679,246	10,07
679,478	10,1
679,711	9,28
679,943	9,93
680,175	6,53
680,408	10,07
680,64	4,82
680,873	5,22
681,105	6,57
681,338	9,5
681,57	7,87
681,802	9,09
682,034	9,06
682,267	12,44
682,499	13,38
682,731	11,44
682,964	10,59
683,196	6,16
683,428	1,97
683,66	1,99
683,892	3,82
684,124	6,72
684,356	9,85
684,589	10,55
684,821	7,65
685,053	8,03
685,285	7,65
685,517	8,98
685,749	10,62
685,981	11,46
686,213	11,11
686,445	10,38
686,676	9,2
686,908	7,87
687,14	7,04
687,372	9,43
687,604	6,28
687,836	7,94
688,068	5,97
688,299	5,57
688,531	4,71
688,763	8,83
688,995	7,17
689,226	9,34
689,458	6,01
689,69	3,13
689,921	1,09
690,153	2,1
690,384	3,62
690,616	2,74
690,848	3,77
691,079	0,47
691,311	-3,49
691,542	-6,76
691,774	-8,21
692,005	-4,18
692,237	-1,26
692,468	-3,21
692,699	-3,96
692,931	-5,29
693,162	-7,43
693,393	-8,92
693,625	-10,39
693,856	-9,91
694,087	-9,07
694,319	-7,07
694,55	-8,74
694,781	-8,95
695,012	-8,94
695,243	-9,04
695,475	-9,47
695,706	-11,27
695,937	-11,87
696,168	-11,69
696,399	-14,33
696,63	-13,65
696,861	-12,44
697,092	-7,35
697,323	-4,21
697,554	-2,75
697,785	-1,44
698,016	-0,35
698,247	-0,24
698,478	3
698,709	4,32
698,94	5,51
699,171	5,52
699,401	2,4
699,632	5,78
699,863	2,31
700,094	1,8
700,325	5,14
700,555	6,63
700,786	8,52
701,017	8,11
701,247	7,13
701,478	6,78
701,709	7,45
701,939	5,57
702,17	8,23
702,401	10,01
702,631	10,46
702,862	9,24
703,092	6,17
703,323	8,97
703,553	11,04
703,784	12,24
704,014	13,39
704,244	9,09
704,475	6,48
704,705	5,52
704,936	6,53
705,166	5,28
705,396	6,08
705,627	4,95
705,857	5,78
706,087	6,05
706,317	3,05
706,548	0,21
706,778	-1,65
707,008	-0,91
707,238	-0,42
707,468	-2,39
707,698	-4,61
707,928	-5,96
708,158	-6,8
708,389	-7,89
708,619	-9,4
708,849	-10,6
709,079	-9,18
709,309	-11,63
709,539	-13,46
709,768	-11,88
709,998	-9,41
710,228	-9,87
710,458	-11,7
710,688	-14,36
710,918	-14,81
711,148	-15,52
711,378	-14,56
711,607	-16,31
711,837	-14,2
712,067	-14,57
712,297	-15,11
712,526	-14,96
712,756	-12,9
712,986	-15,87
713,215	-17,82
713,445	-15,91
713,674	-13,7
713,904	-14,74
714,134	-10,48
714,363	-10,11
714,593	-10,37
714,822	-9,85
715,052	-10,26
715,281	-9,5
715,511	-8,83
715,74	-8,81
715,969	-10,11
716,199	-11,21
716,428	-10,95
716,657	-10,94
716,887	-10,54
717,116	-13,72
717,345	-11,79
717,575	-12,07
717,804	-11,12
718,033	-13,13
718,262	-13,98
718,492	-13,25
718,721	-10,45
718,95	-12,65
719,179	-13,93
719,408	-14,13
719,637	-17,9
719,866	-20,73
720,095	-19,41
720,324	-20,01
720,553	-24,49
720,782	-25,72
721,011	-24,96
721,24	-27,96
721,469	-29,66
721,698	-29,29
721,927	-29,72
722,156	-29,58
722,385	-30,69
722,613	-29,6
722,842	-28,6
723,071	-25,23
723,3	-23,09
723,529	-23,73
723,757	-23,03
723,986	-26,42
724,215	-26,88
724,443	-26,13
724,672	-24,49
724,901	-23,17
725,129	-21,45
725,358	-18,07
725,586	-21,15
725,815	-22,12
726,043	-23,29
726,272	-25,09
726,5	-24,92
726,729	-21,97
726,957	-24,72
727,186	-25,75
727,414	-23,18
727,642	-21,09
727,871	-20,36
728,099	-21,65
728,327	-22,42
728,556	-20,18
728,784	-18,68
729,012	-20,6
729,241	-19,07
729,469	-19,4
729,697	-21,1
729,925	-20,69
730,153	-22,24
730,381	-23,14
730,61	-23,23
730,838	-24,86
731,066	-23,81
731,294	-23,18
731,522	-27,08
731,75	-30,37
731,978	-31,11
732,206	-31,48
732,434	-33,64
732,662	-30,85
732,89	-31,8
733,118	-31,12
733,346	-30,79
733,573	-30,02
733,801	-30,57
734,029	-23,48
734,257	-22,96
734,485	-21,16
734,712	-19,37
734,94	-21,51
735,168	-18,3
735,396	-18,18
735,623	-18,82
735,851	-17,84
736,078	-15,93
736,306	-14,41
736,534	-13,57
736,761	-13,4
736,989	-16,06
737,216	-17,2
737,444	-18,16
737,671	-17,25
737,899	-14,41
738,126	-15,31
738,354	-15,06
738,581	-13,06
738,809	-11,53
739,036	-14,41
739,263	-13,62
739,491	-15,54
739,718	-16,51
739,945	-12,26
740,173	-10,76
740,4	-10,95
740,627	-12,79
740,854	-12,28
741,081	-14,43
741,309	-15,91
741,536	-19,58
741,763	-21,52
741,99	-18,49
742,217	-18,25
742,444	-18,38
742,671	-17,47
742,898	-18,08
743,125	-19,9
743,352	-23,69
743,579	-24,24
743,806	-23,48
744,033	-20,48
744,26	-19,4
744,487	-20,08
744,714	-19,06
744,941	-18,87
745,167	-14,67
745,394	-14,72
745,621	-14,68
745,848	-15,04
746,075	-11,97
746,301	-8,69
746,528	-3,92
746,755	-4,7
746,981	-7,04
747,208	-6,37
747,435	-3,06
747,661	-2,03
747,888	-1,66
748,114	-5,63
748,341	-2,17
748,567	0,44
748,794	-0,09
749,02	-0,6
749,247	-2,29
749,473	-3,35
749,7	-3,13
749,926	-4,11
750,152	-0,25
750,379	0,94
750,605	0,33
750,831	0,03
751,058	-2,19
751,284	-3,7
751,51	-0,64
751,737	0,58
751,963	-0,17
752,189	-2,24
752,415	-1,82
752,641	-2,88
752,867	-2,6
753,094	-3,79
753,32	-5,5
753,546	-7,7
753,772	-5,6
753,998	-6,75
754,224	-7,37
754,45	-9,22
754,676	-10,05
754,902	-10,29
755,128	-8,72
755,354	-8,83
755,579	-8,6
755,805	-5,64
756,031	-8,1
756,257	-9,66
756,483	-8,48
756,709	-10,91
756,934	-9,81
757,16	-11,47
757,386	-11,01
757,612	-13,18
757,837	-14,42
758,063	-10,59
758,289	-7,92
758,514	-9,31
758,74	-13,45
758,965	-16,51
759,191	-14,13
759,416	-13,89
759,642	-11,06
759,868	-10,66
760,093	-8,21
760,318	-9,72
760,544	-9,25
760,769	-10,4
760,995	-10,07
761,22	-10,34
761,445	-8,09
761,671	-6,99
761,896	-5,51
762,121	-6,45
762,347	-8,18
762,572	-10,99
762,797	-12,24
763,022	-11,79
763,248	-6,88
763,473	-7,12
763,698	-7,46
763,923	-8,5
764,148	-8,87
764,373	-10,29
764,598	-7,87
764,823	-6,29
765,048	-10,51
765,273	-12,81
765,498	-14,24
765,723	-13,2
765,948	-11,98
766,173	-14,36
766,398	-13,64
766,623	-18,15
766,848	-19,62
767,073	-22,41
767,298	-23,09
767,522	-24,54
767,747	-23,95
767,972	-23,98
768,197	-23,54
768,421	-25,22
768,646	-28,94
768,871	-30,55
769,095	-29,04
769,32	-27,72
769,545	-27,94
769,769	-27,23
769,994	-26,49
770,218	-29,57
770,443	-29,12
770,667	-26,86
770,892	-26,34
771,116	-27,52
771,341	-25,18
771,565	-24,51
771,79	-24,92
772,014	-25,18
772,238	-25,84
772,463	-21,77
772,687	-21,56
772,911	-21,33
773,136	-23,03
773,36	-22,48
773,584	-19,46
773,808	-20,03
774,033	-20,03
774,257	-20,42
774,481	-21,85
774,705	-23,08
774,929	-21,95
775,153	-21,84
775,377	-20,41
775,602	-17,94
775,826	-17,52
776,05	-15,35
776,274	-16,31
776,498	-15,79
776,722	-16,08
776,945	-12,76
777,169	-12,71
777,393	-13,32
777,617	-15,87
777,841	-15,65
778,065	-13,95
778,289	-15,78
778,512	-17,97
778,736	-17,99
778,96	-18,34
779,184	-17,33
779,407	-19,66
779,631	-18,24
779,855	-19,68
780,078	-19,53
780,302	-20,89
780,526	-23,22
780,749	-22,78
780,973	-20,52
781,196	-19,78
781,42	-19,74
781,643	-18,67
781,867	-18,93
782,09	-21,56
782,314	-22,58
782,537	-23,58
782,76	-24,73
782,984	-23,67
783,207	-24,77
783,431	-24,91
783,654	-25,98
783,877	-29,71
784,1	-32,41
784,324	-33
784,547	-32,24
784,77	-35,07
784,993	-37,13
785,216	-37,66
785,44	-36,66
785,663	-37,8
785,886	-34,76
786,109	-34,7
786,332	-35,14
786,555	-35,18
786,778	-32,75
787,001	-31,24
787,224	-29,39
787,447	-28,28
787,67	-27,59
787,893	-27,5
788,116	-26,77
788,339	-25,4
788,561	-25,86
788,784	-29,17
789,007	-29,8
789,23	-30,72
789,453	-30,15
789,675	-31,45
789,898	-35,42
790,121	-37,15
790,344	-36,97
790,566	-36,29
790,789	-35,63
791,012	-34,73
791,234	-31,59
791,457	-28,45
791,679	-28,16
791,902	-28,11
792,124	-27,17
792,347	-28,72
792,569	-28,93
792,792	-31,73
793,014	-28,2
793,237	-25,96
793,459	-26,94
793,681	-26,39
793,904	-27,66
794,126	-28,8
794,348	-29,46
794,571	-27,14
794,793	-28,45
795,015	-27,66
795,237	-28,55
795,46	-27,37
795,682	-27,43
795,904	-25,14
796,126	-26,55
796,348	-26,56
796,57	-23,13
796,792	-22,51
797,014	-18,55
797,237	-16,64
797,459	-13,84
797,681	-13,71
797,903	-14,3
798,124	-15,25
798,346	-4,21
798,568	-2,53
798,79	1,82
799,012	2,58
799,234	4,6
799,456	6,74
799,678	8,78
799,899	4,46
800,121	1,5
800,343	2,28
800,565	1,27
800,786	2,07
801,008	2,72
801,23	1,93
801,451	0,72
801,673	-1,12
801,895	-1,56
802,116	-0,24
802,338	-0,16
802,559	-0,16
802,781	-2,34
803,002	0,32
803,224	1,94
803,445	-0,65
803,667	0,23
803,888	-2,21
804,109	-1,84
804,331	-4,35
804,552	-3,14
804,773	-1,48
804,995	-2,74
805,216	-17,09
805,437	-17,92
805,658	-20,73
805,88	-21,53
806,101	-21,17
806,322	-22,26
806,543	-23,73
806,764	-24,56
806,985	-23,02
807,207	-22,44
807,428	-22,07
807,649	-25,5
807,87	-26,76
808,091	-25,72
808,312	-25
808,533	-20,53
808,754	-19,55
808,975	-20,8
809,195	-18,96
809,416	-18,83
809,637	-18,42
809,858	-21,01
810,079	-22,39
810,3	-19,79
810,52	-20,7
810,741	-22,43
810,962	-25,47
811,183	-24,75
811,403	-25,51
811,624	-26,28
811,845	-25,32
812,065	-23,55
812,286	-23,88
812,506	-23,94
812,727	-23,85
812,948	-22,37
813,168	-19,74
813,389	-20,58
813,609	-18,3
813,83	-18,51
814,05	-21,23
814,27	-21,69
814,491	-17,55
814,711	-18,35
814,931	-22,14
815,152	-22,37
815,372	-24,97
815,592	-25,83
815,813	-27,28
816,033	-29,09
816,253	-26,43
816,473	-27,04
816,694	-25,58
816,914	-25,13
817,134	-26,18
817,354	-27,66
817,574	-27,47
817,794	-26,6
818,014	-28,67
818,234	-28,57
818,454	-29,44
818,674	-31,57
818,894	-34,44
819,114	-32,99
819,334	-33,29
819,554	-30,82
819,774	-29,87
819,994	-32,3
820,214	-33
820,433	-33,52
820,653	-34,04
820,873	-30,68
821,093	-28,65
821,312	-29,92
821,532	-28,12
821,752	-23,72
821,972	-25,37
822,191	-24,26
822,411	-25,64
822,63	-23,73
822,85	-23,67
823,07	-26,95
823,289	-25,21
823,509	-27,51
823,728	-25,43
823,948	-27,14
824,167	-26,63
824,387	-25,64
824,606	-24,12
824,825	-25,23
825,045	-24,99
825,264	-25,21
825,483	-23,6
825,703	-21,15
825,922	-21,66
826,141	-21,61
826,361	-24,39
826,58	-28,09
826,799	-29,73
827,018	-28,35
827,237	-28,45
827,456	-28,17
827,676	-28,9
827,895	-29,69
828,114	-27,98
828,333	-28,54
828,552	-27,71
828,771	-26,79
828,99	-28,58
829,209	-28,42
829,428	-26,17
829,647	-27,16
829,866	-25,62
830,084	-26,64
830,303	-24,8
830,522	-26,06
830,741	-25,1
830,96	-24,17
831,179	-23,7
831,397	-24,98
831,616	-24,1
831,835	-24,66
832,053	-23,3
832,272	-23,81
832,491	-23,11
832,709	-25,53
832,928	-25,25
833,147	-25,4
833,365	-24,12
833,584	-21,29
833,802	-18,22
834,021	-18,52
834,239	-16,97
834,458	-19,04
834,676	-22,2
834,894	-24,34
835,113	-24,35
835,331	-26,18
835,55	-26,72
835,768	-26,35
835,986	-25,05
836,204	-27,44
836,423	-25,79
836,641	-27,05
836,859	-28,53
837,077	-28,06
837,296	-28,58
837,514	-29,89
837,732	-31,16
837,95	-32,56
838,168	-28,84
838,386	-29,71
838,604	-26,82
838,822	-26,55
839,04	-27,07
839,258	-26,28
839,476	-23,17
839,694	-22,74
839,912	-23,05
840,13	-23,4
840,348	-21,6
840,566	-25,08
840,783	-22,11
841,001	-23,87
841,219	-21,89
841,437	-20,89
841,655	-19,61
841,872	-19,88
842,09	-20,15
842,308	-18,38
842,525	-17,69
842,743	-17,16
842,961	-18,16
843,178	-20,77
843,396	-16,73
843,613	-14,98
843,831	-14,71
844,048	-14,24
844,266	-12,44
844,483	-12,67
844,701	-13,18
844,918	-15,03
845,136	-15,23
845,353	-17,81
845,57	-17,39
845,788	-13,99
846,005	-17,18
846,222	-17,75
846,439	-16,35
846,657	-16,86
846,874	-16,33
847,091	-18,66
847,308	-18,1
847,526	-20,27
847,743	-20,96
847,96	-23,15
848,177	-22,77
848,394	-23,72
848,611	-23,75
848,828	-23,14
849,045	-24,47
849,262	-23,68
849,479	-24,35
849,696	-25,65
849,913	-26,91
850,13	-31,34
850,347	-28,33
850,564	-28,18
850,78	-30,6
850,997	-33,27
851,214	-32,45
851,431	-30,78
851,647	-33,27
851,864	-32,49
852,081	-30,7
852,298	-34,08
852,514	-36,04
852,731	-33,41
852,948	-33,05
853,164	-32,75
853,381	-31,43
853,597	-32,75
853,814	-34,01
854,03	-36,94
854,247	-34,54
854,463	-33,91
854,68	-33,94
854,896	-33,72
855,113	-33,44
855,329	-33,12
855,545	-32,91
855,762	-34,56
855,978	-38,08
856,194	-40,03
856,411	-36,08
856,627	-32,98
856,843	-31,65
857,059	-30,32
857,275	-33,11
857,492	-30,83
857,708	-26,77
857,924	-25,75
858,14	-23,05
858,356	-25,14
858,572	-24,2
858,788	-25,28
859,004	-21,61
859,22	-23,02
859,436	-23,37
859,652	-22,98
859,868	-24,54
860,084	-24,04
860,3	-23,64
860,516	-22,84
860,731	-21,4
860,947	-26,04
861,163	-24,04
861,379	-22,7
861,595	-21,06
861,81	-20,6
862,026	-22,05
862,242	-21,38
862,457	-20,41
862,673	-18,75
862,889	-18,03
863,104	-18,67
863,32	-18,94
863,535	-17,89
863,751	-22,86
863,966	-18,45
864,182	-16,89
864,397	-18,59
864,613	-19,99
864,828	-21,6
865,044	-18,65
865,259	-17,22
865,474	-18,66
865,69	-19,03
865,905	-19,49
866,12	-21,6
866,336	-23,78
866,551	-22,72
866,766	-24,54
866,981	-24,1
867,196	-25,31
867,412	-24,96
867,627	-23,4
867,842	-24,12
868,057	-24,37
868,272	-25,6
868,487	-26,57
868,702	-26,32
868,917	-26,46
869,132	-25,01
869,347	-24,22
869,562	-25,61
869,777	-26,1
869,992	-27,03
870,207	-27,68
870,422	-28,13
870,636	-29,47
870,851	-32,38
871,066	-34,05
871,281	-32,94
871,495	-34,53
871,71	-32,23
871,925	-35,59
872,14	-36,65
872,354	-38,41
872,569	-39,12
872,783	-36,97
872,998	-35,99
873,213	-36,59
873,427	-34,14
873,642	-35,2
873,856	-34,19
874,071	-34,45
874,285	-34,91
874,5	-37,33
874,714	-38,63
874,928	-38,94
875,143	-38,44
875,357	-38,98
875,571	-39,94
875,786	-39,22
876	-35,59
876,214	-33,93
876,429	-36,26
876,643	-35,47
876,857	-35,49
877,071	-33,2
877,285	-34,26
877,499	-36,13
877,714	-34,67
877,928	-33,34
878,142	-34,84
878,356	-36,82
878,57	-35,47
878,784	-32,51
878,998	-33,04
879,212	-29,54
879,426	-31,34
879,639	-29,95
879,853	-31,43
880,067	-31,96
880,281	-32,71
880,495	-30,69
880,709	-28,37
880,922	-28,61
881,136	-26,27
881,35	-24,27
881,564	-24,71
881,777	-28,6
881,991	-26,85
882,205	-23,99
882,418	-25,52
882,632	-28,82
882,845	-28,62
883,059	-27,64
883,273	-28,19
883,486	-28,19
883,7	-25,96
883,913	-27,38
884,126	-26,77
884,34	-28,8
884,553	-31,63
884,767	-26,8
884,98	-25,94
885,193	-27,38
885,407	-28,85
885,62	-27,16
885,833	-26,97
886,046	-25,6
886,26	-27,19
886,473	-27,39
886,686	-28,5
886,899	-25,81
887,112	-28,61
887,326	-30,13
887,539	-28,49
887,752	-27,63
887,965	-29,21
888,178	-28,04
888,391	-24,83
888,604	-25,58
888,817	-28,18
889,03	-25,69
889,243	-27,81
889,455	-30,17
889,668	-28,49
889,881	-26,08
890,094	-27,35
890,307	-30,02
890,52	-28,7
890,732	-27,42
890,945	-27,52
891,158	-27,39
891,37	-30,79
891,583	-32,07
891,796	-30,24
892,008	-31,83
892,221	-33,07
892,434	-37,43
892,646	-37,68
892,859	-37,78
893,071	-34,85
893,284	-32,73
893,496	-34,04
893,709	-33,13
893,921	-32,34
894,133	-34,41
894,346	-36,01
894,558	-36,5
894,771	-36,45
894,983	-36,03
895,195	-35,23
895,407	-34,16
895,62	-38,28
895,832	-36,48
896,044	-34
896,256	-35,58
896,468	-36,82
896,681	-34,97
896,893	-34,4
897,105	-34,78
897,317	-34,77
897,529	-32,64
897,741	-32,02
897,953	-29,07
898,165	-30,58
898,377	-31,97
898,589	-30,54
898,801	-30,62
899,013	-27,55
899,224	-25,45
899,436	-23,43
899,648	-26,18
899,86	-28,32
900,072	-24,28
900,283	-24,26
900,495	-22,45
900,707	-20,26
900,919	-22,21
901,13	-20,92
901,342	-23,1
901,554	-23,03
901,765	-22,57
901,977	-25,22
902,188	-24,93
902,4	-26,72
902,611	-27,49
902,823	-28,7
903,034	-30,32
903,246	-31,35
903,457	-32,62
903,669	-32,63
903,88	-33,23
904,091	-33,6
904,303	-32
904,514	-33,84
904,725	-31,73
904,936	-30,3
905,148	-29,85
905,359	-28,17
905,57	-28,36
905,781	-29,64
905,992	-30,48
906,204	-28,39
906,415	-28,2
906,626	-32,27
906,837	-29,3
907,048	-31,33
907,259	-32,91
907,47	-33,28
907,681	-34,33
907,892	-30,46
908,103	-32,04
908,314	-34,92
908,525	-32,3
908,735	-31,39
908,946	-31,33
909,157	-31,15
909,368	-27,82
909,579	-26,61
909,789	-28,64
910	-30,27
910,211	-29,2
910,421	-27,82
910,632	-25,69
910,843	-27,5
911,053	-25,14
911,264	-22,63
911,475	-24,8
911,685	-24,72
911,896	-24,92
912,106	-24,84
912,317	-27,5
912,527	-26,57
912,737	-27,44
912,948	-26,4
913,158	-26,26
913,369	-29,42
913,579	-27,37
913,789	-25,45
914	-21,82
914,21	-21,72
914,42	-22,44
914,63	-21,78
914,841	-20,14
915,051	-18,93
915,261	-18,38
915,471	-16,36
915,681	-16,81
915,891	-17,38
916,101	-18,65
916,311	-18,2
916,521	-16,07
916,731	-14,32
916,941	-12,46
917,151	-14,97
917,361	-12,64
917,571	-16,52
917,781	-18,83
917,991	-19,62
918,201	-19,42
918,411	-21,88
918,621	-22,37
918,83	-20,99
919,04	-22,69
919,25	-20,8
919,46	-19,4
919,669	-21,16
919,879	-21,07
920,089	-22,14
920,298	-24,48
920,508	-26,28
920,717	-25,62
920,927	-27,66
921,136	-27,39
921,346	-29,05
921,555	-31,45
921,765	-32
921,974	-33,05
922,184	-34,47
922,393	-34,76
922,603	-35,52
922,812	-32,46
923,021	-33,29
923,23	-35,66
923,44	-39,07
923,649	-37,84
923,858	-39,8
924,067	-38,52
924,277	-39,57
924,486	-36,37
924,695	-36,78
924,904	-33,66
925,113	-33,08
925,322	-31,02
925,531	-30,61
925,74	-34,02
925,949	-34,97
926,158	-33,07
926,367	-33,12
926,576	-32,26
926,785	-32,23
926,994	-31,63
927,203	-30,76
927,412	-31,06
927,621	-31,23
927,83	-28,77
928,038	-29,35
928,247	-28,9
928,456	-29,16
928,665	-27,73
928,873	-27,33
929,082	-24,96
929,291	-25,18
929,499	-23,92
929,708	-25,85
929,916	-25,21
930,125	-26,53
930,333	-26,88
930,542	-25,94
930,75	-23,28
930,959	-22,36
931,167	-21,81
931,376	-23
931,584	-22,63
931,793	-21,71
932,001	-20,29
932,209	-21,41
932,418	-24,31
932,626	-25,83
932,834	-28,21
933,042	-31,68
933,251	-31,36
933,459	-33,34
933,667	-33,64
933,875	-33,53
934,083	-32,32
934,291	-31,44
934,499	-30,18
934,707	-30,42
934,915	-29,82
935,123	-28,9
935,331	-29,75
935,539	-33,08
935,747	-34,7
935,955	-34,97
936,163	-33,11
936,371	-33,53
936,579	-32,68
936,787	-32,69
936,995	-33,88
937,202	-36,81
937,41	-39,18
937,618	-40,22
937,826	-39,94
938,033	-44,09
938,241	-47,63
938,449	-46,93
938,656	-43,41
938,864	-41,21
939,071	-40,29
939,279	-35,94
939,486	-33,03
939,694	-32
939,901	-32,56
940,109	-32,91
940,316	-32,52
940,524	-33,01
940,731	-34,67
940,939	-33,57
941,146	-33,93
941,353	-35,45
941,561	-35,18
941,768	-35,58
941,975	-33,15
942,182	-32,77
942,39	-31,44
942,597	-27,42
942,804	-26,05
943,011	-26,8
943,218	-25,22
943,425	-24,76
943,632	-23,03
943,839	-23,1
944,046	-24
944,253	-23,74
944,46	-22,55
944,667	-18,55
944,874	-19,21
945,081	-19,41
945,288	-19,29
945,495	-17,56
945,702	-17,77
945,909	-18,92
946,115	-18,03
946,322	-18,14
946,529	-18,42
946,736	-17,83
946,942	-16,83
947,149	-17,55
947,356	-19,51
947,562	-20,69
947,769	-20,14
947,976	-21,28
948,182	-18,57
948,389	-19,39
948,595	-19,69
948,802	-20,71
949,008	-22,89
949,215	-22,39
949,421	-22,94
949,628	-24,57
949,834	-23,84
950,04	-25,99
950,247	-21,85
950,453	-20,17
950,659	-21,53
950,865	-19,05
951,072	-23,3
951,278	-21,75
951,484	-24,22
951,69	-28,27
951,896	-28,64
952,103	-29,75
952,309	-29,7
952,515	-31,3
952,721	-29,24
952,927	-29,43
953,133	-30,86
953,339	-31,93
953,545	-31,86
953,751	-30,68
953,957	-28,97
954,163	-30,84
954,369	-31,34
954,574	-34,53
954,78	-35,81
954,986	-34,88
955,192	-33,63
955,398	-37,42
955,603	-39,1
955,809	-37,8
956,015	-36,69
956,22	-36,96
956,426	-35,32
956,632	-39,85
956,837	-40,83
957,043	-40,01
957,248	-40,38
957,454	-40,6
957,66	-43,11
957,865	-41,51
958,07	-39,13
958,276	-41,38
958,481	-42,23
958,687	-42,95
958,892	-43,26
959,097	-43,24
959,303	-42,49
959,508	-42,37
959,713	-42,46
959,919	-42,36
960,124	-43,61
960,329	-43,35
960,534	-38,96
960,739	-38,06
960,945	-35,74
961,15	-34,56
961,355	-34,66
961,56	-38,35
961,765	-37,35
961,97	-37,58
962,175	-34,92
962,38	-38,74
962,585	-37,48
962,79	-39,34
962,995	-38,48
963,2	-39,99
963,404	-39,35
963,609	-41,06
963,814	-41,28
964,019	-43,49
964,224	-45,85
964,428	-43,91
964,633	-42,1
964,838	-40,65
965,042	-39,64
965,247	-40,43
965,452	-40,52
965,656	-39,66
965,861	-38,76
966,066	-39,77
966,27	-36,83
966,475	-32,51
966,679	-36,03
966,884	-36,13
967,088	-37,48
967,292	-37,98
967,497	-37,05
967,701	-39,54
967,906	-37,29
968,11	-34,66
968,314	-31,45
968,518	-32,98
968,723	-29,51
968,927	-28,5
969,131	-27,34
969,335	-24,81
969,539	-22,98
969,744	-23,79
969,948	-20,71
970,152	-18,18
970,356	-15,79
970,56	-14,86
970,764	-15,55
970,968	-14,21
971,172	-14,53
971,376	-14,74
971,58	-13,55
971,784	-12,9
971,988	-15,26
972,192	-12,79
972,395	-13,12
972,599	-16,96
972,803	-19,53
973,007	-17,49
973,21	-17,89
973,414	-18,21
973,618	-19,22
973,822	-19,86
974,025	-18,85
974,229	-18,77
974,432	-22,28
974,636	-24,62
974,84	-23,6
975,043	-24,31
975,247	-26,7
975,45	-27,88
975,654	-27,34
975,857	-25,65
976,06	-25,2
976,264	-28,92
976,467	-28,57
976,671	-30,18
976,874	-28,09
977,077	-29,54
977,28	-29,82
977,484	-32,38
977,687	-33,49
977,89	-31,78
978,093	-32,23
978,297	-29,98
978,5	-31,79
978,703	-30,65
978,906	-29,43
979,109	-29,06
979,312	-27,27
979,515	-29,27
979,718	-28,89
979,921	-30,09
980,124	-31,82
980,327	-31,44
980,53	-32,59
980,733	-29,27
980,936	-27,14
981,138	-29,45
981,341	-28,26
981,544	-28,12
981,747	-28,78
981,949	-30,45
982,152	-32,02
982,355	-32,46
982,558	-27,79
982,76	-30,26
982,963	-30,61
983,165	-30,9
983,368	-29,63
983,571	-30,76
983,773	-27,32
983,976	-27,17
984,178	-27,49
984,381	-27,59
984,583	-30,4
984,785	-31,46
984,988	-28,91
985,19	-26,05
985,392	-28,54
985,595	-31,19
985,797	-29,22
985,999	-26,98
986,202	-23,38
986,404	-23,79
986,606	-20,48
986,808	-19,61
987,01	-19,1
987,212	-19,75
987,415	-20,54
987,617	-20,5
987,819	-21,01
988,021	-18,4
988,223	-21,1
988,425	-20,81
988,627	-21,15
988,829	-26,1
989,031	-24,94
989,232	-26,76
989,434	-25,09
989,636	-25,39
989,838	-23,95
990,04	-22,95
990,242	-22,8
990,443	-24,27
990,645	-22,72
990,847	-20,19
991,048	-19,01
991,25	-20,84
991,452	-23,25
991,653	-22,05
991,855	-22,41
992,057	-24,32
992,258	-22,86
992,46	-24,34
992,661	-21,41
992,863	-22,91
993,064	-23,33
993,265	-24,56
993,467	-26,03
993,668	-23,51
993,87	-22,35
994,071	-22,12
994,272	-22,35
994,473	-19,51
994,675	-18,75
994,876	-18,75
995,077	-18,25
995,278	-16,9
995,48	-14,58
995,681	-17,4
995,882	-15,69
996,083	-17,35
996,284	-21,6
996,485	-20,93
996,686	-21,9
996,887	-23,18
997,088	-27,46
997,289	-29,19
997,49	-29,87
997,691	-30,34
997,892	-31,27
998,092	-26,12
998,293	-26,21
998,494	-29,02
998,695	-30,83
998,896	-30,43
999,096	-30,49
999,297	-29,17
999,498	-31
999,698	-33,05
999,899	-36,76
1000,1	-40,09
1000,3	-39,7
1000,501	-39,27
1000,701	-39,56
1000,902	-39,68
1001,102	-38,64
1001,303	-36,37
1001,503	-39,26
1001,704	-39,16
1001,904	-39,76
1002,105	-40,88
1002,305	-40,89
1002,505	-41,31
1002,706	-42,66
1002,906	-42,16
1003,106	-42,59
1003,306	-39,75
1003,507	-38,75
1003,707	-38,68
1003,907	-36,04
1004,107	-34,26
1004,307	-36,93
1004,507	-34,27
1004,707	-34,01
1004,907	-33,34
1005,107	-33,79
1005,308	-34,27
1005,507	-36,02
1005,707	-33,42
1005,907	-33,44
1006,107	-30,35
1006,307	-28,46
1006,507	-30,34
1006,707	-30,87
1006,907	-29,28
1007,106	-30,83
1007,306	-30,87
1007,506	-30,05
1007,706	-28,31
1007,905	-29,61
1008,105	-29,12
1008,305	-30,6
1008,504	-30,16
1008,704	-24,55
1008,903	-24,04
1009,103	-22,36
1009,303	-24,69
1009,502	-24,63
1009,702	-24,34
1009,901	-23,91
1010,1	-27,87
1010,3	-26,64
1010,499	-27,68
1010,699	-30,17
1010,898	-31,29
1011,097	-30,15
1011,296	-30,17
1011,496	-31,5
1011,695	-31,99
1011,894	-33,8
1012,093	-30,48
1012,293	-31
1012,492	-32,6
1012,691	-31,11
1012,89	-30,82
1013,089	-34,33
1013,288	-32,81
1013,487	-33,42
1013,686	-34,07
1013,885	-36,62
1014,084	-36,21
1014,283	-35,58
1014,482	-36,66
1014,681	-36,46
1014,88	-41,51
1015,078	-39,98
1015,277	-42,69
1015,476	-42,17
1015,675	-41,61
1015,873	-42,07
1016,072	-44
1016,271	-39,73
1016,47	-43,87
1016,668	-42,91
1016,867	-43,13
1017,065	-44,45
1017,264	-46,28
1017,463	-47,09
1017,661	-46,71
1017,86	-46,82
1018,058	-44,97
1018,256	-46,3
1018,455	-48,03
1018,653	-45,55
1018,852	-44,65
1019,05	-46,16
1019,248	-48,33
1019,447	-48,67
1019,645	-48,54
1019,843	-50,87
1020,041	-49,18
1020,24	-48,59
1020,438	-44,8
1020,636	-43,2
1020,834	-46,47
1021,032	-44,48
1021,23	-45,61
1021,428	-43,23
1021,626	-38,29
1021,824	-39,41
1022,022	-38,96
1022,22	-37,5
1022,418	-37,41
1022,616	-37,66
1022,814	-38,23
1023,012	-38,88
1023,21	-36,55
1023,408	-35,74
1023,606	-35,46
1023,803	-30,41
1024,001	-29,96
1024,199	-34,11
1024,397	-32,73
1024,594	-31,35
1024,792	-33,52
1024,99	-34,4
1025,187	-35,18
1025,385	-29,7
1025,582	-29,51
1025,78	-30,6
1025,977	-29,38
1026,175	-28,52
1026,372	-28,44
1026,57	-30,99
1026,767	-27,79
1026,965	-25,23
1027,162	-23,74
1027,359	-24,57
1027,557	-23,57
1027,754	-27,65
1027,951	-27,82
1028,148	-25,77
1028,346	-27,04
1028,543	-29,3
1028,74	-29,74
1028,937	-31,5
1029,134	-31,6
1029,331	-32,76
1029,528	-33,15
1029,725	-33,59
1029,923	-37,36
1030,12	-33,33
1030,317	-31,21
1030,513	-31,27
1030,71	-30,47
1030,907	-28,9
1031,104	-30,12
1031,301	-30,75
1031,498	-31,26
1031,695	-32,52
1031,892	-31,59
1032,088	-31,78
1032,285	-33,38
1032,482	-33,69
1032,678	-37,71
1032,875	-41,65
1033,072	-42,24
1033,268	-43,85
1033,465	-44,14
1033,662	-48,4
1033,858	-48,42
1034,055	-47,53
1034,251	-46,72
1034,448	-47,49
1034,644	-47,3
1034,84	-43,59
1035,037	-41,43
1035,233	-41,47
1035,43	-39,58
1035,626	-40,34
1035,822	-40,31
1036,019	-40,88
1036,215	-45,11
1036,411	-45,76
1036,607	-47,61
1036,803	-51,52
1037	-51,94
1037,196	-52,51
1037,392	-51,95
1037,588	-55,96
1037,784	-54,99
1037,98	-55,81
1038,176	-56,35
1038,372	-56,98
1038,568	-56,1
1038,764	-53,59
1038,96	-50,74
1039,156	-51,47
1039,352	-52,41
1039,547	-49,82
1039,743	-48,04
1039,939	-45,57
1040,135	-46,51
1040,331	-48,48
1040,526	-43,54
1040,722	-45,27
1040,918	-46,28
1041,113	-50,03
1041,309	-49,36
1041,505	-52,43
1041,7	-51,26
1041,896	-50,47
1042,091	-50,33
1042,287	-49,14
1042,482	-48,04
1042,678	-47,8
1042,873	-45,43
1043,069	-46,23
1043,264	-44,86
1043,459	-43,69
1043,655	-40,78
1043,85	-41,11
1044,045	-39,93
1044,24	-38,3
1044,436	-36,1
1044,631	-36,56
1044,826	-36,79
1045,021	-39,81
1045,216	-38,05
