Data from led_4000k_2_FLMT021711__18__17-34-49-672.txt Node

Date: Tue Nov 05 17:34:49 CET 2024
User: Etudiants TP
Spectrometer: FLMT02171
Trigger mode: 0
Integration Time (sec): 1,000000E-1
Scans to average: 5
Electric dark correction enabled: true
Nonlinearity correction enabled: true
Boxcar width: 15
XAxis mode: Wavelengths
Number of Pixels in Spectrum: 3648
>>>>>Begin Spectral Data<<<<<
194,658	-73,75
194,923	-67,97
195,188	-60,1
195,453	-59,05
195,717	-53,15
195,982	-51
196,247	-48,4
196,512	-51,24
196,777	-49,07
197,042	-46,94
197,307	-46,66
197,572	-42,81
197,837	-42,52
198,101	-39,32
198,366	-35,4
198,631	-34,04
198,896	-26,42
199,161	-18,87
199,425	-10,86
199,69	0,44
199,955	-1,01
200,22	-5,69
200,484	-6,74
200,749	-7,6
201,014	-5,74
201,278	-5,04
201,543	-4,11
201,807	-3,56
202,072	-1,89
202,337	-2,83
202,601	-2,6
202,866	-3,94
203,13	-3,4
203,395	-5,88
203,659	-6,35
203,924	-7,55
204,189	-6,88
204,453	-5,59
204,717	-2,42
204,982	-1,11
205,246	0,38
205,511	2,93
205,775	3,17
206,04	8,41
206,304	7,62
206,568	8,05
206,833	8,95
207,097	9,59
207,361	12,6
207,626	17,16
207,89	18,01
208,154	19,24
208,419	22,52
208,683	22,62
208,947	26,31
209,211	25,25
209,476	24,59
209,74	24,34
210,004	24,67
210,268	24,91
210,532	27,43
210,796	27,12
211,061	26,69
211,325	25,95
211,589	25,33
211,853	27,52
212,117	27,41
212,381	26,62
212,645	26,59
212,909	26,23
213,173	22,27
213,437	22,32
213,701	21,32
213,965	20,98
214,229	16,87
214,493	15,92
214,757	15,58
215,021	15,1
215,285	18,6
215,549	20,65
215,813	16,47
216,077	15,22
216,34	16,5
216,604	16,72
216,868	17,49
217,132	18,16
217,396	18,01
217,659	18,13
217,923	14,52
218,187	13,92
218,451	14,03
218,714	13,02
218,978	13,25
219,242	16,27
219,505	17,65
219,769	18,04
220,033	17,29
220,296	19,49
220,56	21,06
220,824	19,56
221,087	21,27
221,351	22,08
221,614	21,53
221,878	22,78
222,142	20,5
222,405	20,24
222,669	23,87
222,932	19,46
223,196	17,98
223,459	14,57
223,722	14,48
223,986	14,26
224,249	13,17
224,513	15,29
224,776	13,28
225,04	13,3
225,303	12,05
225,566	12,12
225,83	14,62
226,093	18,28
226,356	16,76
226,62	14,34
226,883	15,17
227,146	16,35
227,409	14,79
227,673	12,2
227,936	12,05
228,199	11,84
228,462	9,09
228,725	8,37
228,989	8,04
229,252	8,3
229,515	14,56
229,778	13,41
230,041	12,73
230,304	12,95
230,567	13,87
230,83	12,22
231,093	15,08
231,356	14,85
231,619	21,37
231,882	20,85
232,145	22,15
232,408	22,71
232,671	20,32
232,934	21,04
233,197	20,36
233,46	19,07
233,723	21,16
233,986	19,28
234,249	16,9
234,512	19,15
234,775	23,12
235,037	22,69
235,3	22,15
235,563	23
235,826	23,95
236,089	25,48
236,351	26,08
236,614	28,56
236,877	28,03
237,14	31,05
237,402	30,17
237,665	22,84
237,928	22,1
238,19	19,94
238,453	22,23
238,716	21
238,978	20,34
239,241	19,75
239,503	22,89
239,766	17,79
240,029	15,01
240,291	18,92
240,554	17,92
240,816	17,8
241,079	18,08
241,341	18,11
241,604	16,9
241,866	12,93
242,129	13,78
242,391	15,62
242,653	14,93
242,916	15,66
243,178	15,35
243,441	15,81
243,703	14,32
243,965	11,6
244,228	12,85
244,49	12,11
244,752	10,93
245,015	12,37
245,277	12,55
245,539	12,18
245,801	13,88
246,064	12,89
246,326	11,68
246,588	11,21
246,85	12,94
247,112	15,01
247,374	15,59
247,637	16,94
247,899	16,81
248,161	17,58
248,423	12,34
248,685	12,63
248,947	12,51
249,209	12,88
249,471	13,67
249,733	15,08
249,995	13,67
250,257	11,95
250,519	10,66
250,781	12,69
251,043	7,15
251,305	9,04
251,567	11,49
251,829	12,37
252,091	13,47
252,353	8,64
252,615	9,83
252,876	8,81
253,138	6,69
253,4	3,58
253,662	3,21
253,924	5,27
254,185	7,45
254,447	8,14
254,709	8,7
254,971	11
255,232	12,3
255,494	11,26
255,756	8,97
256,017	10,09
256,279	10,38
256,541	10
256,802	9,29
257,064	10,8
257,326	9,45
257,587	9,92
257,849	11,48
258,11	15,04
258,372	17,39
258,633	19,05
258,895	19,06
259,156	20,08
259,418	18,11
259,679	12,27
259,941	10,8
260,202	13
260,464	15,59
260,725	13,89
260,987	12,93
261,248	12,12
261,509	12,11
261,771	13,29
262,032	15,38
262,293	15,6
262,555	16,44
262,816	13,76
263,077	11,17
263,338	6,97
263,6	7,9
263,861	6,64
264,122	5,02
264,383	7,82
264,645	10,05
264,906	9,44
265,167	9,36
265,428	10,33
265,689	11,01
265,95	7,91
266,211	9,89
266,473	8,64
266,734	5,67
266,995	1,92
267,256	2,91
267,517	6
267,778	10,41
268,039	11,59
268,3	9,79
268,561	7,75
268,822	9,33
269,083	7,64
269,344	7,25
269,604	7,4
269,865	7,07
270,126	3,16
270,387	3,27
270,648	4,09
270,909	3,64
271,17	2,43
271,43	-1,5
271,691	-4,85
271,952	-4,05
272,213	-1,98
272,473	-5,58
272,734	-4,92
272,995	-2,42
273,256	-2,23
273,516	-1,11
273,777	-2,8
274,038	-0,56
274,298	-3,82
274,559	-5,38
274,82	-0,9
275,08	2,62
275,341	5,58
275,601	3,47
275,862	1,36
276,122	1,65
276,383	2,42
276,643	4,79
276,904	4,61
277,164	8,3
277,425	8,81
277,685	12,93
277,946	12,87
278,206	14,44
278,467	16,83
278,727	16,74
278,987	16,32
279,248	15,6
279,508	19,72
279,768	22,49
280,029	22,76
280,289	18,7
280,549	18,09
280,81	18,4
281,07	16,47
281,33	18,9
281,59	16,5
281,851	18,43
282,111	17,7
282,371	16,81
282,631	19,45
282,891	17,24
283,151	14,8
283,412	11,97
283,672	11,69
283,932	12,34
284,192	13,7
284,452	12,52
284,712	9,39
284,972	8,28
285,232	5,93
285,492	8,72
285,752	4,96
286,012	10,71
286,272	12,66
286,532	9,52
286,792	10,77
287,052	12,79
287,312	13,16
287,571	11,26
287,831	11,64
288,091	8,13
288,351	10,24
288,611	14,13
288,871	13,14
289,13	13,82
289,39	8,65
289,65	10,6
289,91	7,61
290,17	10,96
290,429	14,03
290,689	10,28
290,949	7,89
291,208	10,04
291,468	11,39
291,728	12,27
291,987	13,49
292,247	12,58
292,506	14,44
292,766	19,12
293,026	18,03
293,285	20,09
293,545	21,13
293,804	20,78
294,064	17,05
294,323	13,77
294,583	14,37
294,842	13,29
295,102	13,9
295,361	14,26
295,621	14,81
295,88	15,5
296,139	16,14
296,399	15,79
296,658	9,6
296,917	10,14
297,177	6,85
297,436	8,5
297,695	7,13
297,955	8,43
298,214	7,17
298,473	7,66
298,732	11,02
298,992	14,83
299,251	12,81
299,51	10,55
299,769	11,37
300,028	12,12
300,287	11,49
300,547	11,16
300,806	7,23
301,065	10,73
301,324	10,78
301,583	6,52
301,842	3,53
302,101	1,09
302,36	2,43
302,619	2,74
302,878	3,85
303,137	2,16
303,396	3,82
303,655	6,3
303,914	3,02
304,173	3,94
304,432	3,77
304,691	8,53
304,95	5,94
305,208	11,44
305,467	11,48
305,726	9,62
305,985	11,33
306,244	11,31
306,503	11,37
306,761	9,64
307,02	5,79
307,279	7,27
307,537	7,32
307,796	4,26
308,055	0,58
308,314	2,38
308,572	1,35
308,831	3,46
309,09	4,13
309,348	5,78
309,607	6,8
309,865	11,62
310,124	11,81
310,382	13,06
310,641	13,5
310,9	12,15
311,158	12,22
311,417	12,23
311,675	11,55
311,933	11,92
312,192	13,33
312,45	12,77
312,709	11,18
312,967	10,8
313,226	8,85
313,484	7,94
313,742	7,6
314,001	5,24
314,259	4,54
314,517	5,31
314,776	7,78
315,034	10,56
315,292	9,1
315,55	7,4
315,809	7,94
316,067	8,85
316,325	6,94
316,583	7,91
316,841	6,82
317,1	3,71
317,358	-0,49
317,616	-1,92
317,874	-3,34
318,132	-4,78
318,39	-5,55
318,648	-6,56
318,906	-7,37
319,164	-6,75
319,422	-7,16
319,68	-8,19
319,938	-7,08
320,196	-7,29
320,454	-5,18
320,712	-4,81
320,97	-3,72
321,228	-5,12
321,486	-1,57
321,744	0,55
322,002	2,29
322,26	0,54
322,517	0,24
322,775	-3
323,033	-4,16
323,291	-3,17
323,549	-0,88
323,806	0,68
324,064	1,04
324,322	2,59
324,58	1,11
324,837	2,45
325,095	0,92
325,353	3,87
325,61	6,85
325,868	6,26
326,126	9
326,383	6,36
326,641	5,55
326,898	7,64
327,156	6,94
327,413	6,27
327,671	6,26
327,928	7,81
328,186	8,57
328,443	7
328,701	11,44
328,958	12,5
329,216	12,96
329,473	10,26
329,731	11,52
329,988	12,79
330,245	15,02
330,503	15,82
330,76	15,98
331,017	16,83
331,275	15,06
331,532	15,09
331,789	11,99
332,047	12,12
332,304	8,8
332,561	9,52
332,818	9,2
333,076	11,03
333,333	11,01
333,59	11,55
333,847	12,18
334,104	11,73
334,361	12,42
334,618	11,31
334,876	8,72
335,133	8,6
335,39	6,67
335,647	7,48
335,904	4,49
336,161	0,97
336,418	2,2
336,675	-2,45
336,932	-1,62
337,189	-1,4
337,446	-0,79
337,703	-3,42
337,96	-8,95
338,216	-8,93
338,473	-12,49
338,73	-11,9
338,987	-11,99
339,244	-8,71
339,501	-10,33
339,757	-9,51
340,014	-8,78
340,271	-6,26
340,528	-5,37
340,785	-1,5
341,041	-0,47
341,298	-2,83
341,555	-3,45
341,811	-2,93
342,068	-5,82
342,325	-5,3
342,581	-2,43
342,838	0,13
343,094	0,55
343,351	1,18
343,608	-0,17
343,864	2,41
344,121	4,67
344,377	3,18
344,634	1,95
344,89	0,54
345,147	0,37
345,403	-1,12
345,66	-0,72
345,916	0,49
346,172	-1,71
346,429	-2,53
346,685	-3,63
346,942	-2,46
347,198	-6,75
347,454	-5,83
347,711	-4,65
347,967	-6,92
348,223	-7,11
348,48	-7,24
348,736	-4,7
348,992	-5,83
349,248	-3,68
349,504	-4
349,761	-4,35
350,017	-3,45
350,273	-4,22
350,529	-6,1
350,785	-7,34
351,041	-8,63
351,297	-6,03
351,554	-8,51
351,81	-11,23
352,066	-12,83
352,322	-12,35
352,578	-10,63
352,834	-11,39
353,09	-10,92
353,346	-11,21
353,602	-12,26
353,858	-11,12
354,114	-11,64
354,369	-10,5
354,625	-7,25
354,881	-9,23
355,137	-6,18
355,393	-6,27
355,649	-6,06
355,905	-6,6
356,16	-5,96
356,416	-5,56
356,672	-13,06
356,928	-11,47
357,183	-13,01
357,439	-13,24
357,695	-15,08
357,951	-9,67
358,206	-9,88
358,462	-9,32
358,718	-11,57
358,973	-9,99
359,229	-11,28
359,484	-9,45
359,74	-5,75
359,996	-4,12
360,251	-0,58
360,507	-2,34
360,762	-2,24
361,018	-1,15
361,273	-1,11
361,529	0,27
361,784	0,24
362,04	1,93
362,295	1,66
362,55	1,12
362,806	3,33
363,061	3,52
363,316	4,46
363,572	5,82
363,827	9,42
364,082	6,34
364,338	6,11
364,593	7,15
364,848	8,15
365,104	8,57
365,359	10,53
365,614	10,12
365,869	6,12
366,124	7,37
366,38	6,41
366,635	8,96
366,89	10,11
367,145	10,12
367,4	14,02
367,655	13,2
367,91	13,45
368,165	11,06
368,42	9,98
368,675	11,19
368,93	11,55
369,185	8,31
369,44	9,66
369,695	12,51
369,95	11,76
370,205	11,02
370,46	11
370,715	10,7
370,97	11,76
371,225	11,82
371,48	13,14
371,734	12,63
371,989	14,74
372,244	14,15
372,499	15,3
372,754	12,43
373,008	10,51
373,263	6,26
373,518	9,78
373,773	8,09
374,027	6,94
374,282	7,9
374,537	8,34
374,791	8,65
375,046	7,2
375,301	6,39
375,555	4,81
375,81	5,8
376,064	6,7
376,319	10,66
376,573	9,71
376,828	6,16
377,082	11,62
377,337	8,18
377,591	4,22
377,846	5,43
378,1	8,8
378,355	8,93
378,609	8,43
378,863	4,65
379,118	5,4
379,372	2,69
379,627	0,45
379,881	-2,07
380,135	-2,49
380,389	-2,96
380,644	-1,18
380,898	-0,65
381,152	1,9
381,407	1,98
381,661	4,76
381,915	6,73
382,169	9,09
382,423	8,26
382,677	6,12
382,932	8,01
383,186	8,07
383,44	8,92
383,694	10,18
383,948	7,37
384,202	4,27
384,456	5,49
384,71	7,88
384,964	5,55
385,218	8,01
385,472	9,18
385,726	7,24
385,98	5,86
386,234	4,98
386,488	1,19
386,742	2,94
386,996	0,59
387,249	2,06
387,503	5,53
387,757	6,58
388,011	7,73
388,265	8,41
388,518	9,06
388,772	11,38
389,026	12,17
389,28	8,92
389,533	7,32
389,787	8,84
390,041	6,16
390,295	6,01
390,548	5,68
390,802	8,95
391,055	8,04
391,309	6,85
391,563	5,71
391,816	7,46
392,07	7,14
392,323	8,36
392,577	9,11
392,83	11,02
393,084	16,4
393,337	19,91
393,591	22,43
393,844	23,07
394,098	27,45
394,351	32,52
394,604	34,54
394,858	36,91
395,111	36,81
395,364	33,93
395,618	37,05
395,871	35,51
396,124	34,84
396,378	32,76
396,631	31,79
396,884	28,78
397,137	29,97
397,391	30,88
397,644	27,65
397,897	28,2
398,15	29,66
398,403	33,3
398,657	30,03
398,91	29,37
399,163	30,47
399,416	29,34
399,669	28,01
399,922	27,41
400,175	24,68
400,428	23,57
400,681	22,58
400,934	17,52
401,187	15,87
401,44	15,7
401,693	13,43
401,946	9,06
402,199	4,09
402,452	2,61
402,704	-1,47
402,957	-2,28
403,21	-1,18
403,463	-3,67
403,716	-3,32
403,969	-2,35
404,221	-2,15
404,474	1,01
404,727	4,36
404,98	6,41
405,232	7,29
405,485	9,24
405,738	11,23
405,99	10,62
406,243	9,91
406,496	12,18
406,748	11,01
407,001	10,88
407,253	11,91
407,506	11,74
407,759	13,3
408,011	10,86
408,264	11,08
408,516	11,88
408,769	11,19
409,021	12,35
409,274	12,3
409,526	16,83
409,778	15,46
410,031	19,03
410,283	18,6
410,536	25,49
410,788	23,28
411,04	23,27
411,293	25,61
411,545	26,3
411,797	25,4
412,049	24,98
412,302	24,08
412,554	23,94
412,806	21,34
413,058	18,7
413,311	18,95
413,563	18,1
413,815	18,79
414,067	17,22
414,319	16,53
414,571	17,83
414,823	15,81
415,075	13,96
415,328	14,86
415,58	17,65
415,832	19,32
416,084	20,76
416,336	18,38
416,588	20,84
416,84	18,14
417,091	19,86
417,343	14,8
417,595	17,57
417,847	18,92
418,099	19,75
418,351	17,4
418,603	21,48
418,855	22,12
419,106	21,39
419,358	21,86
419,61	21,67
419,862	23,43
420,114	22,31
420,365	22,3
420,617	22,9
420,869	21,91
421,12	21,91
421,372	22,09
421,624	20,98
421,875	20,87
422,127	17,01
422,379	16,54
422,63	19,27
422,882	18,83
423,133	19,1
423,385	18,79
423,636	21,28
423,888	21,26
424,139	25,8
424,391	23,74
424,642	23,67
424,894	21,66
425,145	22,33
425,396	19,36
425,648	21,57
425,899	20,7
426,151	21,69
426,402	19,91
426,653	20,37
426,905	19,08
427,156	16,66
427,407	17,35
427,658	15,21
427,91	12,05
428,161	10,97
428,412	13,15
428,663	13,95
428,914	14,51
429,166	16,1
429,417	17,25
429,668	16,95
429,919	15,35
430,17	16,2
430,421	16,37
430,672	19,64
430,923	20,36
431,174	18,94
431,425	19,37
431,676	20,01
431,927	16,32
432,178	17,96
432,429	17,69
432,68	18,24
432,931	21,59
433,182	25,13
433,433	21,52
433,683	23,28
433,934	22,27
434,185	20,35
434,436	19,66
434,687	20,94
434,937	25,37
435,188	22,75
435,439	23,46
435,69	26,24
435,94	26,25
436,191	26,96
436,442	27,8
436,692	26,6
436,943	22,26
437,194	20,23
437,444	21,96
437,695	26,88
437,945	28,24
438,196	26,83
438,447	25,79
438,697	25,8
438,948	26,09
439,198	23,31
439,449	19,93
439,699	21,13
439,949	20,67
440,2	22,19
440,45	23,34
440,701	21,66
440,951	22,23
441,201	24,53
441,452	23,65
441,702	23,08
441,952	25,52
442,203	25,79
442,453	25,26
442,703	25,68
442,953	26,86
443,204	29,62
443,454	28,07
443,704	29,36
443,954	27,08
444,204	28,74
444,455	30,14
444,705	33,98
444,955	35,34
445,205	36,25
445,455	35,4
445,705	35,43
445,955	35,33
446,205	35,87
446,455	37,74
446,705	39,17
446,955	40,98
447,205	43,3
447,455	45,19
447,705	44,86
447,955	44,01
448,205	46
448,454	47,63
448,704	49,25
448,954	47,34
449,204	49,5
449,454	50,71
449,704	51,07
449,953	51,31
450,203	54,47
450,453	52,33
450,703	57,3
450,952	56,7
451,202	59,93
451,452	60,5
451,701	64,59
451,951	69,47
452,201	70,08
452,45	70,24
452,7	73,56
452,949	74,14
453,199	74,58
453,448	78,03
453,698	82,13
453,947	82,82
454,197	82,35
454,446	81,71
454,696	86,12
454,945	87,22
455,195	86,98
455,444	88,22
455,693	92,99
455,943	91,09
456,192	92,44
456,442	93,33
456,691	95,58
456,94	95,21
457,189	95,13
457,439	97,1
457,688	100,75
457,937	100,13
458,186	99,87
458,436	99,51
458,685	100,57
458,934	99,18
459,183	99,46
459,432	101,17
459,681	100,2
459,93	100,47
460,179	99,51
460,429	96,27
460,678	99,63
460,927	102,16
461,176	98,72
461,425	96,45
461,674	97,77
461,923	98,02
462,172	97,23
462,42	94,6
462,669	96,22
462,918	96,07
463,167	95,65
463,416	91,88
463,665	92,29
463,914	91,53
464,162	88,77
464,411	88,92
464,66	91,1
464,909	90,36
465,158	90,78
465,406	88,34
465,655	90,59
465,904	92,79
466,152	93,18
466,401	93,73
466,65	95,22
466,898	93,01
467,147	89,1
467,395	88,2
467,644	90,35
467,893	90,29
468,141	90,58
468,39	86,73
468,638	84,19
468,887	84
469,135	84,34
469,384	83,79
469,632	83,94
469,88	84,72
470,129	86,93
470,377	83,72
470,626	86,37
470,874	88,43
471,122	90,13
471,371	88,88
471,619	88,18
471,867	90,86
472,115	91,29
472,364	86,88
472,612	90,43
472,86	87,81
473,108	89,34
473,356	88,27
473,605	89,27
473,853	84,64
474,101	84
474,349	82,37
474,597	85,89
474,845	83,93
475,093	81,86
475,341	77,49
475,589	77,72
475,837	78,76
476,085	79,78
476,333	78,91
476,581	79,88
476,829	79,3
477,077	82,64
477,325	81,49
477,573	83,15
477,821	81,36
478,069	83,13
478,317	81,21
478,564	83,02
478,812	81,82
479,06	80,5
479,308	79,66
479,555	78,67
479,803	77,1
480,051	79,68
480,299	78,47
480,546	78,4
480,794	75,37
481,042	77,03
481,289	75,42
481,537	78,29
481,784	77,72
482,032	82,07
482,28	81,48
482,527	81,99
482,775	83,53
483,022	87,18
483,27	89,04
483,517	92,33
483,765	92,82
484,012	93,1
484,259	91,29
484,507	93,71
484,754	92,93
485,002	93,07
485,249	90,92
485,496	93,4
485,744	92,96
485,991	93,52
486,238	92,37
486,486	94,35
486,733	97,16
486,98	100,56
487,227	100,35
487,474	102,1
487,722	105,49
487,969	103,35
488,216	104,77
488,463	106,63
488,71	103,64
488,957	102,68
489,204	101,76
489,451	102,77
489,699	100,75
489,946	98,49
490,193	98,28
490,44	96,98
490,687	96,24
490,934	93,89
491,18	90,93
491,427	91,9
491,674	94,86
491,921	95,93
492,168	95,74
492,415	94,29
492,662	96,69
492,909	99,46
493,155	98,18
493,402	96,02
493,649	95,28
493,896	95,62
494,142	93,5
494,389	93,22
494,636	92,45
494,883	91,14
495,129	90,81
495,376	88,57
495,623	91,54
495,869	93,95
496,116	95,09
496,362	97,37
496,609	101,91
496,855	108,09
497,102	106,9
497,348	107,65
497,595	109,3
497,841	114,7
498,088	114,91
498,334	115,01
498,581	114,37
498,827	114,74
499,074	116,42
499,32	117,48
499,566	121,63
499,813	122,21
500,059	120,77
500,305	120,33
500,552	119,38
500,798	119,92
501,044	126,56
501,29	125,06
501,537	122,74
501,783	125,07
502,029	128,85
502,275	125,88
502,521	124,52
502,767	124,26
503,013	128,44
503,26	125,01
503,506	122,18
503,752	124,72
503,998	123,93
504,244	124,71
504,49	121,3
504,736	124,64
504,982	125
505,228	127,43
505,474	127,93
505,72	129,42
505,966	128,43
506,211	134,21
506,457	134,98
506,703	131,47
506,949	131,06
507,195	129,92
507,441	127,43
507,686	131,04
507,932	132,06
508,178	135,03
508,424	133,87
508,669	132,02
508,915	133,44
509,161	137,04
509,406	137,98
509,652	137,27
509,898	141,86
510,143	144,1
510,389	143,72
510,634	139,53
510,88	145,54
511,125	149,15
511,371	148,15
511,616	147,93
511,862	144,32
512,107	143,86
512,353	145,4
512,598	146,79
512,844	145,13
513,089	142,63
513,335	144,14
513,58	146,17
513,825	146,15
514,071	145,18
514,316	146,15
514,561	147,46
514,806	146,57
515,052	149,18
515,297	148,12
515,542	149,79
515,787	150,23
516,033	151,85
516,278	151,11
516,523	150,61
516,768	149,86
517,013	148,07
517,258	148,65
517,503	147,82
517,748	148,72
517,993	149,74
518,238	150,35
518,483	148,41
518,728	146,61
518,973	145,35
519,218	147,54
519,463	149,29
519,708	147,92
519,953	145,16
520,198	144,41
520,443	146,88
520,688	151,12
520,933	149,39
521,177	149,04
521,422	145,9
521,667	149,72
521,912	150,01
522,157	146,3
522,401	148,7
522,646	148,13
522,891	148,3
523,135	147,99
523,38	147,94
523,625	146,87
523,869	149,48
524,114	151,53
524,358	150,65
524,603	151,35
524,848	147,01
525,092	147,13
525,337	149,08
525,581	151,18
525,826	152,64
526,07	152,94
526,315	154,94
526,559	153,14
526,803	150,05
527,048	153,81
527,292	156,25
527,537	155,93
527,781	156,23
528,025	153,18
528,269	153,09
528,514	153,69
528,758	151,94
529,002	152,59
529,247	155,03
529,491	153,77
529,735	158,18
529,979	158,03
530,223	159,52
530,467	157,12
530,712	154,82
530,956	152,42
531,2	153,45
531,444	151,62
531,688	153,64
531,932	153,76
532,176	153,86
532,42	155,41
532,664	154,92
532,908	151,15
533,152	148,68
533,396	148,26
533,64	147,46
533,884	144,82
534,128	145,06
534,371	146,45
534,615	146,9
534,859	144,52
535,103	144,12
535,347	143,31
535,59	145,18
535,834	141,94
536,078	143,98
536,322	145,93
536,565	148,66
536,809	146,98
537,053	149,52
537,296	147,7
537,54	147,04
537,784	146,68
538,027	148,61
538,271	147,68
538,514	149,03
538,758	148,68
539,001	145,69
539,245	144,5
539,488	144,71
539,732	147,72
539,975	148,8
540,219	152,49
540,462	154,23
540,706	156,26
540,949	155,17
541,192	155,07
541,436	159,9
541,679	166,06
541,922	166,96
542,166	161,7
542,409	161,38
542,652	162,29
542,895	162,06
543,139	162,62
543,382	167,36
543,625	165,83
543,868	165,97
544,111	164,96
544,354	162,4
544,598	160,34
544,841	160,57
545,084	159,57
545,327	157,49
545,57	158,04
545,813	160,28
546,056	158,85
546,299	159,46
546,542	163,21
546,785	164,79
547,028	165,36
547,271	163,75
547,514	162,56
547,756	158,5
547,999	159,85
548,242	159,45
548,485	157,57
548,728	158,16
548,971	154,46
549,213	153,08
549,456	151,54
549,699	152,21
549,942	151,03
550,184	149,38
550,427	150,07
550,67	148,96
550,912	142,52
551,155	144,23
551,398	143,59
551,64	142,52
551,883	143,33
552,125	142,21
552,368	142,53
552,61	140,51
552,853	143,77
553,095	141,32
553,338	140,95
553,58	140,72
553,823	138,42
554,065	139,99
554,308	136,14
554,55	135,47
554,792	131,65
555,035	131,35
555,277	129,55
555,519	129,94
555,762	128,39
556,004	130,1
556,246	126,63
556,488	127
556,731	123,79
556,973	126,62
557,215	126,72
557,457	130,59
557,699	132,76
557,941	129,63
558,183	129,32
558,426	133,92
558,668	129,88
558,91	129,93
559,152	129,64
559,394	128,16
559,636	130,6
559,878	131,51
560,12	131,28
560,362	132,45
560,604	133,65
560,845	133,33
561,087	133,77
561,329	136,61
561,571	134,49
561,813	136,17
562,055	134,58
562,297	136,58
562,538	138,06
562,78	142,02
563,022	138,06
563,264	139,53
563,505	139,09
563,747	139,73
563,989	137,47
564,23	138,13
564,472	135,46
564,714	134,98
564,955	134,02
565,197	132,1
565,438	134,99
565,68	137,24
565,921	133,83
566,163	134,91
566,404	132,94
566,646	134,83
566,887	138,93
567,129	139,9
567,37	138,09
567,612	141,06
567,853	136,9
568,094	137,68
568,336	137,65
568,577	137,27
568,818	137,68
569,06	134,27
569,301	131,57
569,542	131,58
569,783	134,44
570,025	133,39
570,266	133,25
570,507	135,76
570,748	134,68
570,989	135,16
571,23	136,81
571,472	135,93
571,713	133,63
571,954	134,59
572,195	134,15
572,436	135,87
572,677	138,58
572,918	139,38
573,159	137,66
573,4	135,85
573,641	134,91
573,882	136,38
574,123	134,09
574,364	127,86
574,604	127,1
574,845	124,28
575,086	121,85
575,327	123,1
575,568	122,21
575,809	120,77
576,049	119,57
576,29	117,01
576,531	122,31
576,771	125,67
577,012	127,36
577,253	126,35
577,494	124,59
577,734	123,29
577,975	122,96
578,215	121,91
578,456	120,39
578,697	121,88
578,937	124,77
579,178	124,41
579,418	122,88
579,659	121,84
579,899	118,05
580,14	116,2
580,38	113,46
580,62	112,77
580,861	115,35
581,101	114,98
581,342	114,56
581,582	110,7
581,822	113,57
582,063	112,33
582,303	113,59
582,543	114,47
582,783	114,76
583,024	115,66
583,264	118,54
583,504	115,96
583,744	116,14
583,984	112,97
584,224	112,42
584,465	110,97
584,705	109,65
584,945	111,34
585,185	110,94
585,425	111,09
585,665	111,64
585,905	110,24
586,145	107,34
586,385	104,48
586,625	105,91
586,865	104,65
587,105	104,84
587,345	104,92
587,585	104,75
587,824	104,98
588,064	105,51
588,304	102,98
588,544	102,23
588,784	100,58
589,024	102,58
589,263	101,12
589,503	98,87
589,743	100,9
589,982	99,76
590,222	99,4
590,462	96,77
590,701	93,31
590,941	96,19
591,181	95,58
591,42	93,82
591,66	94,95
591,899	97,18
592,139	97,37
592,378	96,29
592,618	95,1
592,857	94,43
593,097	93,97
593,336	93,98
593,576	92,76
593,815	94,15
594,055	92,81
594,294	92,86
594,533	91,63
594,773	90,36
595,012	90,85
595,251	91,11
595,491	92,91
595,73	94,65
595,969	95,36
596,208	95,77
596,447	98,93
596,687	98,29
596,926	98,1
597,165	93,43
597,404	94,54
597,643	92,17
597,882	91,19
598,121	91,73
598,36	92,87
598,599	93,68
598,838	93,91
599,077	89,78
599,316	88,22
599,555	86,44
599,794	87,4
600,033	87,89
600,272	87,12
600,511	85,61
600,75	87,93
600,989	89,84
601,228	87,88
601,466	88,51
601,705	89,23
601,944	89,39
602,183	91,88
602,422	89,53
602,66	87,55
602,899	86,6
603,138	86,67
603,376	87,81
603,615	88,59
603,854	87,6
604,092	86,63
604,331	89,61
604,569	91,06
604,808	90,66
605,047	92,3
605,285	92,66
605,524	91,92
605,762	89,61
606	90,82
606,239	91,04
606,477	92,47
606,716	89,23
606,954	88,92
607,193	84,92
607,431	81,33
607,669	80,09
607,908	78,39
608,146	79,65
608,384	77,65
608,622	77,87
608,861	76,28
609,099	75,14
609,337	75,03
609,575	74,63
609,813	76,98
610,052	77,49
610,29	71,22
610,528	68,03
610,766	66,02
611,004	64,75
611,242	61,79
611,48	62,17
611,718	57,25
611,956	57,38
612,194	53,59
612,432	52,56
612,67	51,08
612,908	52,47
613,146	49,87
613,384	47,43
613,621	44,88
613,859	43,63
614,097	43,02
614,335	42,66
614,573	45,17
614,811	47,39
615,048	46,48
615,286	47,15
615,524	44,14
615,761	42,28
615,999	41,91
616,237	42
616,474	43,11
616,712	44,05
616,95	41,68
617,187	40,63
617,425	41,63
617,662	43,62
617,9	43,63
618,137	41,83
618,375	41,11
618,612	39,18
618,85	40,82
619,087	45,02
619,325	45,34
619,562	45,19
619,799	43,96
620,037	44,01
620,274	42,9
620,511	46,5
620,749	44,23
620,986	44,51
621,223	43,01
621,461	43,03
621,698	44,75
621,935	43,19
622,172	41,31
622,409	44,07
622,647	43,38
622,884	42,23
623,121	45,56
623,358	43,91
623,595	44,14
623,832	45,02
624,069	43,08
624,306	43,76
624,543	45,34
624,78	45,24
625,017	44,71
625,254	45,76
625,491	47,67
625,728	49,1
625,965	48,84
626,202	46,96
626,438	44,87
626,675	43,2
626,912	45,74
627,149	46,86
627,386	47,54
627,622	46,41
627,859	45,12
628,096	46,07
628,333	46,8
628,569	47,11
628,806	49,62
629,043	48,17
629,279	50,28
629,516	52,63
629,752	48,57
629,989	50,41
630,225	49,4
630,462	48,69
630,699	48,83
630,935	47,67
631,171	45,29
631,408	44,65
631,644	42,9
631,881	38,54
632,117	36,34
632,354	38,42
632,59	37,48
632,826	36,64
633,063	35,9
633,299	38,52
633,535	38,23
633,771	37,38
634,008	38,8
634,244	36,5
634,48	34,3
634,716	35,71
634,953	36,14
635,189	36,09
635,425	38,15
635,661	40,45
635,897	38,64
636,133	37,24
636,369	34,88
636,605	30,7
636,841	29,86
637,077	31,61
637,313	31,1
637,549	31,04
637,785	29,28
638,021	31,02
638,257	31,04
638,493	32,08
638,729	31,41
638,965	35,55
639,2	37,42
639,436	36,87
639,672	36,22
639,908	35,03
640,144	39,7
640,379	41,48
640,615	38,61
640,851	39,03
641,086	40,85
641,322	40,44
641,558	43,34
641,793	44,52
642,029	41,79
642,264	40,39
642,5	40,06
642,736	34,95
642,971	35,17
643,207	34,61
643,442	32,06
643,678	33,47
643,913	35,32
644,148	34,72
644,384	35,55
644,619	35,06
644,855	36,82
645,09	36,42
645,325	34,75
645,561	34,59
645,796	32,38
646,031	36,4
646,266	33,25
646,502	32,29
646,737	34,68
646,972	35,48
647,207	36,05
647,442	32,58
647,678	28,96
647,913	32,36
648,148	33,05
648,383	31,7
648,618	31,2
648,853	29,85
649,088	31,17
649,323	34,67
649,558	35,36
649,793	36,38
650,028	39
650,263	35,4
650,498	38,48
650,733	38,98
650,968	36,69
651,202	38,04
651,437	35,02
651,672	32,59
651,907	32,07
652,142	32,02
652,376	33,13
652,611	36,04
652,846	37,49
653,081	37,23
653,315	35,26
653,55	34,89
653,785	34,28
654,019	35,51
654,254	32,64
654,488	33,56
654,723	30,24
654,958	29,55
655,192	27,29
655,427	24,67
655,661	25,64
655,896	28,62
656,13	30,67
656,364	28,49
656,599	23,63
656,833	26,72
657,068	27,71
657,302	26,93
657,536	24,83
657,771	25,64
658,005	27,21
658,239	30,28
658,474	27,09
658,708	28,02
658,942	27
659,176	24,61
659,41	22,52
659,645	22,41
659,879	21,07
660,113	17,13
660,347	17,3
660,581	13,97
660,815	13,53
661,049	12,75
661,283	9,22
661,517	8,5
661,751	6,41
661,985	6,14
662,219	7,49
662,453	5,6
662,687	7,56
662,921	4,5
663,155	2,98
663,389	-4,06
663,622	-5,11
663,856	-2,45
664,09	-6,07
664,324	-7,21
664,558	-7,45
664,791	-8,02
665,025	-9,74
665,259	-10,46
665,492	-11,52
665,726	-6,92
665,96	-5,84
666,193	-5,89
666,427	-4,25
666,661	-6,44
666,894	-8,92
667,128	-10,2
667,361	-6,49
667,595	-7,19
667,828	-6,77
668,062	-6,3
668,295	-5,41
668,529	-4,59
668,762	-4,87
668,995	-5,14
669,229	-1,16
669,462	-0,78
669,695	1,16
669,929	-0,76
670,162	0,54
670,395	-1,53
670,629	0,91
670,862	2,31
671,095	-1,45
671,328	-1,38
671,561	-4,57
671,795	-2,87
672,028	0,32
672,261	1,68
672,494	3,15
672,727	1,56
672,96	2,14
673,193	1,13
673,426	5,41
673,659	5
673,892	5,23
674,125	5,25
674,358	4,96
674,591	1,69
674,824	0,76
675,057	0,92
675,29	-1,23
675,523	0,05
675,755	-0,13
675,988	0,57
676,221	4,2
676,454	1,99
676,687	4,45
676,919	3,11
677,152	3,29
677,385	2,66
677,617	2,57
677,85	3,48
678,083	3,01
678,315	6,96
678,548	6,37
678,78	6,21
679,013	5,37
679,246	5,02
679,478	5,35
679,711	3,42
679,943	5,5
680,175	0,36
680,408	4,07
680,64	-0,83
680,873	1,77
681,105	4,38
681,338	8,68
681,57	8,41
681,802	10,66
682,034	10,66
682,267	14
682,499	15,76
682,731	12,5
682,964	11,01
683,196	8,97
683,428	7,75
683,66	6,24
683,892	7,97
684,124	10,5
684,356	13,1
684,589	12,77
684,821	12,21
685,053	11,63
685,285	12,67
685,517	13,16
685,749	12,67
685,981	13,9
686,213	14,03
686,445	13,22
686,676	10,38
686,908	11,02
687,14	9,38
687,372	11,49
687,604	7,76
687,836	9,47
688,068	8,99
688,299	8,78
688,531	6,56
688,763	10,52
688,995	8,66
689,226	13,51
689,458	10,49
689,69	9,54
689,921	8,9
690,153	8,71
690,384	11,68
690,616	9,46
690,848	11,4
691,079	8,21
691,311	5,79
691,542	3,09
691,774	1,34
692,005	4,46
692,237	8,56
692,468	5,83
692,699	5,41
692,931	5
693,162	2,72
693,393	2,54
693,625	2,17
693,856	2,9
694,087	3,56
694,319	5,56
694,55	3,92
694,781	3,4
695,012	3,75
695,243	0,55
695,475	-1,59
695,706	-2,52
695,937	-3,11
696,168	-2,5
696,399	-4,87
696,63	-4,25
696,861	-4,97
697,092	0,22
697,323	4,06
697,554	4,49
697,785	4,44
698,016	4,49
698,247	0,7
698,478	2,22
698,709	2,43
698,94	6,01
699,171	5,53
699,401	1,49
699,632	2,71
699,863	-0,09
700,094	1,07
700,325	5,22
700,555	5,75
700,786	8,07
701,017	8,62
701,247	7,97
701,478	6,9
701,709	8,23
701,939	7,35
702,17	9
702,401	11,54
702,631	14,18
702,862	12,87
703,092	8,87
703,323	11,48
703,553	12
703,784	11,7
704,014	13,15
704,244	8,3
704,475	6,63
704,705	6,22
704,936	7,12
705,166	6,41
705,396	9,54
705,627	8,75
705,857	11,07
706,087	10,29
706,317	8
706,548	6,56
706,778	6,14
707,008	7,62
707,238	8,08
707,468	5,71
707,698	4,46
707,928	2,37
708,158	1,42
708,389	1,21
708,619	0,5
708,849	-1,28
709,079	0,02
709,309	-2,24
709,539	-4,08
709,768	-3,85
709,998	-0,28
710,228	-0,22
710,458	-2,88
710,688	-6,3
710,918	-6,16
711,148	-6,63
711,378	-5,89
711,607	-7,22
711,837	-6,6
712,067	-6,63
712,297	-5,78
712,526	-6,51
712,756	-4,34
712,986	-7,4
713,215	-10,21
713,445	-8,71
713,674	-6,66
713,904	-6,11
714,134	-4,11
714,363	-5,56
714,593	-6,15
714,822	-7,02
715,052	-6,29
715,281	-4,7
715,511	-6,18
715,74	-5,96
715,969	-6,25
716,199	-6,89
716,428	-7,17
716,657	-7,32
716,887	-6,27
717,116	-9,85
717,345	-7,49
717,575	-6,25
717,804	-3,93
718,033	-4,9
718,262	-5,69
718,492	-5,44
718,721	-4,53
718,95	-5,47
719,179	-6,94
719,408	-7,46
719,637	-10,43
719,866	-12,81
720,095	-12,02
720,324	-11,8
720,553	-16,2
720,782	-17,59
721,011	-17,14
721,24	-19,94
721,469	-19,74
721,698	-20,32
721,927	-19,73
722,156	-21,09
722,385	-22,22
722,613	-18,46
722,842	-18,11
723,071	-15,71
723,3	-13,79
723,529	-13,97
723,757	-13,55
723,986	-16,92
724,215	-16,47
724,443	-15,58
724,672	-13,38
724,901	-13,12
725,129	-11,68
725,358	-7,93
725,586	-9,82
725,815	-10,09
726,043	-10,69
726,272	-12,55
726,5	-12,65
726,729	-11,23
726,957	-14,73
727,186	-16,53
727,414	-14,69
727,642	-12,81
727,871	-11,27
728,099	-12,29
728,327	-11,47
728,556	-9,32
728,784	-7,31
729,012	-8,99
729,241	-6,32
729,469	-6,12
729,697	-9,67
729,925	-9,58
730,153	-10,19
730,381	-10,49
730,61	-10,93
730,838	-13,19
731,066	-12,33
731,294	-12,05
731,522	-14,62
731,75	-18,7
731,978	-18,84
732,206	-18,61
732,434	-21,73
732,662	-19,55
732,89	-21,15
733,118	-21,66
733,346	-21,21
733,573	-20,61
733,801	-20,11
734,029	-12,32
734,257	-10,8
734,485	-7,95
734,712	-5,33
734,94	-7,52
735,168	-3,54
735,396	-4,85
735,623	-6,67
735,851	-6,21
736,078	-4,45
736,306	-4,29
736,534	-4,12
736,761	-2,81
736,989	-5,45
737,216	-6,42
737,444	-7,77
737,671	-5,01
737,899	0,3
738,126	-0,46
738,354	-1,2
738,581	-0,68
738,809	-0,42
739,036	-3,64
739,263	-3,98
739,491	-5,37
739,718	-5,88
739,945	-1,37
740,173	1,49
740,4	0,92
740,627	-0,89
740,854	0,31
741,081	-2,31
741,309	-4
741,536	-7,99
741,763	-9,21
741,99	-7,73
742,217	-8,13
742,444	-7,88
742,671	-6,64
742,898	-7,21
743,125	-9,23
743,352	-12,73
743,579	-13,71
743,806	-14,9
744,033	-12,13
744,26	-10,51
744,487	-10,9
744,714	-11,88
744,941	-11,17
745,167	-7,14
745,394	-8,12
745,621	-8,27
745,848	-7,77
746,075	-5,09
746,301	-1,24
746,528	2,64
746,755	0,74
746,981	-0,37
747,208	-0,56
747,435	3,94
747,661	5,18
747,888	5,99
748,114	3,43
748,341	6,65
748,567	8,09
748,794	5,55
749,02	5,27
749,247	1,76
749,473	2,36
749,7	1,92
749,926	1,81
750,152	5,77
750,379	7,16
750,605	8,08
750,831	8,04
751,058	7,96
751,284	5,74
751,51	9,23
751,737	10,31
751,963	7,04
752,189	5,34
752,415	6,72
752,641	6,31
752,867	6,5
753,094	4,74
753,32	3,64
753,546	2,29
753,772	5,35
753,998	3,83
754,224	3,38
754,45	2,27
754,676	1,55
754,902	0,24
755,128	0,59
755,354	-0,61
755,579	1,3
755,805	3,38
756,031	2,26
756,257	2,19
756,483	0,98
756,709	-1,25
756,934	-0,5
757,16	-4,23
757,386	-3,76
757,612	-6,42
757,837	-6,71
758,063	-4,85
758,289	-1,77
758,514	-4,93
758,74	-8,08
758,965	-9,18
759,191	-7,91
759,416	-7,21
759,642	-6,07
759,868	-5,38
760,093	-2,95
760,318	-6,47
760,544	-6,74
760,769	-7,64
760,995	-7,86
761,22	-7,88
761,445	-7,16
761,671	-4,87
761,896	-2,82
762,121	-1,93
762,347	-2,19
762,572	-6,48
762,797	-6,57
763,022	-7,31
763,248	-4,28
763,473	-2,8
763,698	-2,17
763,923	-2,56
764,148	-1,13
764,373	-1,57
764,598	0,24
764,823	1,17
765,048	-2,34
765,273	-5,94
765,498	-6,78
765,723	-5,16
765,948	-5,08
766,173	-6,75
766,398	-5,41
766,623	-8,22
766,848	-7,69
767,073	-9,53
767,298	-8,3
767,522	-9,21
767,747	-7,92
767,972	-8,13
768,197	-7,38
768,421	-8,88
768,646	-12,79
768,871	-15,51
769,095	-16,49
769,32	-15,68
769,545	-15,34
769,769	-13,5
769,994	-10,5
770,218	-12,69
770,443	-12,22
770,667	-11,4
770,892	-11,95
771,116	-13,48
771,341	-11,43
771,565	-11,01
771,79	-10,86
772,014	-11,15
772,238	-12,2
772,463	-8,57
772,687	-9,01
772,911	-9,15
773,136	-10,92
773,36	-10,67
773,584	-7,69
773,808	-10,47
774,033	-10,2
774,257	-10,22
774,481	-9,8
774,705	-11,21
774,929	-11,15
775,153	-10,58
775,377	-9,28
775,602	-8,49
775,826	-7,59
776,05	-5,22
776,274	-6,99
776,498	-5,17
776,722	-6,46
776,945	-6,18
777,169	-6,97
777,393	-8,44
777,617	-8,5
777,841	-7,17
778,065	-4,82
778,289	-7,45
778,512	-10,2
778,736	-10,67
778,96	-10,58
779,184	-7,62
779,407	-9,65
779,631	-9,22
779,855	-9,62
780,078	-7,86
780,302	-10,33
780,526	-13,25
780,749	-14,01
780,973	-11,88
781,196	-11,08
781,42	-13,24
781,643	-12,05
781,867	-11,13
782,09	-15,31
782,314	-16,09
782,537	-15,62
782,76	-15,69
782,984	-13,38
783,207	-11,97
783,431	-12,84
783,654	-13,49
783,877	-16,32
784,1	-16,55
784,324	-17,29
784,547	-17,83
784,77	-21,78
784,993	-23,94
785,216	-24,24
785,44	-22,74
785,663	-22,98
785,886	-20,49
786,109	-21,9
786,332	-21,9
786,555	-21,71
786,778	-19,71
787,001	-19,4
787,224	-18,08
787,447	-17,08
787,67	-14,28
787,893	-15,1
788,116	-14,99
788,339	-11,83
788,561	-12,99
788,784	-16,03
789,007	-16,16
789,23	-16,83
789,453	-16,55
789,675	-18,16
789,898	-21,34
790,121	-23,27
790,344	-23,19
790,566	-23,47
790,789	-23,25
791,012	-22,41
791,234	-19,26
791,457	-15,39
791,679	-14,09
791,902	-11,97
792,124	-11,38
792,347	-12,32
792,569	-12,91
792,792	-16,34
793,014	-12,13
793,237	-11,36
793,459	-11,44
793,681	-10,8
793,904	-11,5
794,126	-13,09
794,348	-12,34
794,571	-10,67
794,793	-11,7
795,015	-10,51
795,237	-11,69
795,46	-10,32
795,682	-10,25
795,904	-7,04
796,126	-8,79
796,348	-10,58
796,57	-7,03
796,792	-6,11
797,014	-2,72
797,237	-1,01
797,459	0,77
797,681	2,09
797,903	0,55
798,124	0,69
798,346	10,87
798,568	12,52
798,79	14,84
799,012	15,92
799,234	18,42
799,456	20,27
799,678	22,94
799,899	20,19
800,121	18,11
800,343	19,42
800,565	18,26
800,786	18,85
801,008	20,97
801,23	21,47
801,451	21,1
801,673	19,61
801,895	17,16
802,116	17,33
802,338	16,87
802,559	17,71
802,781	15,2
803,002	17,47
803,224	20,11
803,445	17,08
803,667	18,31
803,888	16,43
804,109	15,84
804,331	15,13
804,552	14,21
804,773	15,69
804,995	13,26
805,216	-0,83
805,437	-2,6
805,658	-4,9
805,88	-5,85
806,101	-7,1
806,322	-7,97
806,543	-9,39
806,764	-12,52
806,985	-10,39
807,207	-10,3
807,428	-9,55
807,649	-12,98
807,87	-14,83
808,091	-14,86
808,312	-14,32
808,533	-8,34
808,754	-5,37
808,975	-6,86
809,195	-3,9
809,416	-2,94
809,637	-3,37
809,858	-5,09
810,079	-7,71
810,3	-4,84
810,52	-5,63
810,741	-7,15
810,962	-9,38
811,183	-10,44
811,403	-8,33
811,624	-9,08
811,845	-7,74
812,065	-6,91
812,286	-6,72
812,506	-7,19
812,727	-7,99
812,948	-6,88
813,168	-5,27
813,389	-5,54
813,609	-1,7
813,83	-2,86
814,05	-5,18
814,27	-5,14
814,491	-0,97
814,711	-1,72
814,931	-5,17
815,152	-5,89
815,372	-8,55
815,592	-10,31
815,813	-10,7
816,033	-12,44
816,253	-12,03
816,473	-12,26
816,694	-11,06
816,914	-8,92
817,134	-10,57
817,354	-12,99
817,574	-12,33
817,794	-11,03
818,014	-12,05
818,234	-12,54
818,454	-13,32
818,674	-16,18
818,894	-18,08
819,114	-15,23
819,334	-14,7
819,554	-12,11
819,774	-9,13
819,994	-12,23
820,214	-12,72
820,433	-12,72
820,653	-12,33
820,873	-9,7
821,093	-8,85
821,312	-11,07
821,532	-8,51
821,752	-4,96
821,972	-6,99
822,191	-6,26
822,411	-8,73
822,63	-7,73
822,85	-9,13
823,07	-11,43
823,289	-10,43
823,509	-11,95
823,728	-9,59
823,948	-10,72
824,167	-10,36
824,387	-11,33
824,606	-10,32
824,825	-10,06
825,045	-10,84
825,264	-11,39
825,483	-8,66
825,703	-7,32
825,922	-9,77
826,141	-11,65
826,361	-13,54
826,58	-18,27
826,799	-18,75
827,018	-17,5
827,237	-17,79
827,456	-17,44
827,676	-17,16
827,895	-18,24
828,114	-17
828,333	-16,38
828,552	-17,08
828,771	-16,06
828,99	-18,89
829,209	-16,04
829,428	-13,77
829,647	-12,65
829,866	-10,63
830,084	-10,47
830,303	-10,26
830,522	-10,99
830,741	-9,9
830,96	-10,27
831,179	-8,67
831,397	-9,86
831,616	-8,97
831,835	-9,48
832,053	-8,23
832,272	-8,15
832,491	-6,05
832,709	-7,34
832,928	-6,55
833,147	-5,34
833,365	-4,37
833,584	-0,45
833,802	1,84
834,021	1,06
834,239	2,17
834,458	-0,17
834,676	-3,86
834,894	-4,97
835,113	-6,6
835,331	-7,76
835,55	-9,06
835,768	-7,09
835,986	-7,66
836,204	-9,45
836,423	-9,34
836,641	-12,26
836,859	-13,96
837,077	-12,62
837,296	-14,19
837,514	-16,71
837,732	-17,38
837,95	-19,33
838,168	-16,48
838,386	-18,05
838,604	-15,56
838,822	-13,67
839,04	-14,47
839,258	-13,86
839,476	-11,7
839,694	-11,08
839,912	-12,05
840,13	-12,34
840,348	-10,17
840,566	-13,53
840,783	-11,83
841,001	-13,9
841,219	-11,58
841,437	-9,02
841,655	-8,05
841,872	-8,27
842,09	-7,71
842,308	-6,5
842,525	-6,32
842,743	-5,78
842,961	-6,8
843,178	-9,07
843,396	-4,51
843,613	-3,25
843,831	-2,27
844,048	-1,89
844,266	-1,74
844,483	-0,78
844,701	-1,3
844,918	-3,44
845,136	-2,6
845,353	-3,77
845,57	-4,67
845,788	-1,82
846,005	-4,92
846,222	-6,6
846,439	-5,6
846,657	-6,2
846,874	-5,7
847,091	-8,54
847,308	-6,86
847,526	-8,48
847,743	-8,84
847,96	-11,29
848,177	-11,61
848,394	-13,38
848,611	-14,2
848,828	-14,77
849,045	-14,88
849,262	-15,74
849,479	-15,88
849,696	-16,87
849,913	-18,6
850,13	-23,43
850,347	-21,57
850,564	-21,72
850,78	-23,1
850,997	-22,93
851,214	-23,05
851,431	-21,89
851,647	-22,6
851,864	-22,04
852,081	-20,71
852,298	-23,34
852,514	-25,35
852,731	-23,17
852,948	-19,83
853,164	-18,82
853,381	-19,41
853,597	-20,16
853,814	-22,11
854,03	-24,02
854,247	-21,79
854,463	-21,53
854,68	-21,8
854,896	-21,18
855,113	-19,48
855,329	-17,63
855,545	-14,95
855,762	-15,17
855,978	-17,38
856,194	-20,1
856,411	-15,37
856,627	-12,78
856,843	-10,85
857,059	-7,93
857,275	-10,27
857,492	-9,48
857,708	-6,05
857,924	-6,44
858,14	-3,57
858,356	-5,07
858,572	-4,68
858,788	-7,25
859,004	-4,92
859,22	-7,54
859,436	-8,14
859,652	-10
859,868	-11,68
860,084	-11,48
860,3	-10,46
860,516	-9,55
860,731	-9,13
860,947	-11,9
861,163	-10,3
861,379	-9,21
861,595	-8,17
861,81	-7,44
862,026	-7,37
862,242	-8,14
862,457	-8,78
862,673	-6,81
862,889	-6,07
863,104	-8,11
863,32	-7,96
863,535	-7,4
863,751	-12,04
863,966	-8,64
864,182	-6,74
864,397	-8,37
864,613	-8,84
864,828	-10,21
865,044	-7,46
865,259	-6,27
865,474	-5,39
865,69	-4,17
865,905	-2
866,12	-4,91
866,336	-4,89
866,551	-2,61
866,766	-2,21
866,981	-3,58
867,196	-4,09
867,412	-4,65
867,627	-3,46
867,842	-3,7
868,057	-4,71
868,272	-5,61
868,487	-7,68
868,702	-10,26
868,917	-11,32
869,132	-9,68
869,347	-10,44
869,562	-10,64
869,777	-9,86
869,992	-11,33
870,207	-12,83
870,422	-13,05
870,636	-15
870,851	-16,16
871,066	-17,93
871,281	-17,78
871,495	-19,85
871,71	-17,2
871,925	-20,45
872,14	-21,78
872,354	-24,32
872,569	-26,35
872,783	-22,77
872,998	-22,9
873,213	-24,61
873,427	-21,16
873,642	-20,91
873,856	-20,67
874,071	-19,68
874,285	-20,07
874,5	-21,44
874,714	-22,24
874,928	-22,49
875,143	-21,99
875,357	-21,52
875,571	-22,16
875,786	-21,67
876	-18,53
876,214	-16,69
876,429	-19,93
876,643	-18,26
876,857	-15,49
877,071	-15,1
877,285	-15,8
877,499	-19,27
877,714	-16,8
877,928	-14,5
878,142	-14,45
878,356	-17,09
878,57	-15,37
878,784	-14,36
878,998	-14,63
879,212	-11,44
879,426	-13,52
879,639	-12,26
879,853	-13,75
880,067	-15,06
880,281	-15,23
880,495	-14,01
880,709	-12,18
880,922	-13,38
881,136	-11,32
881,35	-8,71
881,564	-8,72
881,777	-11,18
881,991	-10,91
882,205	-8,5
882,418	-9,93
882,632	-12,44
882,845	-12,96
883,059	-11,46
883,273	-13,17
883,486	-15,09
883,7	-11,81
883,913	-12,35
884,126	-11,07
884,34	-14,31
884,553	-17
884,767	-13,33
884,98	-14,95
885,193	-16,42
885,407	-16,69
885,62	-14,23
885,833	-14,71
886,046	-14,73
886,26	-17,11
886,473	-17,6
886,686	-19,45
886,899	-17,41
887,112	-18,48
887,326	-21,48
887,539	-19,57
887,752	-19,82
887,965	-22,15
888,178	-20,82
888,391	-19,8
888,604	-19,14
888,817	-21,37
889,03	-18,87
889,243	-19,45
889,455	-21,05
889,668	-20,19
889,881	-15,38
890,094	-16,63
890,307	-20,07
890,52	-18,67
890,732	-16,53
890,945	-16,74
891,158	-16,03
891,37	-18,32
891,583	-17,67
891,796	-15,87
892,008	-17,45
892,221	-18,61
892,434	-21,26
892,646	-20,52
892,859	-19,64
893,071	-17,49
893,284	-15,1
893,496	-16,91
893,709	-16,26
893,921	-15,67
894,133	-16,91
894,346	-17,86
894,558	-17,44
894,771	-17,58
894,983	-14,05
895,195	-13,05
895,407	-11,74
895,62	-15,1
895,832	-14,39
896,044	-11,92
896,256	-13,13
896,468	-16,86
896,681	-13,52
896,893	-13,52
897,105	-13,28
897,317	-14,21
897,529	-11,44
897,741	-10,25
897,953	-8,21
898,165	-9,27
898,377	-10,22
898,589	-8,18
898,801	-8,67
899,013	-6,41
899,224	-3,85
899,436	-2,22
899,648	-3,9
899,86	-5,48
900,072	-3,39
900,283	-2,69
900,495	-0,25
900,707	0,12
900,919	-2,58
901,13	-2,66
901,342	-4,72
901,554	-6,27
901,765	-5,69
901,977	-7,89
902,188	-8,7
902,4	-9,65
902,611	-10,98
902,823	-12,11
903,034	-13,99
903,246	-17,24
903,457	-16,93
903,669	-18,11
903,88	-19,36
904,091	-20,22
904,303	-19,58
904,514	-21,71
904,725	-20,02
904,936	-20,12
905,148	-19,8
905,359	-18,7
905,57	-18,37
905,781	-21,26
905,992	-23,5
906,204	-21,08
906,415	-21,53
906,626	-23,27
906,837	-22,07
907,048	-24,5
907,259	-24,83
907,47	-25,57
907,681	-25,61
907,892	-22,99
908,103	-24,81
908,314	-29,03
908,525	-26,82
908,735	-26,37
908,946	-28,07
909,157	-28,86
909,368	-27,61
909,579	-25,83
909,789	-26,13
910	-28,75
910,211	-26,65
910,421	-25,88
910,632	-24,81
910,843	-27,84
911,053	-24,15
911,264	-20,84
911,475	-20,39
911,685	-20,36
911,896	-19,44
912,106	-20,27
912,317	-21,51
912,527	-18,56
912,737	-20,08
912,948	-18,55
913,158	-18,08
913,369	-20,18
913,579	-17,48
913,789	-17,74
914	-13,22
914,21	-12,79
914,42	-12,98
914,63	-12,39
914,841	-10
915,051	-9,66
915,261	-7,9
915,471	-4,73
915,681	-4,88
915,891	-3,57
916,101	-4,51
916,311	-3,77
916,521	-1,28
916,731	-0,97
916,941	0,9
917,151	0,25
917,361	3,69
917,571	-0,16
917,781	-3,21
917,991	-5,61
918,201	-6,07
918,411	-9,36
918,621	-9,41
918,83	-7,85
919,04	-10,43
919,25	-8,21
919,46	-7,53
919,669	-9,08
919,879	-9,16
920,089	-11,75
920,298	-12,64
920,508	-12,7
920,717	-12,09
920,927	-14,13
921,136	-13,65
921,346	-14,76
921,555	-16,38
921,765	-16,64
921,974	-18,7
922,184	-20,22
922,393	-22,39
922,603	-23,66
922,812	-21,29
923,021	-21,34
923,23	-23,26
923,44	-26
923,649	-26,36
923,858	-28,22
924,067	-29,01
924,277	-30,15
924,486	-27,85
924,695	-28,02
924,904	-26,11
925,113	-26,46
925,322	-25,87
925,531	-24,37
925,74	-27,8
925,949	-27,98
926,158	-26,18
926,367	-26,08
926,576	-24,09
926,785	-24,45
926,994	-24,95
927,203	-24,41
927,412	-24,9
927,621	-25,8
927,83	-24
928,038	-24,07
928,247	-24,19
928,456	-23,16
928,665	-21,88
928,873	-19,96
929,082	-17,12
929,291	-17,36
929,499	-15,62
929,708	-16,19
929,916	-15,52
930,125	-17,57
930,333	-17,83
930,542	-14,9
930,75	-11,76
930,959	-12,43
931,167	-12,19
931,376	-12,03
931,584	-10,36
931,793	-9,95
932,001	-12,06
932,209	-13,18
932,418	-17,07
932,626	-18,64
932,834	-19,14
933,042	-22,48
933,251	-21,87
933,459	-21,9
933,667	-23,1
933,875	-23,74
934,083	-22,08
934,291	-20,84
934,499	-20,27
934,707	-22,3
934,915	-22,51
935,123	-20,68
935,331	-20,79
935,539	-22,66
935,747	-23,38
935,955	-24,88
936,163	-24,3
936,371	-22,9
936,579	-18,72
936,787	-18,81
936,995	-20,63
937,202	-23,91
937,41	-22,79
937,618	-23,38
937,826	-23,74
938,033	-27,17
938,241	-28,42
938,449	-24,84
938,656	-21,52
938,864	-20,81
939,071	-21,65
939,279	-21,06
939,486	-17,97
939,694	-18,12
939,901	-19,87
940,109	-18,54
940,316	-16,1
940,524	-17,2
940,731	-18,46
940,939	-16,72
941,146	-15,52
941,353	-15,74
941,561	-15,77
941,768	-16,4
941,975	-15,42
942,182	-16,86
942,39	-16,26
942,597	-14,29
942,804	-15,76
943,011	-17,04
943,218	-16,1
943,425	-16,93
943,632	-15,5
943,839	-17,83
944,046	-19,02
944,253	-18,31
944,46	-18,12
944,667	-14,61
944,874	-15,74
945,081	-14,65
945,288	-12,69
945,495	-9
945,702	-8,55
945,909	-11,05
946,115	-9,51
946,322	-10,22
946,529	-12,7
946,736	-13,55
946,942	-13,05
947,149	-14,17
947,356	-16,41
947,562	-18,38
947,769	-18,32
947,976	-21,11
948,182	-19,88
948,389	-21,58
948,595	-19,83
948,802	-20,6
949,008	-23
949,215	-21,23
949,421	-21,97
949,628	-23,48
949,834	-22,09
950,04	-22,61
950,247	-16,86
950,453	-14,92
950,659	-16,54
950,865	-14,95
951,072	-20,27
951,278	-18,37
951,484	-21,12
951,69	-23,86
951,896	-24,81
952,103	-24,85
952,309	-23,28
952,515	-23,06
952,721	-21,28
952,927	-19,94
953,133	-21,47
953,339	-21,58
953,545	-21,89
953,751	-20,02
953,957	-15,07
954,163	-18,15
954,369	-15,71
954,574	-16,94
954,78	-16,38
954,986	-17
955,192	-14,03
955,398	-12,83
955,603	-15,07
955,809	-13,23
956,015	-12,8
956,22	-12,07
956,426	-12,76
956,632	-16,83
956,837	-17,86
957,043	-17,96
957,248	-16,69
957,454	-15,44
957,66	-18,44
957,865	-18,18
958,07	-16,43
958,276	-18,01
958,481	-19,74
958,687	-21,26
958,892	-22,42
959,097	-21,97
959,303	-22,19
959,508	-21,63
959,713	-21,51
959,919	-21,82
960,124	-23,86
960,329	-24,28
960,534	-19,13
960,739	-19,07
960,945	-16,85
961,15	-15,34
961,355	-16,08
961,56	-20,47
961,765	-22,2
961,97	-22,86
962,175	-23,23
962,38	-26,77
962,585	-26,83
962,79	-27,54
962,995	-28,88
963,2	-29,8
963,404	-29,01
963,609	-33,41
963,814	-34,85
964,019	-38,06
964,224	-40,18
964,428	-38,49
964,633	-38,13
964,838	-36
965,042	-36,21
965,247	-37,59
965,452	-38,56
965,656	-35,9
965,861	-34,55
966,066	-35,84
966,27	-32,31
966,475	-27,68
966,679	-32,74
966,884	-32,3
967,088	-34,25
967,292	-35,16
967,497	-34,63
967,701	-35,63
967,906	-34,08
968,11	-32,18
968,314	-28,01
968,518	-28,95
968,723	-24,76
968,927	-22,61
969,131	-20,68
969,335	-16,57
969,539	-15,39
969,744	-14,08
969,948	-9,61
970,152	-8,66
970,356	-5,98
970,56	-4,78
970,764	-5,6
970,968	-2,89
971,172	-3,4
971,376	-1,08
971,58	0,86
971,784	1,51
971,988	-1,03
972,192	0,16
972,395	1,24
972,599	-2,17
972,803	-5,01
973,007	-1,73
973,21	-3,46
973,414	-3,34
973,618	-4,85
973,822	-5,88
974,025	-4,35
974,229	-3,37
974,432	-5,88
974,636	-7,63
974,84	-6,59
975,043	-7,1
975,247	-10,47
975,45	-11,65
975,654	-13,03
975,857	-12,41
976,06	-12,77
976,264	-15,21
976,467	-12,47
976,671	-12,91
976,874	-12,12
977,077	-13,63
977,28	-14,98
977,484	-17,45
977,687	-18,26
977,89	-17,39
978,093	-17,31
978,297	-16,29
978,5	-18,42
978,703	-17,93
978,906	-16,95
979,109	-16,12
979,312	-14,98
979,515	-15,08
979,718	-14,86
979,921	-15,37
980,124	-16,76
980,327	-18,13
980,53	-18,89
980,733	-17,12
980,936	-14,05
981,138	-15,8
981,341	-15,02
981,544	-15,12
981,747	-15,97
981,949	-15,58
982,152	-14,92
982,355	-16,2
982,558	-11,7
982,76	-14,92
982,963	-15,65
983,165	-15,49
983,368	-14,56
983,571	-16,02
983,773	-12,9
983,976	-12,4
984,178	-12,18
984,381	-12,7
984,583	-14,54
984,785	-13,29
984,988	-10,52
985,19	-8,29
985,392	-10,98
985,595	-15,05
985,797	-14,88
985,999	-13,37
986,202	-9,73
986,404	-9,92
986,606	-6,28
986,808	-7,8
987,01	-7,51
987,212	-10,09
987,415	-10,46
987,617	-10,4
987,819	-11
988,021	-8,97
988,223	-12,35
988,425	-13,29
988,627	-13,99
988,829	-18,05
989,031	-15,83
989,232	-16,49
989,434	-16,01
989,636	-16,98
989,838	-16,35
990,04	-14,88
990,242	-16,59
990,443	-18,15
990,645	-16,65
990,847	-14,1
991,048	-14,89
991,25	-17,89
991,452	-19,67
991,653	-20,02
991,855	-18,78
992,057	-18,67
992,258	-16,97
992,46	-18,81
992,661	-17,34
992,863	-18,64
993,064	-17,02
993,265	-17,52
993,467	-18,87
993,668	-16,72
993,87	-17,41
994,071	-16,62
994,272	-17,6
994,473	-15,09
994,675	-14,48
994,876	-12,18
995,077	-12,62
995,278	-11,76
995,48	-8,95
995,681	-10,63
995,882	-9,46
996,083	-9,51
996,284	-14,42
996,485	-14,21
996,686	-14,87
996,887	-14,78
997,088	-18,98
997,289	-20,02
997,49	-20,96
997,691	-20,26
997,892	-19,94
998,092	-15,45
998,293	-16,4
998,494	-18,33
998,695	-18,37
998,896	-16,65
999,096	-17,68
999,297	-16,87
999,498	-18,37
999,698	-20,88
999,899	-22,63
1000,1	-24,1
1000,3	-24,21
1000,501	-24,38
1000,701	-23,96
1000,902	-24,48
1001,102	-24,84
1001,303	-22,52
1001,503	-26,09
1001,704	-27,05
1001,904	-27,09
1002,105	-26,82
1002,305	-26,77
1002,505	-27,11
1002,706	-27,04
1002,906	-27,1
1003,106	-27,41
1003,306	-25,4
1003,507	-22,62
1003,707	-22,15
1003,907	-21,53
1004,107	-20,52
1004,307	-23,06
1004,507	-21,21
1004,707	-20,42
1004,907	-21,89
1005,107	-22,97
1005,308	-21,23
1005,507	-24,26
1005,707	-22,19
1005,907	-21,71
1006,107	-19,12
1006,307	-17,34
1006,507	-16,92
1006,707	-14,78
1006,907	-15,71
1007,106	-16,57
1007,306	-16,7
1007,506	-17,67
1007,706	-16,35
1007,905	-18,35
1008,105	-17,8
1008,305	-18,48
1008,504	-18,27
1008,704	-12,09
1008,903	-11,26
1009,103	-8,51
1009,303	-11,37
1009,502	-11,66
1009,702	-13,97
1009,901	-13,54
1010,1	-15,05
1010,3	-13,2
1010,499	-15,39
1010,699	-17,3
1010,898	-18,41
1011,097	-17,85
1011,296	-17,41
1011,496	-19,15
1011,695	-18,6
1011,894	-19,71
1012,093	-16,2
1012,293	-16,9
1012,492	-18,03
1012,691	-18,62
1012,89	-21,34
1013,089	-21,74
1013,288	-19,08
1013,487	-19,68
1013,686	-18,99
1013,885	-20,66
1014,084	-18,34
1014,283	-18,67
1014,482	-20
1014,681	-20,44
1014,88	-24,68
1015,078	-23,16
1015,277	-26,54
1015,476	-27,02
1015,675	-26,75
1015,873	-25,86
1016,072	-27,19
1016,271	-25,34
1016,47	-29,11
1016,668	-26,1
1016,867	-28,3
1017,065	-29,94
1017,264	-31,02
1017,463	-31,24
1017,661	-31,25
1017,86	-31,12
1018,058	-28,96
1018,256	-29,91
1018,455	-32,78
1018,653	-31,3
1018,852	-31,24
1019,05	-32,12
1019,248	-33,75
1019,447	-36,48
1019,645	-36,96
1019,843	-38,12
1020,041	-36,57
1020,24	-37,11
1020,438	-32,83
1020,636	-32,43
1020,834	-34,62
1021,032	-33,47
1021,23	-35,78
1021,428	-34,3
1021,626	-30,91
1021,824	-30,6
1022,022	-31,17
1022,22	-29,16
1022,418	-27,81
1022,616	-28,66
1022,814	-30,1
1023,012	-29,45
1023,21	-27,07
1023,408	-26,66
1023,606	-27,62
1023,803	-23
1024,001	-22,91
1024,199	-26,76
1024,397	-26,09
1024,594	-25,55
1024,792	-27,63
1024,99	-25,7
1025,187	-26,65
1025,385	-23,79
1025,582	-22,76
1025,78	-23,05
1025,977	-22,87
1026,175	-22,69
1026,372	-22,91
1026,57	-25,21
1026,767	-22,4
1026,965	-20,78
1027,162	-19,27
1027,359	-19,53
1027,557	-18,42
1027,754	-22,25
1027,951	-23,64
1028,148	-22,07
1028,346	-23,06
1028,543	-26,05
1028,74	-24,41
1028,937	-25,77
1029,134	-25,92
1029,331	-26,53
1029,528	-26,08
1029,725	-25,95
1029,923	-28,94
1030,12	-25,18
1030,317	-23,11
1030,513	-22,37
1030,71	-20,45
1030,907	-17,15
1031,104	-19,65
1031,301	-17,83
1031,498	-16,52
1031,695	-17,44
1031,892	-16,47
1032,088	-16,28
1032,285	-17,43
1032,482	-18,75
1032,678	-22,76
1032,875	-25,33
1033,072	-24,48
1033,268	-25,49
1033,465	-24,92
1033,662	-28,37
1033,858	-27,28
1034,055	-25,89
1034,251	-23,62
1034,448	-25,21
1034,644	-25,1
1034,84	-22,44
1035,037	-21,45
1035,233	-19,81
1035,43	-18,93
1035,626	-19,57
1035,822	-20,78
1036,019	-23,07
1036,215	-25,91
1036,411	-27,76
1036,607	-30,08
1036,803	-32,93
1037	-35,02
1037,196	-35,24
1037,392	-35,92
1037,588	-38,7
1037,784	-37,85
1037,98	-38,93
1038,176	-39,61
1038,372	-39,25
1038,568	-37,09
1038,764	-33,34
1038,96	-31,03
1039,156	-32,2
1039,352	-32,67
1039,547	-30,71
1039,743	-28,44
1039,939	-25,99
1040,135	-27,69
1040,331	-29,54
1040,526	-26,35
1040,722	-27,12
1040,918	-27,92
1041,113	-29,71
1041,309	-29,95
1041,505	-33,4
1041,7	-32,21
1041,896	-30,49
1042,091	-29,47
1042,287	-29,03
1042,482	-26,99
1042,678	-26,48
1042,873	-24,85
1043,069	-24,64
1043,264	-23,55
1043,459	-22,31
1043,655	-21,23
1043,85	-21,43
1044,045	-19,8
1044,24	-18,74
1044,436	-16,93
1044,631	-17,38
1044,826	-18,69
1045,021	-21,26
1045,216	-20,12
