Data from led_4000k_2_FLMT021711__12__17-34-01-663.txt Node

Date: Tue Nov 05 17:34:01 CET 2024
User: Etudiants TP
Spectrometer: FLMT02171
Trigger mode: 0
Integration Time (sec): 1,000000E-1
Scans to average: 5
Electric dark correction enabled: true
Nonlinearity correction enabled: true
Boxcar width: 15
XAxis mode: Wavelengths
Number of Pixels in Spectrum: 3648
>>>>>Begin Spectral Data<<<<<
194,658	-71,82
194,923	-68,46
195,188	-60,36
195,453	-60,63
195,717	-54,48
195,982	-52,22
196,247	-49,6
196,512	-52,46
196,777	-51,41
197,042	-51,19
197,307	-50,04
197,572	-45,09
197,837	-45,05
198,101	-42,2
198,366	-39,43
198,631	-38,4
198,896	-31,51
199,161	-24,46
199,425	-16,85
199,69	-5,28
199,955	-6,06
200,22	-9,56
200,484	-10,72
200,749	-10,01
201,014	-9,03
201,278	-9,26
201,543	-9,61
201,807	-7,62
202,072	-6,76
202,337	-7,17
202,601	-6,82
202,866	-9,99
203,13	-8,94
203,395	-12,04
203,659	-10,97
203,924	-12,81
204,189	-12,17
204,453	-11,49
204,717	-8,8
204,982	-7,51
205,246	-4,87
205,511	-3,6
205,775	-5,33
206,04	-0,04
206,304	1,11
206,568	3,66
206,833	5
207,097	5,51
207,361	7
207,626	11,66
207,89	12,31
208,154	12,6
208,419	13,98
208,683	14,82
208,947	19,56
209,211	19,54
209,476	19,93
209,74	21,29
210,004	20,1
210,268	21,78
210,532	24,88
210,796	24,28
211,061	25,57
211,325	26,71
211,589	24,88
211,853	25,25
212,117	24,68
212,381	24,81
212,645	24,59
212,909	24,84
213,173	22,61
213,437	22,58
213,701	22,67
213,965	23,87
214,229	19,86
214,493	19,07
214,757	17,05
215,021	16,15
215,285	20,7
215,549	23,04
215,813	19,17
216,077	17,58
216,34	20,52
216,604	19,51
216,868	19,06
217,132	17,95
217,396	16,82
217,659	17,26
217,923	13,78
218,187	12,89
218,451	11,86
218,714	9,39
218,978	9,53
219,242	12,68
219,505	13,12
219,769	15,07
220,033	15,81
220,296	17,22
220,56	18,3
220,824	16,39
221,087	17,06
221,351	17,05
221,614	17,36
221,878	18,55
222,142	17,1
222,405	17,65
222,669	18,41
222,932	13,88
223,196	12,85
223,459	8,58
223,722	8,92
223,986	8,08
224,249	8,16
224,513	7,42
224,776	8,21
225,04	8,73
225,303	7,78
225,566	7,23
225,83	9,17
226,093	11,12
226,356	9,61
226,62	8,58
226,883	9,28
227,146	10,3
227,409	8,42
227,673	4,46
227,936	4,4
228,199	3,81
228,462	1,69
228,725	0,05
228,989	0,34
229,252	1,53
229,515	7,16
229,778	4,96
230,041	4,02
230,304	2,52
230,567	2,76
230,83	1,67
231,093	5,8
231,356	5,82
231,619	12,28
231,882	11,63
232,145	14,37
232,408	13,59
232,671	11,97
232,934	11,26
233,197	9,49
233,46	8,2
233,723	10,8
233,986	9,29
234,249	7,9
234,512	10,39
234,775	13,93
235,037	14,48
235,3	13,66
235,563	13,79
235,826	14,89
236,089	16,88
236,351	18,45
236,614	21,48
236,877	21,94
237,14	25,34
237,402	24,34
237,665	18,02
237,928	18,33
238,19	16,3
238,453	18,97
238,716	17,57
238,978	17,52
239,241	15,94
239,503	17,66
239,766	14,19
240,029	12,47
240,291	14,71
240,554	14,29
240,816	14,93
241,079	15,05
241,341	15,15
241,604	13,85
241,866	10,53
242,129	10,45
242,391	11,85
242,653	10,71
242,916	9,56
243,178	8,23
243,441	9,45
243,703	8,86
243,965	8,3
244,228	8,93
244,49	5,65
244,752	6,62
245,015	7,87
245,277	8,4
245,539	7,68
245,801	9,74
246,064	9,38
246,326	8,14
246,588	7,65
246,85	10,7
247,112	11
247,374	12,15
247,637	14,68
247,899	13,68
248,161	14,05
248,423	9,79
248,685	11,21
248,947	10,03
249,209	10,03
249,471	11,41
249,733	13,53
249,995	11,9
250,257	11,29
250,519	9,71
250,781	13,56
251,043	11,29
251,305	13,33
251,567	15,27
251,829	16,67
252,091	16,86
252,353	12,94
252,615	13,37
252,876	12,46
253,138	10,82
253,4	5,85
253,662	7,27
253,924	8,6
254,185	9,38
254,447	10,48
254,709	10,43
254,971	10,61
255,232	12,13
255,494	11
255,756	7,8
256,017	7,84
256,279	8,25
256,541	8,09
256,802	6,13
257,064	6,84
257,326	6,13
257,587	7
257,849	8,33
258,11	10,98
258,372	12,41
258,633	14,05
258,895	12,72
259,156	11,64
259,418	9,68
259,679	4,61
259,941	1,8
260,202	4,03
260,464	5,84
260,725	6,23
260,987	4,27
261,248	3,35
261,509	5,13
261,771	2,17
262,032	3,82
262,293	3,32
262,555	3,1
262,816	0,84
263,077	-1,95
263,338	-4,68
263,6	-4,15
263,861	-4,26
264,122	-5,41
264,383	-2,81
264,645	-0,84
264,906	-1,49
265,167	-0,2
265,428	-0,94
265,689	-0,73
265,95	-4,77
266,211	-2,95
266,473	-3,57
266,734	-7,09
266,995	-10,84
267,256	-9,88
267,517	-6,61
267,778	-2,53
268,039	-1,11
268,3	-3,55
268,561	-5,32
268,822	-0,44
269,083	-2,07
269,344	-4,1
269,604	-5,48
269,865	-3,78
270,126	-8,39
270,387	-6,75
270,648	-4,77
270,909	-4,43
271,17	-4,47
271,43	-7,28
271,691	-10,35
271,952	-11,23
272,213	-8,69
272,473	-11,22
272,734	-10,35
272,995	-8,25
273,256	-7,99
273,516	-6
273,777	-8,36
274,038	-5,17
274,298	-7,62
274,559	-7,79
274,82	-2,33
275,08	0,82
275,341	2,89
275,601	1,21
275,862	-1,3
276,122	-0,32
276,383	0,14
276,643	1,96
276,904	-1,14
277,164	1,98
277,425	3,08
277,685	8,17
277,946	8,35
278,206	9,94
278,467	10,18
278,727	9,28
278,987	7,99
279,248	7,64
279,508	10,42
279,768	13,28
280,029	14,55
280,289	11,26
280,549	8,97
280,81	7,24
281,07	5,65
281,33	7,2
281,59	6,6
281,851	8,17
282,111	7,38
282,371	6,99
282,631	8,53
282,891	5,87
283,151	3,65
283,412	1,19
283,672	0,02
283,932	0,11
284,192	0,54
284,452	-0,83
284,712	-3,93
284,972	-5,02
285,232	-7,16
285,492	-5,21
285,752	-9,43
286,012	-2,93
286,272	-1,33
286,532	-3,7
286,792	-3,06
287,052	-0,93
287,312	-1,71
287,571	-3,65
287,831	-3,67
288,091	-5,96
288,351	-5,93
288,611	-0,86
288,871	-0,82
289,13	-0,16
289,39	-4,97
289,65	-3,98
289,91	-6,39
290,17	-3,92
290,429	-0,77
290,689	-3,33
290,949	-5,91
291,208	-4,59
291,468	-0,46
291,728	0,87
291,987	2,69
292,247	1,78
292,506	4,73
292,766	9,16
293,026	7,7
293,285	8,16
293,545	10,98
293,804	11,91
294,064	6,98
294,323	3,99
294,583	5,75
294,842	6,56
295,102	7,49
295,361	8,99
295,621	10,28
295,88	10,75
296,139	10,75
296,399	12,55
296,658	7,13
296,917	9
297,177	6,73
297,436	10,16
297,695	8,43
297,955	10,5
298,214	8,03
298,473	7,87
298,732	10,97
298,992	14,11
299,251	14,56
299,51	10,39
299,769	11,71
300,028	11,78
300,287	10,35
300,547	10,34
300,806	6,9
301,065	11,45
301,324	13,07
301,583	9,93
301,842	6,36
302,101	4,33
302,36	5,73
302,619	4,18
302,878	3,02
303,137	1,21
303,396	2,3
303,655	4,19
303,914	1,28
304,173	1,17
304,432	0,42
304,691	4,79
304,95	1,59
305,208	6,48
305,467	5,48
305,726	4,59
305,985	6,54
306,244	8,33
306,503	8,51
306,761	7,23
307,02	3,77
307,279	3,73
307,537	4,86
307,796	1,53
308,055	-1,77
308,314	0,36
308,572	-1,56
308,831	0,11
309,09	-1,25
309,348	-0,75
309,607	-1,96
309,865	2,36
310,124	3,43
310,382	6,53
310,641	8,1
310,9	7,57
311,158	8,72
311,417	8,82
311,675	8,46
311,933	8,95
312,192	12,48
312,45	12,47
312,709	11,8
312,967	10,6
313,226	9,98
313,484	9,32
313,742	8,6
314,001	6,38
314,259	4,55
314,517	4,68
314,776	4,96
315,034	7,78
315,292	6,05
315,55	3,52
315,809	2,28
316,067	3,59
316,325	2,48
316,583	3,73
316,841	3,91
317,1	2,85
317,358	-0,1
317,616	-0,34
317,874	-1,03
318,132	-1,93
318,39	-3,67
318,648	-4,47
318,906	-5,3
319,164	-6,33
319,422	-7,53
319,68	-8,55
319,938	-7,22
320,196	-8,24
320,454	-6,24
320,712	-7,02
320,97	-4,33
321,228	-7,09
321,486	-4,36
321,744	-3,85
322,002	-2,22
322,26	-4,4
322,517	-4,48
322,775	-7,68
323,033	-10,02
323,291	-7,98
323,549	-6,02
323,806	-3,44
324,064	-3
324,322	-2,19
324,58	-3,77
324,837	-3,58
325,095	-5,89
325,353	-3,45
325,61	-2,37
325,868	-3,49
326,126	-1,04
326,383	-2,26
326,641	-3,23
326,898	-1,47
327,156	-1,43
327,413	-0,81
327,671	-0,42
327,928	0,72
328,186	-0,54
328,443	-3,47
328,701	1,25
328,958	0,72
329,216	1,1
329,473	-1,65
329,731	-0,88
329,988	-1,05
330,245	2,32
330,503	2,78
330,76	3,89
331,017	7,99
331,275	5,17
331,532	5,23
331,789	3,37
332,047	3,14
332,304	0,05
332,561	2,03
332,818	1,39
333,076	4,19
333,333	5
333,59	5,39
333,847	6,84
334,104	4,39
334,361	4,81
334,618	4,9
334,876	2,72
335,133	3,11
335,39	1,81
335,647	2,43
335,904	0,64
336,161	-1,01
336,418	-0,7
336,675	-6,07
336,932	-4,87
337,189	-5,13
337,446	-2,7
337,703	-3,03
337,96	-6,82
338,216	-7,03
338,473	-9,12
338,73	-9,23
338,987	-10,53
339,244	-7,42
339,501	-9,19
339,757	-6,81
340,014	-6,13
340,271	-4,25
340,528	-4,58
340,785	-0,84
341,041	-0,42
341,298	-4,59
341,555	-4,88
341,811	-5,34
342,068	-6,97
342,325	-8,23
342,581	-5,35
342,838	-3,36
343,094	-3,69
343,351	-4,29
343,608	-7,03
343,864	-5,43
344,121	-3,5
344,377	-4,25
344,634	-4,1
344,89	-5,37
345,147	-5,79
345,403	-8,05
345,66	-8,83
345,916	-6,72
346,172	-7,92
346,429	-9,35
346,685	-10,21
346,942	-10,05
347,198	-13,31
347,454	-12,08
347,711	-13,53
347,967	-16,97
348,223	-16,31
348,48	-17,88
348,736	-15,04
348,992	-16,35
349,248	-13,12
349,504	-13,56
349,761	-13,83
350,017	-13,11
350,273	-12,34
350,529	-14,68
350,785	-15,64
351,041	-16,48
351,297	-14,28
351,554	-15,15
351,81	-17,01
352,066	-17,77
352,322	-16,7
352,578	-16,93
352,834	-18,29
353,09	-18,92
353,346	-18,44
353,602	-19,16
353,858	-20,42
354,114	-22,04
354,369	-19,21
354,625	-16,13
354,881	-17,56
355,137	-15,52
355,393	-14,11
355,649	-14,51
355,905	-13,3
356,16	-13,39
356,416	-12,48
356,672	-19,91
356,928	-19,07
357,183	-18,23
357,439	-17,32
357,695	-18,55
357,951	-14,31
358,206	-14,51
358,462	-15,02
358,718	-17,02
358,973	-15,67
359,229	-15,81
359,484	-14,48
359,74	-11,99
359,996	-12,46
360,251	-8,77
360,507	-9,01
360,762	-7,62
361,018	-4,29
361,273	-6,13
361,529	-5,25
361,784	-5,64
362,04	-2,86
362,295	-5,43
362,55	-5,35
362,806	-3,91
363,061	-3,07
363,316	-4,01
363,572	-2,78
363,827	-0,52
364,082	-2,88
364,338	-3,1
364,593	-2,29
364,848	-1,34
365,104	-3,72
365,359	-1,96
365,614	-0,59
365,869	-2,6
366,124	-1,89
366,38	-1,72
366,635	0,86
366,89	1,26
367,145	0,73
367,4	4,53
367,655	4,58
367,91	5,53
368,165	3,25
368,42	0,37
368,675	0,63
368,93	0,37
369,185	-1,35
369,44	0,39
369,695	4,26
369,95	3
370,205	3,74
370,46	2,77
370,715	2,25
370,97	3,36
371,225	3,42
371,48	4,9
371,734	5,39
371,989	7,06
372,244	7,16
372,499	7,99
372,754	6,78
373,008	4,62
373,263	2,07
373,518	4,11
373,773	1,6
374,027	0,63
374,282	3,01
374,537	3,6
374,791	5,45
375,046	4,2
375,301	0,81
375,555	-1,04
375,81	0,77
376,064	1,29
376,319	5,1
376,573	3,6
376,828	-0,23
377,082	3,21
377,337	0,05
377,591	-4,45
377,846	-4,28
378,1	-2,92
378,355	-3,54
378,609	-3,49
378,863	-6,89
379,118	-5,44
379,372	-6,46
379,627	-9,65
379,881	-11,57
380,135	-11,39
380,389	-10,86
380,644	-11,32
380,898	-10,62
381,152	-10,56
381,407	-12,22
381,661	-9,58
381,915	-8,61
382,169	-9,54
382,423	-11,78
382,677	-15,19
382,932	-13,26
383,186	-11,36
383,44	-10,25
383,694	-8,22
383,948	-10,56
384,202	-11,65
384,456	-8,36
384,71	-6,46
384,964	-7,04
385,218	-4,63
385,472	-2,61
385,726	-2,52
385,98	-2,05
386,234	-1,34
386,488	-4,25
386,742	-4,28
386,996	-5,99
387,249	-5,32
387,503	-1,34
387,757	-0,09
388,011	1,39
388,265	1,1
388,518	1,58
388,772	3,27
389,026	4,66
389,28	3,29
389,533	2,36
389,787	4,36
390,041	2,02
390,295	3,22
390,548	3,05
390,802	4,17
391,055	3,85
391,309	3,21
391,563	0,13
391,816	1,92
392,07	2,48
392,323	2,76
392,577	4,14
392,83	5,58
393,084	11,2
393,337	14
393,591	14,11
393,844	14,68
394,098	18,37
394,351	22,02
394,604	25,26
394,858	27
395,111	27,48
395,364	23,46
395,618	24,68
395,871	21,47
396,124	20,26
396,378	19,96
396,631	20,41
396,884	16,98
397,137	17,57
397,391	18,61
397,644	14,75
397,897	15,79
398,15	16,08
398,403	19,32
398,657	17,4
398,91	15,8
399,163	16,15
399,416	15,12
399,669	12,98
399,922	10,18
400,175	8,22
400,428	6,87
400,681	6,52
400,934	2,06
401,187	0,91
401,44	1,11
401,693	-2,08
401,946	-6,63
402,199	-11,06
402,452	-12,76
402,704	-17,59
402,957	-19,43
403,21	-15,83
403,463	-16,19
403,716	-14,53
403,969	-12,06
404,221	-11,69
404,474	-9,9
404,727	-5,78
404,98	-4,5
405,232	-4,67
405,485	-2,47
405,738	0,3
405,99	1,41
406,243	1,04
406,496	4,04
406,748	4,81
407,001	4,49
407,253	5,95
407,506	4,79
407,759	6,54
408,011	3,38
408,264	4,5
408,516	4,59
408,769	2,14
409,021	3,55
409,274	3,65
409,526	6,32
409,778	6,93
410,031	10,65
410,283	10,77
410,536	17,17
410,788	14,85
411,04	12,98
411,293	14,79
411,545	15,92
411,797	13,44
412,049	12,25
412,302	12,15
412,554	13,23
412,806	11,12
413,058	9,37
413,311	10,03
413,563	8,24
413,815	6,95
414,067	4,56
414,319	3,74
414,571	4,12
414,823	0,74
415,075	-0,96
415,328	1,48
415,58	4,68
415,832	7,62
416,084	8,36
416,336	6,19
416,588	10,38
416,84	7,9
417,091	10,53
417,343	8,01
417,595	9,21
417,847	11,36
418,099	11,89
418,351	10,36
418,603	13,9
418,855	16,14
419,106	15,63
419,358	15,33
419,61	17,08
419,862	18,61
420,114	16,62
420,365	15,01
420,617	15,52
420,869	15,62
421,12	14,32
421,372	15,13
421,624	15,05
421,875	15,74
422,127	12,31
422,379	12,96
422,63	16,53
422,882	16,46
423,133	17,29
423,385	16,75
423,636	17,58
423,888	18,74
424,139	23,02
424,391	19,24
424,642	17,43
424,894	15,72
425,145	15,69
425,396	12,66
425,648	13,93
425,899	12,88
426,151	14,03
426,402	12,76
426,653	12,19
426,905	11,68
427,156	10,96
427,407	10,84
427,658	9,81
427,91	8,62
428,161	7,71
428,412	10,1
428,663	9,5
428,914	11,3
429,166	11,79
429,417	13,71
429,668	12,66
429,919	10,61
430,17	9,54
430,421	10,19
430,672	13,5
430,923	12,5
431,174	11,76
431,425	10,54
431,676	9,27
431,927	5,38
432,178	7,56
432,429	7,95
432,68	7,27
432,931	10,15
433,182	14,67
433,433	11,55
433,683	12,39
433,934	11,67
434,185	11,01
434,436	10,91
434,687	12,54
434,937	14,69
435,188	12,32
435,439	12,05
435,69	12,89
435,94	12,76
436,191	13,35
436,442	13,56
436,692	12,66
436,943	10,57
437,194	8,26
437,444	10,2
437,695	15,15
437,945	16,08
438,196	13,82
438,447	12,29
438,697	12,39
438,948	12,49
439,198	10,57
439,449	7,79
439,699	8,72
439,949	8,49
440,2	9,17
440,45	11,43
440,701	10,74
440,951	9,16
441,201	9,49
441,452	9,44
441,702	7,52
441,952	10,07
442,203	9,45
442,453	6,04
442,703	5,97
442,953	7,73
443,204	10,11
443,454	7,47
443,704	8,41
443,954	5,44
444,204	5,71
444,455	7,07
444,705	10
444,955	10,43
445,205	10,94
445,455	8,95
445,705	9,37
445,955	10,37
446,205	10,18
446,455	11,81
446,705	11,22
446,955	12,03
447,205	15,08
447,455	17,49
447,705	15,88
447,955	15,85
448,205	16,63
448,454	15,74
448,704	16,96
448,954	16,24
449,204	16,41
449,454	17,93
449,704	15,81
449,953	16,17
450,203	19,62
450,453	17,55
450,703	19,91
450,952	17,79
451,202	22,09
451,452	22,09
451,701	24,96
451,951	30,24
452,201	29,96
452,45	28,82
452,7	30,57
452,949	30,86
453,199	30,57
453,448	32,73
453,698	34,54
453,947	33,93
454,197	32,62
454,446	32,36
454,696	37,1
454,945	35,6
455,195	33,81
455,444	34,94
455,693	39,23
455,943	36,11
456,192	37,88
456,442	39,55
456,691	40,91
456,94	40,93
457,189	39,53
457,439	42,97
457,688	44,94
457,937	44,71
458,186	45,22
458,436	44,06
458,685	45,79
458,934	44,52
459,183	44,97
459,432	47,5
459,681	46,61
459,93	45,04
460,179	44,71
460,429	42,86
460,678	45,3
460,927	48,77
461,176	45,43
461,425	45,16
461,674	46,7
461,923	46,72
462,172	45,83
462,42	43,76
462,669	45,96
462,918	46,4
463,167	45,63
463,416	42,49
463,665	43,34
463,914	42,58
464,162	39,33
464,411	39,64
464,66	41,98
464,909	40,83
465,158	39,68
465,406	38,47
465,655	39,01
465,904	41,13
466,152	42,87
466,401	43,68
466,65	43,99
466,898	41,57
467,147	37,44
467,395	36,15
467,644	39
467,893	38,63
468,141	37,98
468,39	35,5
468,638	32,58
468,887	32,78
469,135	31,54
469,384	31,26
469,632	31,98
469,88	31,6
470,129	33,12
470,377	29,16
470,626	31,41
470,874	34,63
471,122	34,85
471,371	33,6
471,619	32,19
471,867	34,58
472,115	32,99
472,364	30,64
472,612	34,23
472,86	32,38
473,108	33,4
473,356	33,92
473,605	32,78
473,853	29,83
474,101	27,68
474,349	26,21
474,597	29,7
474,845	28,85
475,093	29,62
475,341	26,13
475,589	25,67
475,837	27,41
476,085	27,67
476,333	25,88
476,581	27,43
476,829	28,39
477,077	31,47
477,325	29,97
477,573	32,23
477,821	29,89
478,069	30,77
478,317	29,86
478,564	30,94
478,812	29,6
479,06	30,09
479,308	31,1
479,555	31,11
479,803	31,25
480,051	32,03
480,299	31,42
480,546	34,01
480,794	31,19
481,042	31,52
481,289	29,81
481,537	30,31
481,784	29,76
482,032	34,44
482,28	32,65
482,527	32,12
482,775	30,36
483,022	31,78
483,27	34,34
483,517	36,81
483,765	37,09
484,012	38,22
484,259	35,96
484,507	37,47
484,754	37,8
485,002	37,78
485,249	35,3
485,496	39,32
485,744	40,98
485,991	40
486,238	37,56
486,486	40,5
486,733	42,14
486,98	44,67
487,227	42,31
487,474	43,1
487,722	44,73
487,969	43,35
488,216	41,18
488,463	42,25
488,71	40,78
488,957	40,83
489,204	41,65
489,451	42,7
489,699	40,94
489,946	38,46
490,193	38,25
490,44	37,77
490,687	38,95
490,934	36,29
491,18	32,29
491,427	32,09
491,674	34,65
491,921	35,24
492,168	34,69
492,415	32,38
492,662	34,77
492,909	38,41
493,155	34,98
493,402	33,17
493,649	32,96
493,896	35,03
494,142	30,74
494,389	28,3
494,636	25,79
494,883	25,08
495,129	24,43
495,376	23,23
495,623	24,16
495,869	25,93
496,116	26,04
496,362	26,11
496,609	29,05
496,855	33,32
497,102	33,96
497,348	33,39
497,595	35,32
497,841	40,36
498,088	40,24
498,334	38,86
498,581	37,91
498,827	39,44
499,074	40,42
499,32	41,65
499,566	46,05
499,813	45,81
500,059	43,94
500,305	43,9
500,552	43,27
500,798	44,18
501,044	48,31
501,29	45,68
501,537	43,13
501,783	46,4
502,029	50,08
502,275	48,18
502,521	47,66
502,767	49,28
503,013	51,68
503,26	50,35
503,506	46,49
503,752	48,48
503,998	47,32
504,244	47,59
504,49	44,21
504,736	45,19
504,982	44,5
505,228	47,81
505,474	47
505,72	49,24
505,966	49,92
506,211	54,55
506,457	54,39
506,703	52,1
506,949	50,81
507,195	49,39
507,441	46,98
507,686	50,39
507,932	50,44
508,178	51,87
508,424	50,62
508,669	49,42
508,915	52,63
509,161	55,34
509,406	57,36
509,652	57,44
509,898	62,46
510,143	63,87
510,389	63,39
510,634	60,57
510,88	64,22
511,125	69,57
511,371	70,55
511,616	72,45
511,862	70,83
512,107	69,19
512,353	71,01
512,598	73,09
512,844	70,63
513,089	69,44
513,335	69,39
513,58	69,56
513,825	69,25
514,071	69,44
514,316	70,96
514,561	71,93
514,806	70,09
515,052	74,5
515,297	73,55
515,542	75,18
515,787	77,35
516,033	79,5
516,278	80,61
516,523	80,09
516,768	80,16
517,013	77,44
517,258	77,5
517,503	76,92
517,748	77,38
517,993	77,61
518,238	78,09
518,483	76,72
518,728	75,31
518,973	72,95
519,218	73,21
519,463	74,04
519,708	74,65
519,953	72,79
520,198	74,1
520,443	77,55
520,688	81,44
520,933	81,42
521,177	81,9
521,422	79,38
521,667	83,37
521,912	84,06
522,157	80,52
522,401	84,77
522,646	84,61
522,891	86,69
523,135	87,37
523,38	86,66
523,625	87,44
523,869	88,76
524,114	89,84
524,358	89,07
524,603	89,51
524,848	87,82
525,092	86,51
525,337	87,96
525,581	91,14
525,826	93,34
526,07	94,83
526,315	97,13
526,559	97,83
526,803	97,46
527,048	101,89
527,292	103,84
527,537	104,44
527,781	102,73
528,025	100,21
528,269	100,97
528,514	101,41
528,758	101,28
529,002	102,77
529,247	105,44
529,491	105,43
529,735	111,35
529,979	110,89
530,223	111,44
530,467	108,69
530,712	108,29
530,956	107,65
531,2	107,62
531,444	106,41
531,688	108,73
531,932	108,72
532,176	110,42
532,42	111,9
532,664	113,46
532,908	112,09
533,152	109,88
533,396	110,23
533,64	109,68
533,884	106,78
534,128	106,63
534,371	108,15
534,615	107,72
534,859	106,47
535,103	105,79
535,347	106,98
535,59	108,64
535,834	106,25
536,078	109,09
536,322	110,74
536,565	114,22
536,809	113,01
537,053	115,65
537,296	112,69
537,54	112,01
537,784	111,62
538,027	113,14
538,271	111,68
538,514	111,55
538,758	111,26
539,001	109,34
539,245	109,01
539,488	110,4
539,732	112,71
539,975	112,86
540,219	115,53
540,462	116,47
540,706	118,28
540,949	118,22
541,192	119,27
541,436	125,08
541,679	130,72
541,922	131,63
542,166	129,07
542,409	129,34
542,652	131,3
542,895	133,29
543,139	133,69
543,382	137,76
543,625	136,65
543,868	137,89
544,111	136,95
544,354	135,48
544,598	134,05
544,841	135,85
545,084	138,04
545,327	137,85
545,57	138,64
545,813	141,13
546,056	140,49
546,299	141,09
546,542	144,43
546,785	146,51
547,028	146,96
547,271	147,77
547,514	148,56
547,756	145,92
547,999	147,75
548,242	148,61
548,485	147,23
548,728	147,15
548,971	143,24
549,213	143,77
549,456	142,88
549,699	143,27
549,942	144,64
550,184	144,05
550,427	142,64
550,67	142,76
550,912	137,48
551,155	139,36
551,398	138,24
551,64	137,82
551,883	137,91
552,125	137,32
552,368	137,77
552,61	134,2
552,853	136,54
553,095	136,09
553,338	135,41
553,58	137,01
553,823	137,99
554,065	139,92
554,308	137,57
554,55	135,63
554,792	132,7
555,035	133,22
555,277	133,02
555,519	133,71
555,762	131,97
556,004	133,74
556,246	130,49
556,488	133,15
556,731	129,9
556,973	132,56
557,215	132,47
557,457	134,94
557,699	139,09
557,941	137,92
558,183	139,32
558,426	143,37
558,668	140,65
558,91	141,3
559,152	142,53
559,394	145,1
559,636	149,06
559,878	151,92
560,12	152,49
560,362	155,25
560,604	156,46
560,845	158,26
561,087	158,21
561,329	161,36
561,571	159,91
561,813	162,61
562,055	162,45
562,297	164,86
562,538	166,34
562,78	170,96
563,022	170,81
563,264	175,16
563,505	176,84
563,747	179,86
563,989	179,35
564,23	180,56
564,472	179,96
564,714	185,12
564,955	185,67
565,197	183,52
565,438	187,66
565,68	192,11
565,921	192,6
566,163	195,59
566,404	197,29
566,646	201,32
566,887	203,41
567,129	204,53
567,37	203,44
567,612	207,7
567,853	206,02
568,094	208,95
568,336	211,58
568,577	214,28
568,818	216,77
569,06	217,65
569,301	216,04
569,542	221,73
569,783	225,05
570,025	226,16
570,266	227,95
570,507	231,79
570,748	231,86
570,989	234,95
571,23	240,08
571,472	241,41
571,713	242,96
571,954	245,76
572,195	245,25
572,436	249,69
572,677	253,9
572,918	256,77
573,159	256,29
573,4	256,35
573,641	258,13
573,882	262,2
574,123	260,73
574,364	258,44
574,604	260,7
574,845	260,89
575,086	261,89
575,327	263,15
575,568	264,25
575,809	263,87
576,049	263,71
576,29	261,05
576,531	267,76
576,771	273,2
577,012	274,28
577,253	277,19
577,494	279,12
577,734	280,09
577,975	281,15
578,215	282,51
578,456	281,84
578,697	282,22
578,937	286,16
579,178	287,18
579,418	287,94
579,659	290,02
579,899	288,31
580,14	288,07
580,38	287,8
580,62	289,38
580,861	294,34
581,101	295,13
581,342	293,78
581,582	291,48
581,822	295,37
582,063	295,04
582,303	299,42
582,543	300,53
582,783	304,43
583,024	307,59
583,264	312,44
583,504	312,44
583,744	316,95
583,984	315,12
584,224	315,88
584,465	316,55
584,705	315,91
584,945	317,98
585,185	319,02
585,425	320,03
585,665	321,06
585,905	321,48
586,145	322,99
586,385	322,28
586,625	326,72
586,865	326,93
587,105	327,12
587,345	327,75
587,585	330,01
587,824	332,31
588,064	332,51
588,304	331,01
588,544	332,72
588,784	334,01
589,024	338,23
589,263	337,6
589,503	337,18
589,743	339,35
589,982	339,84
590,222	339,67
590,462	338,28
590,701	336,52
590,941	342,21
591,181	341,97
591,42	342,37
591,66	345,95
591,899	350,38
592,139	351,24
592,378	353,2
592,618	352,88
592,857	354,29
593,097	356,32
593,336	358,32
593,576	359,25
593,815	361,73
594,055	361,79
594,294	364,3
594,533	364,79
594,773	365,58
595,012	368,46
595,251	369,23
595,491	373,57
595,73	377,1
595,969	379,83
596,208	381,62
596,447	387,99
596,687	389,92
596,926	392,58
597,165	389,85
597,404	393,82
597,643	393,68
597,882	394,08
598,121	396,21
598,36	396,53
598,599	398,12
598,838	399,34
599,077	396,97
599,316	396,74
599,555	396,77
599,794	398,25
600,033	401,92
600,272	403,07
600,511	401,83
600,75	403,34
600,989	406,77
601,228	406,23
601,466	406,41
601,705	407,23
601,944	409,19
602,183	411,49
602,422	409,37
602,66	408,15
602,899	407,87
603,138	408,37
603,376	406,81
603,615	407,06
603,854	403,11
604,092	404,08
604,331	404,65
604,569	406,18
604,808	404,09
605,047	404,91
605,285	404,97
605,524	403,57
605,762	401,65
606	403,11
606,239	403,05
606,477	401,79
606,716	398,2
606,954	397,73
607,193	393,55
607,431	387,97
607,669	384,87
607,908	382,45
608,146	382,79
608,384	378,54
608,622	377,02
608,861	374,32
609,099	371,6
609,337	368,77
609,575	367,23
609,813	366,81
610,052	366,89
610,29	359,9
610,528	356
610,766	353,57
611,004	351,92
611,242	349,87
611,48	347,45
611,718	344,17
611,956	344,12
612,194	341,59
612,432	340,3
612,67	337,76
612,908	337,39
613,146	334,21
613,384	330,03
613,621	327,09
613,859	326,17
614,097	324
614,335	322,63
614,573	322,54
614,811	322,83
615,048	320,98
615,286	321,14
615,524	318,38
615,761	314,62
615,999	313,57
616,237	312,33
616,474	314,24
616,712	313,68
616,95	312,11
617,187	310,28
617,425	309,19
617,662	309,93
617,9	307,72
618,137	304,19
618,375	301,67
618,612	299,22
618,85	300,1
619,087	300,16
619,325	297,51
619,562	296,53
619,799	293,43
620,037	291,03
620,274	288,82
620,511	290,11
620,749	286,9
620,986	284,46
621,223	282,25
621,461	281,51
621,698	281,81
621,935	279,72
622,172	276,8
622,409	278,12
622,647	277,03
622,884	273,77
623,121	275,33
623,358	271,88
623,595	271,12
623,832	269,05
624,069	267,33
624,306	265,61
624,543	266,87
624,78	266,83
625,017	265,87
625,254	266,37
625,491	268,2
625,728	269,1
625,965	267,85
626,202	265,19
626,438	262,89
626,675	261,06
626,912	261,33
627,149	262,11
627,386	262,15
627,622	260,22
627,859	256,59
628,096	255,91
628,333	255,54
628,569	255,5
628,806	255,39
629,043	253,24
629,279	253,53
629,516	255,25
629,752	251,2
629,989	250,83
630,225	248,15
630,462	247,78
630,699	248,02
630,935	246,9
631,171	242,82
631,408	242,4
631,644	239,94
631,881	234,86
632,117	230,34
632,354	229,72
632,59	228,14
632,826	227,45
633,063	224,16
633,299	224,09
633,535	221,47
633,771	219,68
634,008	221,19
634,244	218,74
634,48	214,49
634,716	214,38
634,953	212,97
635,189	213,14
635,425	215,95
635,661	216,97
635,897	213,03
636,133	212,25
636,369	208,33
636,605	203,61
636,841	201,64
637,077	201,35
637,313	198,8
637,549	199,65
637,785	196,01
638,021	196,07
638,257	193,56
638,493	196,76
638,729	193,03
638,965	194,98
639,2	195,34
639,436	193,73
639,672	191,64
639,908	188,54
640,144	191,08
640,379	194,91
640,615	192,02
640,851	194,29
641,086	194,73
641,322	190,61
641,558	191,32
641,793	192,82
642,029	191,28
642,264	189,96
642,5	188,97
642,736	182,03
642,971	181,78
643,207	181,06
643,442	177,37
643,678	177,79
643,913	176,68
644,148	175,01
644,384	177,07
644,619	176,98
644,855	177,81
645,09	178,72
645,325	177,14
645,561	176,4
645,796	171,59
646,031	174,55
646,266	171,67
646,502	169,38
646,737	171,45
646,972	172,15
647,207	172,09
647,442	166,83
647,678	161,9
647,913	164,3
648,148	162,79
648,383	161,27
648,618	161,83
648,853	159,66
649,088	160,15
649,323	162,05
649,558	162,05
649,793	161,36
650,028	162,72
650,263	158,23
650,498	159,39
650,733	159,7
650,968	158,13
651,202	160,76
651,437	157,65
651,672	152,95
651,907	151,14
652,142	150,13
652,376	149,08
652,611	149,4
652,846	150,63
653,081	149,94
653,315	146,32
653,55	144,4
653,785	143,29
654,019	144,01
654,254	140,61
654,488	141,14
654,723	137,16
654,958	134,71
655,192	131,34
655,427	126,94
655,661	126,42
655,896	127,3
656,13	129,33
656,364	125,82
656,599	121,78
656,833	124,31
657,068	125,96
657,302	124,64
657,536	123,49
657,771	124,34
658,005	123,93
658,239	125,77
658,474	121,83
658,708	123,24
658,942	121,87
659,176	120,71
659,41	115,99
659,645	114,44
659,879	113,4
660,113	109,1
660,347	107,67
660,581	106,99
660,815	106,86
661,049	106,39
661,283	101,41
661,517	99,98
661,751	97,41
661,985	97,58
662,219	98,71
662,453	97,38
662,687	99,14
662,921	95,04
663,155	94,19
663,389	86,51
663,622	84,57
663,856	86,55
664,09	81,87
664,324	80,09
664,558	80,04
664,791	78,84
665,025	77,65
665,259	76,65
665,492	74,33
665,726	77,58
665,96	78,47
666,193	78,35
666,427	78,72
666,661	78,44
666,894	75,81
667,128	73,52
667,361	76,49
667,595	75,75
667,828	74,44
668,062	73,18
668,295	72,46
668,529	73,69
668,762	73,61
668,995	73,01
669,229	76,49
669,462	76,28
669,695	76,15
669,929	74,41
670,162	76,8
670,395	73,36
670,629	75,73
670,862	77,48
671,095	71,88
671,328	72,53
671,561	68,87
671,795	68,56
672,028	69,71
672,261	69,32
672,494	70,4
672,727	68,92
672,96	68,81
673,193	65,6
673,426	68,97
673,659	69,61
673,892	70,4
674,125	70,4
674,358	70,13
674,591	67,09
674,824	65,85
675,057	64,79
675,29	63,64
675,523	64,49
675,755	62,08
675,988	63,3
676,221	65,16
676,454	62,75
676,687	62,81
676,919	61,28
677,152	59,93
677,385	58,88
677,617	59,59
677,85	59,29
678,083	56,9
678,315	60,77
678,548	57,47
678,78	58,67
679,013	57,49
679,246	57,31
679,478	57,19
679,711	54,89
679,943	56,08
680,175	53,29
680,408	56,88
680,64	52
680,873	50,77
681,105	51,14
681,338	54,13
681,57	53,15
681,802	55,19
682,034	54,14
682,267	56,11
682,499	57,69
682,731	56,65
682,964	56,1
683,196	52,08
683,428	50,4
683,66	48,78
683,892	53,14
684,124	55,07
684,356	58,63
684,589	58,82
684,821	55,92
685,053	56,69
685,285	56,03
685,517	56,41
685,749	58,14
685,981	57,96
686,213	58,03
686,445	57,2
686,676	53,94
686,908	54,1
687,14	51,64
687,372	52,04
687,604	48,2
687,836	48,7
688,068	47,57
688,299	46,02
688,531	43,09
688,763	47,38
688,995	43,95
689,226	48,2
689,458	46,19
689,69	43,13
689,921	40,12
690,153	39,97
690,384	42,94
690,616	40,44
690,848	41,69
691,079	36,12
691,311	33,77
691,542	29,02
691,774	25,14
692,005	28,73
692,237	29,27
692,468	28,45
692,699	27,46
692,931	26,28
693,162	23,24
693,393	21,66
693,625	21,22
693,856	22,37
694,087	21,96
694,319	23,29
694,55	23,19
694,781	22,89
695,012	23,1
695,243	21,42
695,475	21,47
695,706	21,77
695,937	20,11
696,168	19,62
696,399	17,08
696,63	16,52
696,861	17,52
697,092	22,53
697,323	26,02
697,554	26
697,785	27,48
698,016	27,52
698,247	25,39
698,478	28,26
698,709	30,92
698,94	34,04
699,171	34,49
699,401	31,49
699,632	33,53
699,863	29,84
700,094	29,99
700,325	33,83
700,555	36
700,786	37,04
701,017	36,26
701,247	35,58
701,478	35,01
701,709	34,66
701,939	33,14
702,17	34,73
702,401	37,24
702,631	38,76
702,862	37,22
703,092	34,2
703,323	37,78
703,553	39,1
703,784	39,9
704,014	40,43
704,244	35,19
704,475	33,59
704,705	33,49
704,936	32,8
705,166	31,71
705,396	33,7
705,627	32,26
705,857	31,27
706,087	31,74
706,317	29,46
706,548	26,72
706,778	26,28
707,008	27,17
707,238	28,73
707,468	25,13
707,698	22,9
707,928	21,66
708,158	19,74
708,389	19,2
708,619	18,63
708,849	16,97
709,079	17,29
709,309	13,88
709,539	11,8
709,768	10,64
709,998	13,04
710,228	12,75
710,458	10,55
710,688	7,02
710,918	6,04
711,148	4,81
711,378	5
711,607	2,34
711,837	2,64
712,067	2,43
712,297	2,41
712,526	1,54
712,756	3,3
712,986	0,32
713,215	-2,26
713,445	-2,73
713,674	0,79
713,904	-0,13
714,134	2,49
714,363	1,01
714,593	0,62
714,822	0,59
715,052	0,69
715,281	2,8
715,511	0,51
715,74	0,24
715,969	-0,92
716,199	-0,6
716,428	0,18
716,657	-0,32
716,887	1,81
717,116	-0,99
717,345	0,84
717,575	1,33
717,804	2,84
718,033	2,91
718,262	2,54
718,492	3,48
718,721	3,97
718,95	3,06
719,179	1,66
719,408	1,52
719,637	-1,74
719,866	-4,55
720,095	-3,42
720,324	-3,92
720,553	-8,47
720,782	-11,09
721,011	-11,03
721,24	-13,23
721,469	-13,31
721,698	-13
721,927	-13,43
722,156	-14,81
722,385	-17,32
722,613	-12,08
722,842	-11,09
723,071	-7,46
723,3	-6,22
723,529	-6,75
723,757	-6,38
723,986	-10,53
724,215	-11,58
724,443	-11,05
724,672	-9,08
724,901	-8,61
725,129	-8,4
725,358	-4,53
725,586	-6,88
725,815	-6,44
726,043	-6,55
726,272	-7,55
726,5	-8,09
726,729	-5,62
726,957	-8,95
727,186	-8,58
727,414	-7,58
727,642	-3,25
727,871	-1,89
728,099	-2,78
728,327	-2,95
728,556	-2,95
728,784	-1,21
729,012	-2,85
729,241	-0,14
729,469	1,18
729,697	-2,4
729,925	-1,95
730,153	-4,15
730,381	-5,14
730,61	-5,22
730,838	-7,4
731,066	-6,97
731,294	-5,27
731,522	-7,99
731,75	-13,19
731,978	-15,16
732,206	-15,98
732,434	-19,15
732,662	-17,19
732,89	-18,96
733,118	-20,66
733,346	-20,33
733,573	-20,04
733,801	-21,04
734,029	-14,89
734,257	-15,5
734,485	-12,08
734,712	-12,54
734,94	-14,23
735,168	-11,57
735,396	-12,64
735,623	-13,54
735,851	-12,8
736,078	-10,31
736,306	-11,01
736,534	-12,01
736,761	-11,61
736,989	-14,46
737,216	-14,86
737,444	-15,97
737,671	-14,64
737,899	-9,76
738,126	-9,01
738,354	-9,4
738,581	-8,64
738,809	-7,85
739,036	-8,79
739,263	-8,42
739,491	-10,88
739,718	-10,9
739,945	-5,36
740,173	-2,17
740,4	-2,5
740,627	-3,33
740,854	-3,56
741,081	-5,95
741,309	-7,25
741,536	-10,84
741,763	-10,57
741,99	-8,91
742,217	-7,47
742,444	-6,55
742,671	-5,33
742,898	-6,62
743,125	-8,51
743,352	-11,5
743,579	-11,23
743,806	-11,63
744,033	-8,24
744,26	-7,64
744,487	-8,39
744,714	-8,29
744,941	-9,3
745,167	-6,3
745,394	-6,74
745,621	-6,98
745,848	-6,03
746,075	-3,66
746,301	0,25
746,528	5,05
746,755	2,91
746,981	1,16
747,208	0,51
747,435	3,44
747,661	4,24
747,888	6,19
748,114	4,32
748,341	6,83
748,567	8,14
748,794	5,05
749,02	4,79
749,247	1
749,473	1,21
749,7	0,91
749,926	-0,24
750,152	3,6
750,379	5,02
750,605	6,25
750,831	5,89
751,058	3,8
751,284	2,05
751,51	5,14
751,737	7,57
751,963	6,56
752,189	6,16
752,415	5,46
752,641	3,59
752,867	3,62
753,094	1,83
753,32	0,35
753,546	-1,47
753,772	0,76
753,998	-0,76
754,224	-0,57
754,45	-1,71
754,676	-1,92
754,902	-4,17
755,128	-3,76
755,354	-4,09
755,579	-3,06
755,805	-0,39
756,031	-2,08
756,257	-2,09
756,483	-4,1
756,709	-5,8
756,934	-5,64
757,16	-9,09
757,386	-8,46
757,612	-11,02
757,837	-12,73
758,063	-11,45
758,289	-7,84
758,514	-9,78
758,74	-14,3
758,965	-17,53
759,191	-17,19
759,416	-15,04
759,642	-12,33
759,868	-12,91
760,093	-10,37
760,318	-12,9
760,544	-12,28
760,769	-12,38
760,995	-13,04
761,22	-14,22
761,445	-12,08
761,671	-10,41
761,896	-6,9
762,121	-6,58
762,347	-8,28
762,572	-10,65
762,797	-11,06
763,022	-9,99
763,248	-5,51
763,473	-4,66
763,698	-5,91
763,923	-4,83
764,148	-4,8
764,373	-5,64
764,598	-4,48
764,823	-1,8
765,048	-5,04
765,273	-9,11
765,498	-10,3
765,723	-9,41
765,948	-7,77
766,173	-8,67
766,398	-9,18
766,623	-12,16
766,848	-11,97
767,073	-15,29
767,298	-15,59
767,522	-16,97
767,747	-15,79
767,972	-15,79
768,197	-15,05
768,421	-17,9
768,646	-21,68
768,871	-24,6
769,095	-24,56
769,32	-23,11
769,545	-23,17
769,769	-22,49
769,994	-22,27
770,218	-25,81
770,443	-23,55
770,667	-21,37
770,892	-20,74
771,116	-21,03
771,341	-19,45
771,565	-19,29
771,79	-18,63
772,014	-17,78
772,238	-18,27
772,463	-15,34
772,687	-15,1
772,911	-15,93
773,136	-19,26
773,36	-18,18
773,584	-15,64
773,808	-17,03
774,033	-15,72
774,257	-14,41
774,481	-14,23
774,705	-15,94
774,929	-16,5
775,153	-15,98
775,377	-13,53
775,602	-13,34
775,826	-11,31
776,05	-10,24
776,274	-10,71
776,498	-11,56
776,722	-11,54
776,945	-10,4
777,169	-10,27
777,393	-11,58
777,617	-12,37
777,841	-12,58
778,065	-11,76
778,289	-13,37
778,512	-14,74
778,736	-14,65
778,96	-15,17
779,184	-12,54
779,407	-13,3
779,631	-13,33
779,855	-13,4
780,078	-11,25
780,302	-13,89
780,526	-16,75
780,749	-16,56
780,973	-14,52
781,196	-13,85
781,42	-16,23
781,643	-14,89
781,867	-12,65
782,09	-16,53
782,314	-18,2
782,537	-18,64
782,76	-20,35
782,984	-19,28
783,207	-19,63
783,431	-18,35
783,654	-19,45
783,877	-21,88
784,1	-24,05
784,324	-25,66
784,547	-26,35
784,77	-29,88
784,993	-30,1
785,216	-30,48
785,44	-30,64
785,663	-33,02
785,886	-31,19
786,109	-32,11
786,332	-32,73
786,555	-31,41
786,778	-30,07
787,001	-30,88
787,224	-28,54
787,447	-26,92
787,67	-25,93
787,893	-26,42
788,116	-26,6
788,339	-25,31
788,561	-25,84
788,784	-30,18
789,007	-30,19
789,23	-30,86
789,453	-30,12
789,675	-31,15
789,898	-32,66
790,121	-35,1
790,344	-35,73
790,566	-35,11
790,789	-34,45
791,012	-32,88
791,234	-29,24
791,457	-25,89
791,679	-24,76
791,902	-24,88
792,124	-25,21
792,347	-26,18
792,569	-26,32
792,792	-28,55
793,014	-25,69
793,237	-23,58
793,459	-23,59
793,681	-23,34
793,904	-23,5
794,126	-24,35
794,348	-24,64
794,571	-23,23
794,793	-23,9
795,015	-22,78
795,237	-22,55
795,46	-22,25
795,682	-20,84
795,904	-18,3
796,126	-20,59
796,348	-21,42
796,57	-17,37
796,792	-16,66
797,014	-10,72
797,237	-9,01
797,459	-6,87
797,681	-4,63
797,903	-5,59
798,124	-5,75
798,346	6,88
798,568	8,12
798,79	11,6
799,012	13,6
799,234	15,78
799,456	18,42
799,678	21,34
799,899	18,54
800,121	13,66
800,343	12,36
800,565	12,95
800,786	14,12
801,008	14,37
801,23	13,53
801,451	14,74
801,673	13,14
801,895	11,16
802,116	12,52
802,338	13,17
802,559	12,44
802,781	11,34
803,002	13,8
803,224	17,3
803,445	14,18
803,667	15,8
803,888	12,48
804,109	12,62
804,331	10,89
804,552	10,65
804,773	12,47
804,995	9,83
805,216	-6,03
805,437	-7,83
805,658	-10,45
805,88	-13,27
806,101	-12,97
806,322	-12,93
806,543	-14,49
806,764	-16,13
806,985	-12,09
807,207	-11,43
807,428	-11,71
807,649	-15,56
807,87	-16,97
808,091	-16,26
808,312	-16,73
808,533	-12,43
808,754	-9,33
808,975	-10,83
809,195	-8,99
809,416	-7,65
809,637	-8,61
809,858	-10,31
810,079	-12,98
810,3	-10,39
810,52	-12,02
810,741	-14,27
810,962	-15,39
811,183	-16,67
811,403	-17,19
811,624	-17,77
811,845	-16,77
812,065	-14,22
812,286	-14,13
812,506	-13,94
812,727	-12,41
812,948	-10,86
813,168	-9,56
813,389	-10,39
813,609	-9,1
813,83	-10,57
814,05	-11,39
814,27	-10,42
814,491	-6,01
814,711	-6,8
814,931	-8,75
815,152	-9,32
815,372	-12,21
815,592	-14,9
815,813	-16,33
816,033	-17,6
816,253	-16,96
816,473	-16,88
816,694	-15,38
816,914	-14,7
817,134	-16,38
817,354	-18,55
817,574	-16,43
817,794	-16,48
818,014	-17,56
818,234	-19,63
818,454	-20,86
818,674	-23,18
818,894	-26,69
819,114	-23,98
819,334	-23,33
819,554	-21,7
819,774	-19,73
819,994	-22,27
820,214	-22,64
820,433	-23,43
820,653	-22,96
820,873	-20,44
821,093	-19,96
821,312	-21,65
821,532	-19,7
821,752	-16,49
821,972	-18,86
822,191	-17,51
822,411	-18,13
822,63	-16,14
822,85	-15,81
823,07	-18,91
823,289	-18,65
823,509	-20,4
823,728	-17,37
823,948	-18,71
824,167	-18,98
824,387	-20,46
824,606	-19,59
824,825	-20,47
825,045	-18,33
825,264	-18,87
825,483	-16,07
825,703	-14,48
825,922	-15,59
826,141	-16,51
826,361	-17,07
826,58	-21,62
826,799	-23,95
827,018	-21,85
827,237	-20,58
827,456	-20,06
827,676	-20,32
827,895	-21,08
828,114	-21,03
828,333	-21,43
828,552	-22,93
828,771	-20,5
828,99	-22,4
829,209	-22,35
829,428	-20,79
829,647	-22,05
829,866	-20,63
830,084	-21,48
830,303	-20,19
830,522	-22,4
830,741	-21,46
830,96	-20,42
831,179	-20,05
831,397	-22,34
831,616	-20,99
831,835	-21,88
832,053	-21
832,272	-20,3
832,491	-20,22
832,709	-20,48
832,928	-21,39
833,147	-22,18
833,365	-21,14
833,584	-17,67
833,802	-16
834,021	-15,15
834,239	-14,67
834,458	-17
834,676	-19,99
834,894	-20,14
835,113	-21,52
835,331	-22,33
835,55	-23,59
835,768	-24,03
835,986	-22,05
836,204	-25,35
836,423	-24,62
836,641	-24,56
836,859	-24,21
837,077	-25,03
837,296	-25,24
837,514	-26,56
837,732	-26,16
837,95	-26,33
838,168	-23,09
838,386	-24,21
838,604	-22,29
838,822	-20,63
839,04	-21,77
839,258	-19,61
839,476	-18,23
839,694	-17,59
839,912	-18,3
840,13	-18,01
840,348	-15,54
840,566	-19,14
840,783	-18,78
841,001	-20,77
841,219	-19,55
841,437	-18,35
841,655	-17,46
841,872	-16,6
842,09	-16,5
842,308	-15,11
842,525	-13,61
842,743	-14,78
842,961	-12,72
843,178	-14,75
843,396	-10,32
843,613	-10,12
843,831	-7,94
844,048	-7,56
844,266	-6,9
844,483	-8,76
844,701	-9,35
844,918	-8,96
845,136	-7,96
845,353	-10,64
845,57	-11,21
845,788	-9,5
846,005	-12,19
846,222	-13,52
846,439	-11,26
846,657	-11,25
846,874	-11,08
847,091	-13,7
847,308	-11,43
847,526	-13,01
847,743	-12,5
847,96	-13,86
848,177	-13,63
848,394	-13,98
848,611	-14,53
848,828	-14,49
849,045	-15,17
849,262	-15,69
849,479	-14,53
849,696	-16,9
849,913	-18,23
850,13	-23,92
850,347	-21,1
850,564	-22,4
850,78	-23,03
850,997	-25,06
851,214	-23,84
851,431	-23,21
851,647	-27,81
851,864	-27,79
852,081	-25,86
852,298	-28,74
852,514	-30,41
852,731	-28,61
852,948	-27,11
853,164	-28,26
853,381	-27,17
853,597	-27,85
853,814	-30,03
854,03	-33,79
854,247	-33,21
854,463	-33,49
854,68	-33,74
854,896	-32,47
855,113	-32,81
855,329	-31,8
855,545	-29,71
855,762	-31,34
855,978	-34,33
856,194	-36,14
856,411	-31,57
856,627	-28,64
856,843	-26,84
857,059	-24,65
857,275	-25,31
857,492	-25,42
857,708	-21,59
857,924	-21,55
858,14	-18,29
858,356	-17,62
858,572	-16,55
858,788	-17,39
859,004	-15,29
859,22	-17,15
859,436	-17,95
859,652	-19,5
859,868	-19,85
860,084	-21,6
860,3	-21,82
860,516	-20,48
860,731	-19,65
860,947	-21,51
861,163	-18,55
861,379	-16,37
861,595	-16,51
861,81	-15,61
862,026	-15,15
862,242	-15,74
862,457	-16,08
862,673	-14,02
862,889	-13,97
863,104	-14,37
863,32	-14,28
863,535	-14,94
863,751	-19,7
863,966	-17,55
864,182	-16,33
864,397	-18,13
864,613	-19,19
864,828	-22,64
865,044	-20,36
865,259	-18,73
865,474	-18,95
865,69	-16,87
865,905	-15,18
866,12	-16,64
866,336	-16,93
866,551	-16,12
866,766	-15,72
866,981	-16,8
867,196	-17,17
867,412	-16,04
867,627	-15
867,842	-17,18
868,057	-17,76
868,272	-18,06
868,487	-18,74
868,702	-21,47
868,917	-22,02
869,132	-20,37
869,347	-18,85
869,562	-20,93
869,777	-22
869,992	-23,06
870,207	-23,81
870,422	-24,42
870,636	-25,89
870,851	-27,45
871,066	-28,78
871,281	-27,19
871,495	-27,6
871,71	-25,47
871,925	-28,78
872,14	-29,57
872,354	-33,63
872,569	-34,96
872,783	-32,25
872,998	-32,09
873,213	-32,71
873,427	-29,8
873,642	-27,96
873,856	-27,74
874,071	-28,07
874,285	-28,12
874,5	-29,52
874,714	-32,49
874,928	-32,48
875,143	-32,11
875,357	-31,65
875,571	-32,27
875,786	-31,07
876	-28,42
876,214	-25,08
876,429	-27,64
876,643	-27,48
876,857	-24,49
877,071	-23,74
877,285	-24,45
877,499	-26,76
877,714	-24,3
877,928	-23,27
878,142	-24,38
878,356	-26,96
878,57	-24,68
878,784	-23,29
878,998	-22,69
879,212	-20,19
879,426	-22,84
879,639	-21,33
879,853	-21,37
880,067	-22,28
880,281	-23,2
880,495	-21,23
880,709	-17,66
880,922	-18,36
881,136	-16,34
881,35	-13,62
881,564	-14,14
881,777	-16,96
881,991	-15,22
882,205	-13,07
882,418	-13,46
882,632	-17,04
882,845	-18,25
883,059	-16,35
883,273	-16,47
883,486	-18,27
883,7	-15,04
883,913	-15,22
884,126	-12,71
884,34	-16,34
884,553	-19,01
884,767	-14,96
884,98	-15,39
885,193	-17,07
885,407	-18,66
885,62	-18,01
885,833	-17,96
886,046	-15,6
886,26	-16,62
886,473	-17,76
886,686	-18,48
886,899	-16,85
887,112	-20,08
887,326	-24,21
887,539	-23,47
887,752	-23,64
887,965	-25,74
888,178	-25,56
888,391	-23,83
888,604	-23,8
888,817	-24,27
889,03	-23,77
889,243	-22,39
889,455	-24,97
889,668	-25,62
889,881	-22,9
890,094	-23,43
890,307	-26,89
890,52	-24,6
890,732	-24,25
890,945	-23,62
891,158	-23,09
891,37	-26,03
891,583	-25,93
891,796	-24,55
892,008	-24,68
892,221	-24,43
892,434	-28,27
892,646	-29,79
892,859	-30,6
893,071	-28,3
893,284	-26,02
893,496	-28,16
893,709	-26,56
893,921	-26,18
894,133	-25,93
894,346	-25,88
894,558	-24,86
894,771	-24,48
894,983	-21,77
895,195	-21,45
895,407	-22,63
895,62	-25,42
895,832	-26,32
896,044	-22,5
896,256	-22,42
896,468	-24,28
896,681	-23,18
896,893	-21,24
897,105	-21,6
897,317	-22,57
897,529	-21,01
897,741	-19,84
897,953	-16,14
898,165	-17,31
898,377	-19,93
898,589	-17,62
898,801	-18,07
899,013	-14,95
899,224	-12,14
899,436	-9,68
899,648	-12,43
899,86	-14,39
900,072	-9,66
900,283	-8,59
900,495	-6,46
900,707	-5,19
900,919	-7,76
901,13	-7,4
901,342	-9,63
901,554	-10,96
901,765	-11,05
901,977	-11,92
902,188	-11,86
902,4	-13
902,611	-15,38
902,823	-18,02
903,034	-21,02
903,246	-22,23
903,457	-23,15
903,669	-24,85
903,88	-24,54
904,091	-24,7
904,303	-23,59
904,514	-25,43
904,725	-22,81
904,936	-20,4
905,148	-20,51
905,359	-18,12
905,57	-18,32
905,781	-20,5
905,992	-21,65
906,204	-20,15
906,415	-21,48
906,626	-24,7
906,837	-23,45
907,048	-24,26
907,259	-25,29
907,47	-26,18
907,681	-27,29
907,892	-23,27
908,103	-24,54
908,314	-26,95
908,525	-26,09
908,735	-25,44
908,946	-26,72
909,157	-27,07
909,368	-23,35
909,579	-21,51
909,789	-22,33
910	-24,98
910,211	-22,66
910,421	-24,39
910,632	-22,98
910,843	-26,24
911,053	-23,32
911,264	-22,23
911,475	-22,95
911,685	-25,46
911,896	-25,43
912,106	-25,02
912,317	-26,74
912,527	-24,92
912,737	-25,58
912,948	-23,09
913,158	-22,87
913,369	-25,32
913,579	-23,45
913,789	-23,37
914	-18,12
914,21	-16,41
914,42	-17,18
914,63	-16,92
914,841	-14,96
915,051	-12,49
915,261	-12,2
915,471	-8,61
915,681	-7,98
915,891	-9,56
916,101	-10,06
916,311	-10
916,521	-6,9
916,731	-6,88
916,941	-2,45
917,151	-3,72
917,361	-0,34
917,571	-4,52
917,781	-5,63
917,991	-8,09
918,201	-6,04
918,411	-8,84
918,621	-10,9
918,83	-10,23
919,04	-12,5
919,25	-10,78
919,46	-10,23
919,669	-13,16
919,879	-12,28
920,089	-14,09
920,298	-13,53
920,508	-14,34
920,717	-15,02
920,927	-16,68
921,136	-16,44
921,346	-18,56
921,555	-21,61
921,765	-21,94
921,974	-24,6
922,184	-27,02
922,393	-25,82
922,603	-25,69
922,812	-22,87
923,021	-23,87
923,23	-25,89
923,44	-29,21
923,649	-29,65
923,858	-31,7
924,067	-30,32
924,277	-32,58
924,486	-29,79
924,695	-30,34
924,904	-28,84
925,113	-28,03
925,322	-26,69
925,531	-27,67
925,74	-29,74
925,949	-30,74
926,158	-28,31
926,367	-28,83
926,576	-28,1
926,785	-29,42
926,994	-31,75
927,203	-30,93
927,412	-31,88
927,621	-33,2
927,83	-29,71
928,038	-29,19
928,247	-28,89
928,456	-27,84
928,665	-26,83
928,873	-26,17
929,082	-24,92
929,291	-25,05
929,499	-22,65
929,708	-23,15
929,916	-22,99
930,125	-23,88
930,333	-24,26
930,542	-22,99
930,75	-20,59
930,959	-20,66
931,167	-19,68
931,376	-20,93
931,584	-18,63
931,793	-17,77
932,001	-16,8
932,209	-17,54
932,418	-19,96
932,626	-21,59
932,834	-23,02
933,042	-26,56
933,251	-27,87
933,459	-27,35
933,667	-29,11
933,875	-28,93
934,083	-26,99
934,291	-27,19
934,499	-26,67
934,707	-27,82
934,915	-28,96
935,123	-26,57
935,331	-27,5
935,539	-30,31
935,747	-31,29
935,955	-33,32
936,163	-33,67
936,371	-32,99
936,579	-29,52
936,787	-29,14
936,995	-31,58
937,202	-33,77
937,41	-34,14
937,618	-35,84
937,826	-35,12
938,033	-39,97
938,241	-42,58
938,449	-40,52
938,656	-38,5
938,864	-38,86
939,071	-37,68
939,279	-34,99
939,486	-32,04
939,694	-30,81
939,901	-32,52
940,109	-31,77
940,316	-30,34
940,524	-32,16
940,731	-33,45
940,939	-32,81
941,146	-32,05
941,353	-32,19
941,561	-32,56
941,768	-33,89
941,975	-32,26
942,182	-33,35
942,39	-31,93
942,597	-28,05
942,804	-28,69
943,011	-30,22
943,218	-28,92
943,425	-27,85
943,632	-26,94
943,839	-28,18
944,046	-29,57
944,253	-29,88
944,46	-29
944,667	-24,88
944,874	-25,83
945,081	-24,55
945,288	-22,99
945,495	-21,1
945,702	-21,2
945,909	-22,26
946,115	-21,75
946,322	-22,31
946,529	-22,41
946,736	-22,66
946,942	-20,12
947,149	-20,81
947,356	-21,24
947,562	-22,41
947,769	-21,13
947,976	-21,89
948,182	-19,14
948,389	-19,68
948,595	-19,41
948,802	-20,26
949,008	-21,77
949,215	-20,15
949,421	-20,67
949,628	-22,03
949,834	-22,85
950,04	-22,88
950,247	-18,76
950,453	-17,7
950,659	-17,41
950,865	-15,42
951,072	-21,08
951,278	-18,74
951,484	-20,36
951,69	-22,94
951,896	-25,22
952,103	-27,29
952,309	-26,54
952,515	-27,13
952,721	-23,58
952,927	-22,75
953,133	-24,19
953,339	-26,52
953,545	-26,93
953,751	-27,36
953,957	-24,75
954,163	-27,17
954,369	-26,82
954,574	-29,48
954,78	-29,31
954,986	-28,18
955,192	-26,68
955,398	-28,01
955,603	-30,78
955,809	-28,62
956,015	-27,51
956,22	-25,96
956,426	-24,58
956,632	-27,9
956,837	-27,12
957,043	-27,12
957,248	-26,17
957,454	-23,66
957,66	-26,39
957,865	-27,48
958,07	-25,72
958,276	-27,1
958,481	-27,12
958,687	-27,51
958,892	-27,69
959,097	-28,85
959,303	-29,24
959,508	-28,98
959,713	-28,52
959,919	-28,76
960,124	-28,83
960,329	-28,22
960,534	-24,41
960,739	-23,16
960,945	-21,08
961,15	-21,72
961,355	-22,92
961,56	-26,14
961,765	-28,15
961,97	-27,35
962,175	-25,34
962,38	-29,01
962,585	-29,49
962,79	-32,56
962,995	-32,76
963,2	-34,26
963,404	-34,59
963,609	-37,01
963,814	-40,08
964,019	-41,83
964,224	-42,89
964,428	-40,45
964,633	-37,02
964,838	-34,72
965,042	-35,2
965,247	-35,46
965,452	-35,51
965,656	-35
965,861	-34,98
966,066	-35,57
966,27	-32,24
966,475	-28,94
966,679	-32,08
966,884	-31,67
967,088	-33,94
967,292	-34,94
967,497	-33,4
967,701	-33,8
967,906	-32,23
968,11	-28,04
968,314	-23,49
968,518	-27,15
968,723	-24,11
968,927	-22,2
969,131	-19,82
969,335	-16,52
969,539	-15,7
969,744	-14,63
969,948	-12,87
970,152	-9,84
970,356	-9,86
970,56	-10,69
970,764	-13,05
970,968	-12,79
971,172	-14,5
971,376	-13,42
971,58	-12,37
971,784	-12,01
971,988	-12,96
972,192	-10,06
972,395	-11,31
972,599	-15,48
972,803	-15,89
973,007	-14,33
973,21	-14,15
973,414	-14,83
973,618	-15,26
973,822	-14,94
974,025	-14,66
974,229	-15,44
974,432	-18,71
974,636	-21,59
974,84	-19,54
975,043	-19,19
975,247	-21,09
975,45	-21,8
975,654	-22,14
975,857	-20,65
976,06	-21,37
976,264	-22,65
976,467	-20,56
976,671	-19,89
976,874	-16,87
977,077	-17,51
977,28	-18,13
977,484	-19,71
977,687	-20,13
977,89	-18,3
978,093	-17,8
978,297	-16,26
978,5	-18,56
978,703	-17,15
978,906	-14,82
979,109	-16,2
979,312	-16,52
979,515	-18,29
979,718	-17,38
979,921	-16,75
980,124	-20,2
980,327	-20,28
980,53	-19,74
980,733	-18,38
980,936	-17,11
981,138	-20,37
981,341	-19,91
981,544	-19,63
981,747	-21,67
981,949	-22,92
982,152	-22,26
982,355	-23,23
982,558	-19,43
982,76	-22,68
982,963	-24,12
983,165	-25,12
983,368	-24,65
983,571	-25,86
983,773	-22,78
983,976	-22,78
984,178	-22,85
984,381	-23,8
984,583	-26,68
984,785	-24,9
984,988	-22,22
985,19	-20,34
985,392	-22,64
985,595	-23,72
985,797	-23,08
985,999	-21,21
986,202	-19,36
986,404	-18,82
986,606	-15,57
986,808	-16,55
987,01	-15,03
987,212	-15,49
987,415	-15,67
987,617	-15,59
987,819	-15,83
988,021	-14,38
988,223	-16,77
988,425	-17,67
988,627	-17,37
988,829	-22,46
989,031	-19,81
989,232	-20,09
989,434	-16,74
989,636	-16,53
989,838	-15,74
990,04	-13,31
990,242	-13,89
990,443	-16,28
990,645	-14,05
990,847	-10,06
991,048	-11,39
991,25	-12,43
991,452	-14,43
991,653	-14,79
991,855	-15,12
992,057	-16,21
992,258	-15,95
992,46	-16,36
992,661	-14,41
992,863	-15,51
993,064	-14,82
993,265	-15,52
993,467	-17,45
993,668	-15,09
993,87	-15,52
994,071	-15,9
994,272	-15,7
994,473	-13,66
994,675	-13,93
994,876	-13,1
995,077	-11,91
995,278	-12,71
995,48	-10,79
995,681	-13,74
995,882	-12,32
996,083	-13,09
996,284	-19,62
996,485	-18,78
996,686	-19,68
996,887	-22,19
997,088	-26,04
997,289	-28,1
997,49	-29,17
997,691	-29,44
997,892	-28,38
998,092	-23,6
998,293	-23,59
998,494	-24,72
998,695	-25,52
998,896	-23,76
999,096	-25,18
999,297	-24,43
999,498	-26,68
999,698	-29,23
999,899	-31,48
1000,1	-32,75
1000,3	-32,16
1000,501	-32,74
1000,701	-32,88
1000,902	-31,59
1001,102	-30,34
1001,303	-27,61
1001,503	-29,46
1001,704	-29,21
1001,904	-30,11
1002,105	-30,27
1002,305	-29,63
1002,505	-29,05
1002,706	-30,02
1002,906	-29,77
1003,106	-30,41
1003,306	-29,71
1003,507	-27,85
1003,707	-28,91
1003,907	-25,56
1004,107	-24,35
1004,307	-27,72
1004,507	-25,75
1004,707	-25,57
1004,907	-28,44
1005,107	-28,07
1005,308	-26,72
1005,507	-29,13
1005,707	-25,84
1005,907	-24,84
1006,107	-22,16
1006,307	-20,93
1006,507	-22,13
1006,707	-20,54
1006,907	-20,26
1007,106	-22,32
1007,306	-24,33
1007,506	-25,16
1007,706	-25,01
1007,905	-27,43
1008,105	-26,55
1008,305	-27,32
1008,504	-26,39
1008,704	-21,52
1008,903	-21,43
1009,103	-19,58
1009,303	-19,33
1009,502	-19,4
1009,702	-19,36
1009,901	-18,27
1010,1	-21,32
1010,3	-19,65
1010,499	-21,59
1010,699	-23,32
1010,898	-24,91
1011,097	-23,5
1011,296	-24,91
1011,496	-26,23
1011,695	-25,99
1011,894	-28,22
1012,093	-24,73
1012,293	-25,79
1012,492	-27,87
1012,691	-27,59
1012,89	-27,27
1013,089	-30,08
1013,288	-28,91
1013,487	-27,19
1013,686	-27,58
1013,885	-28,99
1014,084	-27,37
1014,283	-27,31
1014,482	-28,26
1014,681	-28,94
1014,88	-33,32
1015,078	-31,93
1015,277	-34,19
1015,476	-36,09
1015,675	-34,29
1015,873	-33,26
1016,072	-34,25
1016,271	-31,59
1016,47	-37,34
1016,668	-34,14
1016,867	-35,64
1017,065	-36,83
1017,264	-37,61
1017,463	-37,71
1017,661	-37,93
1017,86	-37,39
1018,058	-36,03
1018,256	-37,62
1018,455	-38,25
1018,653	-36,67
1018,852	-35,77
1019,05	-39,48
1019,248	-39,58
1019,447	-38,8
1019,645	-39,6
1019,843	-41,47
1020,041	-40,17
1020,24	-40,14
1020,438	-37,2
1020,636	-37,29
1020,834	-39,91
1021,032	-36,96
1021,23	-37,93
1021,428	-36,47
1021,626	-32,56
1021,824	-33,57
1022,022	-36,3
1022,22	-34,82
1022,418	-33,99
1022,616	-33,27
1022,814	-34,1
1023,012	-33,83
1023,21	-31,48
1023,408	-31,8
1023,606	-33,35
1023,803	-29,9
1024,001	-30,18
1024,199	-33,25
1024,397	-32,07
1024,594	-32,23
1024,792	-33,59
1024,99	-33,59
1025,187	-32,61
1025,385	-28,11
1025,582	-29,15
1025,78	-29,85
1025,977	-29,84
1026,175	-28,23
1026,372	-27,21
1026,57	-29,94
1026,767	-28,05
1026,965	-26,34
1027,162	-26,23
1027,359	-26,39
1027,557	-25,45
1027,754	-27,93
1027,951	-29,92
1028,148	-27,48
1028,346	-28,93
1028,543	-32,39
1028,74	-31,84
1028,937	-33,99
1029,134	-33,56
1029,331	-34,85
1029,528	-33,18
1029,725	-32,15
1029,923	-34,58
1030,12	-29,2
1030,317	-27,67
1030,513	-27,52
1030,71	-25,72
1030,907	-23,74
1031,104	-24,76
1031,301	-24,78
1031,498	-27,02
1031,695	-28,47
1031,892	-27,95
1032,088	-25,84
1032,285	-27,58
1032,482	-29,24
1032,678	-31,7
1032,875	-33
1033,072	-31,88
1033,268	-32,99
1033,465	-33,2
1033,662	-35,98
1033,858	-35,99
1034,055	-34,44
1034,251	-31,27
1034,448	-31,8
1034,644	-29,94
1034,84	-26,6
1035,037	-23,74
1035,233	-24,31
1035,43	-22,14
1035,626	-23
1035,822	-23,13
1036,019	-22,98
1036,215	-29,05
1036,411	-29,23
1036,607	-30,19
1036,803	-33,63
1037	-34,41
1037,196	-35,61
1037,392	-34,99
1037,588	-35,92
1037,784	-33,76
1037,98	-35,55
1038,176	-37,46
1038,372	-38,66
1038,568	-36,99
1038,764	-33,98
1038,96	-31,81
1039,156	-33,84
1039,352	-34,29
1039,547	-32,6
1039,743	-31,1
1039,939	-29,51
1040,135	-30,67
1040,331	-34,23
1040,526	-31,97
1040,722	-34,95
1040,918	-37,4
1041,113	-42,16
1041,309	-41,42
1041,505	-44,8
1041,7	-44,57
1041,896	-43,3
1042,091	-43,31
1042,287	-40,43
1042,482	-39,92
1042,678	-40,74
1042,873	-39,24
1043,069	-39,6
1043,264	-38,43
1043,459	-38,08
1043,655	-37,11
1043,85	-38,55
1044,045	-36,32
1044,24	-35,53
1044,436	-32,35
1044,631	-33,58
1044,826	-35,78
1045,021	-39,3
1045,216	-38,42
