Data from led_4000k_2_FLMT021711__2__17-32-23-604.txt Node

Date: Tue Nov 05 17:32:23 CET 2024
User: Etudiants TP
Spectrometer: FLMT02171
Trigger mode: 0
Integration Time (sec): 1,000000E-1
Scans to average: 5
Electric dark correction enabled: true
Nonlinearity correction enabled: true
Boxcar width: 15
XAxis mode: Wavelengths
Number of Pixels in Spectrum: 3648
>>>>>Begin Spectral Data<<<<<
194,658	-60,8
194,923	-58,4
195,188	-52,01
195,453	-51,38
195,717	-44,85
195,982	-42,87
196,247	-39,86
196,512	-43,14
196,777	-42,24
197,042	-40,2
197,307	-38,86
197,572	-34,33
197,837	-34,47
198,101	-30,4
198,366	-28,15
198,631	-26,65
198,896	-19,32
199,161	-12,74
199,425	-4,09
199,69	5,94
199,955	3,8
200,22	2,8
200,484	2,69
200,749	1,32
201,014	2,91
201,278	3,14
201,543	4,23
201,807	4,58
202,072	8,18
202,337	8,02
202,601	8,91
202,866	7,55
203,13	8,63
203,395	7,13
203,659	7,43
203,924	5,37
204,189	5,08
204,453	4,87
204,717	7,72
204,982	9,3
205,246	10,36
205,511	11,48
205,775	10,45
206,04	16,23
206,304	15,87
206,568	18,45
206,833	19,85
207,097	19,16
207,361	20,84
207,626	23,27
207,89	23,52
208,154	25,11
208,419	26,36
208,683	26,81
208,947	30,05
209,211	28,95
209,476	28,47
209,74	29,3
210,004	28,04
210,268	26,67
210,532	29,17
210,796	28,57
211,061	29,55
211,325	30,61
211,589	29,47
211,853	30,02
212,117	29,6
212,381	30,89
212,645	31,62
212,909	32,49
213,173	30,65
213,437	31,84
213,701	31,58
213,965	32,2
214,229	26,95
214,493	25,42
214,757	24,04
215,021	21,71
215,285	26,6
215,549	27,92
215,813	24,8
216,077	25,15
216,34	26,21
216,604	24,72
216,868	24,99
217,132	25,81
217,396	26,62
217,659	26,85
217,923	22,46
218,187	23,92
218,451	23,39
218,714	21,78
218,978	22,81
219,242	26,91
219,505	26,81
219,769	27,68
220,033	28,69
220,296	30,69
220,56	31,94
220,824	30,35
221,087	30,78
221,351	30,15
221,614	28,43
221,878	30,59
222,142	28,63
222,405	29,47
222,669	32
222,932	28,04
223,196	27,66
223,459	23,92
223,722	26,3
223,986	25,96
224,249	24,92
224,513	24,85
224,776	25,55
225,04	24,58
225,303	22,63
225,566	21,96
225,83	23,96
226,093	26,84
226,356	25,16
226,62	22,17
226,883	23,4
227,146	23,01
227,409	20,74
227,673	19,12
227,936	19,03
228,199	18,31
228,462	16,97
228,725	15,41
228,989	15,16
229,252	15,59
229,515	20,81
229,778	20,64
230,041	19,54
230,304	17,5
230,567	18,58
230,83	16,33
231,093	19,42
231,356	20,27
231,619	26,96
231,882	25,07
232,145	26,44
232,408	24,4
232,671	24,52
232,934	23,31
233,197	23,12
233,46	22,41
233,723	23,72
233,986	21,57
234,249	20,21
234,512	21,89
234,775	27,69
235,037	26,58
235,3	26,9
235,563	26,99
235,826	28,43
236,089	30,66
236,351	30,92
236,614	32,78
236,877	32,98
237,14	33,67
237,402	33,08
237,665	26,89
237,928	25,53
238,19	22,75
238,453	25,84
238,716	24,48
238,978	24,26
239,241	22,16
239,503	23,56
239,766	19,61
240,029	17,99
240,291	19,78
240,554	20,91
240,816	19,04
241,079	19,82
241,341	18,67
241,604	18,01
241,866	14,23
242,129	15,93
242,391	17,9
242,653	15,74
242,916	15,68
243,178	14,87
243,441	14,8
243,703	13,76
243,965	10,83
244,228	10,71
244,49	9,7
244,752	10,22
245,015	11,56
245,277	14,25
245,539	14,08
245,801	15,43
246,064	15,32
246,326	15,34
246,588	15,66
246,85	17,03
247,112	18,01
247,374	20,41
247,637	23,04
247,899	21,38
248,161	23,42
248,423	19,66
248,685	20,39
248,947	21,5
249,209	21,11
249,471	22,64
249,733	22,9
249,995	22,88
250,257	23,37
250,519	21,35
250,781	25,4
251,043	22,15
251,305	24,33
251,567	26,63
251,829	28,6
252,091	29,43
252,353	25,04
252,615	25,41
252,876	23,25
253,138	20,44
253,4	16,51
253,662	18,32
253,924	21,15
254,185	21,3
254,447	20,34
254,709	20,28
254,971	22,14
255,232	24,81
255,494	23,99
255,756	20,73
256,017	21,58
256,279	19,54
256,541	20
256,802	18,55
257,064	18,62
257,326	17,5
257,587	18,15
257,849	21,33
258,11	23,53
258,372	23,38
258,633	25,07
258,895	23,61
259,156	22,75
259,418	20,81
259,679	16,17
259,941	12,97
260,202	14,38
260,464	17,01
260,725	16,84
260,987	16,15
261,248	16,08
261,509	18,01
261,771	16,33
262,032	18,07
262,293	19,62
262,555	19,89
262,816	17,88
263,077	15,47
263,338	11,85
263,6	12,16
263,861	12,82
264,122	10,93
264,383	13,4
264,645	13,91
264,906	14,03
265,167	15,21
265,428	15,55
265,689	16,97
265,95	13,59
266,211	15,91
266,473	15,62
266,734	11,5
266,995	9,04
267,256	9,84
267,517	12,37
267,778	16,12
268,039	17,42
268,3	16,57
268,561	15,1
268,822	17,82
269,083	16,24
269,344	15,46
269,604	13,88
269,865	13,74
270,126	8,54
270,387	9,45
270,648	12,04
270,909	12,26
271,17	11,23
271,43	8,23
271,691	5,59
271,952	3,71
272,213	6,07
272,473	3,57
272,734	5,89
272,995	6,79
273,256	6,25
273,516	8,32
273,777	5,57
274,038	7,48
274,298	4,99
274,559	4,32
274,82	8,88
275,08	11,41
275,341	13,06
275,601	12,74
275,862	9,59
276,122	10,3
276,383	12,26
276,643	13,78
276,904	12,72
277,164	15,47
277,425	15,78
277,685	20,06
277,946	19,64
278,206	22,14
278,467	23,51
278,727	22,26
278,987	20,93
279,248	21,2
279,508	23,31
279,768	27,01
280,029	30,04
280,289	26,32
280,549	25,56
280,81	24,71
281,07	24,26
281,33	26,04
281,59	25,54
281,851	27,97
282,111	27,51
282,371	25,37
282,631	25,54
282,891	24,13
283,151	23,13
283,412	21,33
283,672	20,41
283,932	21,27
284,192	22,2
284,452	19,24
284,712	17,21
284,972	16,87
285,232	15,8
285,492	19,19
285,752	16,86
286,012	24,28
286,272	25,24
286,532	22,6
286,792	23,38
287,052	25,79
287,312	26,18
287,571	25,19
287,831	23,71
288,091	19,5
288,351	20,25
288,611	24,16
288,871	23,64
289,13	23,63
289,39	19,91
289,65	20,06
289,91	17,68
290,17	20,27
290,429	24,98
290,689	23,48
290,949	21,28
291,208	22,12
291,468	25,68
291,728	27,34
291,987	28,82
292,247	27,76
292,506	29,83
292,766	31,22
293,026	29,08
293,285	29,12
293,545	29,74
293,804	28,82
294,064	24,61
294,323	22,09
294,583	21,94
294,842	21,78
295,102	22,27
295,361	22,54
295,621	22,39
295,88	22,35
296,139	21,83
296,399	22,64
296,658	17,78
296,917	18,31
297,177	15,63
297,436	18,61
297,695	16,53
297,955	17,46
298,214	14,53
298,473	13,7
298,732	16,23
298,992	19,46
299,251	20,02
299,51	16,53
299,769	15,7
300,028	14,48
300,287	13,58
300,547	13,58
300,806	12,59
301,065	14,87
301,324	17,07
301,583	13,84
301,842	10,19
302,101	7,5
302,36	8,4
302,619	8,44
302,878	9,87
303,137	8
303,396	8,18
303,655	10,1
303,914	7,85
304,173	9,9
304,432	10,1
304,691	13,11
304,95	11,34
305,208	16,95
305,467	15,06
305,726	15,46
305,985	17,68
306,244	21,21
306,503	21,2
306,761	20,34
307,02	16,67
307,279	15,26
307,537	14,89
307,796	11,81
308,055	11,19
308,314	12,6
308,572	10,46
308,831	10,67
309,09	12,53
309,348	12,51
309,607	11,13
309,865	16,4
310,124	17,27
310,382	20,47
310,641	21,57
310,9	19,47
311,158	19,92
311,417	20,93
311,675	21,01
311,933	22,54
312,192	22,02
312,45	21,48
312,709	20,17
312,967	19,93
313,226	19,18
313,484	19,63
313,742	18,22
314,001	15,47
314,259	11,8
314,517	12,5
314,776	14,17
315,034	17,77
315,292	17,27
315,55	15,87
315,809	16,55
316,067	17,55
316,325	15,69
316,583	17,39
316,841	17,71
317,1	15,88
317,358	13
317,616	14
317,874	12,08
318,132	9,88
318,39	7,55
318,648	6,3
318,906	7,31
319,164	6,44
319,422	4,83
319,68	3,87
319,938	4,28
320,196	5,77
320,454	7,6
320,712	8,9
320,97	9,7
321,228	5,97
321,486	7,18
321,744	9,29
322,002	11,95
322,26	11,84
322,517	12,11
322,775	9,12
323,033	6,57
323,291	7,8
323,549	9,7
323,806	11,21
324,064	11,03
324,322	13,48
324,58	11,67
324,837	12,35
325,095	10,71
325,353	11,63
325,61	13,76
325,868	13,77
326,126	17,31
326,383	16,1
326,641	15,05
326,898	15,23
327,156	16,15
327,413	16,54
327,671	17,12
327,928	18,63
328,186	18,27
328,443	16,77
328,701	20,27
328,958	20,52
329,216	22,89
329,473	20,98
329,731	20,96
329,988	20,52
330,245	22,5
330,503	22,94
330,76	23,74
331,017	25,99
331,275	24,3
331,532	25
331,789	22,23
332,047	21,96
332,304	18,88
332,561	20,05
332,818	20,51
333,076	21,45
333,333	23,59
333,59	23,59
333,847	25,15
334,104	23,08
334,361	23,35
334,618	23,34
334,876	21,1
335,133	20,46
335,39	18,61
335,647	20,73
335,904	16,59
336,161	15,22
336,418	15,24
336,675	10,43
336,932	12,07
337,189	10,88
337,446	12,26
337,703	10,76
337,96	7,18
338,216	6,62
338,473	3,01
338,73	2,03
338,987	1,96
339,244	5,52
339,501	3,35
339,757	5,5
340,014	5,71
340,271	6,82
340,528	7,22
340,785	11
341,041	11,32
341,298	8,25
341,555	9,03
341,811	9,05
342,068	7,24
342,325	7,66
342,581	9,33
342,838	11,29
343,094	12,43
343,351	13,74
343,608	9,71
343,864	13,5
344,121	14,36
344,377	14,72
344,634	13,24
344,89	12,06
345,147	11,63
345,403	10,17
345,66	10,93
345,916	11,86
346,172	10,21
346,429	8,88
346,685	8,59
346,942	8,63
347,198	5,44
347,454	6,4
347,711	6,48
347,967	4,3
348,223	4,78
348,48	4,09
348,736	5,85
348,992	5,61
349,248	8,29
349,504	5,9
349,761	4,84
350,017	5,81
350,273	5,72
350,529	6,23
350,785	6,46
351,041	4,86
351,297	5,65
351,554	5,68
351,81	2,48
352,066	0,55
352,322	0,35
352,578	2,72
352,834	0,86
353,09	0,38
353,346	1,1
353,602	-0,32
353,858	-0,15
354,114	-1,11
354,369	1,22
354,625	3,39
354,881	0,77
355,137	1,37
355,393	1,42
355,649	1,77
355,905	1,1
356,16	0,96
356,416	2,58
356,672	-4,63
356,928	-5,21
357,183	-6,56
357,439	-5,86
357,695	-7,12
357,951	-3,51
358,206	-5,68
358,462	-7,21
358,718	-9,95
358,973	-7,89
359,229	-8,38
359,484	-7,33
359,74	-4,34
359,996	-3,16
360,251	-0,45
360,507	-1,16
360,762	-0,99
361,018	1,51
361,273	-0,87
361,529	-0,69
361,784	-1,61
362,04	0,78
362,295	1,06
362,55	1,43
362,806	5,49
363,061	6,59
363,316	7,89
363,572	9,06
363,827	12,61
364,082	9,82
364,338	8,56
364,593	9,44
364,848	11,18
365,104	10,07
365,359	12,4
365,614	13,74
365,869	11,66
366,124	13,3
366,38	13,06
366,635	14,79
366,89	14,88
367,145	15,28
367,4	18,38
367,655	18,74
367,91	19,32
368,165	18,69
368,42	16,29
368,675	18,17
368,93	18,9
369,185	17,44
369,44	18,81
369,695	22,46
369,95	21,24
370,205	19,72
370,46	18,3
370,715	15,95
370,97	17,13
371,225	15,17
371,48	15,7
371,734	14,89
371,989	17,58
372,244	16,95
372,499	17,87
372,754	17,04
373,008	15,85
373,263	11,86
373,518	13,7
373,773	11,27
374,027	11,03
374,282	13,03
374,537	14,08
374,791	14,43
375,046	13,44
375,301	11,21
375,555	9,13
375,81	10,58
376,064	10,01
376,319	13,1
376,573	10,36
376,828	6,76
377,082	12,92
377,337	11,67
377,591	7,64
377,846	9,85
378,1	12,67
378,355	13,35
378,609	14,05
378,863	10,49
379,118	13,07
379,372	11
379,627	9,82
379,881	7,51
380,135	7,68
380,389	8,41
380,644	8,48
380,898	8,81
381,152	10,66
381,407	9,2
381,661	13,18
381,915	14,3
382,169	13,63
382,423	12,47
382,677	10,53
382,932	11,4
383,186	12,41
383,44	12,76
383,694	14,66
383,948	12,67
384,202	11,11
384,456	14,63
384,71	16,9
384,964	15,2
385,218	17,23
385,472	18,39
385,726	16,24
385,98	16,74
386,234	15,54
386,488	11,36
386,742	13,25
386,996	10,15
387,249	12,28
387,503	14,39
387,757	15,27
388,011	17,75
388,265	19,03
388,518	20,94
388,772	23,09
389,026	22,65
389,28	20,19
389,533	17,66
389,787	18,95
390,041	16,99
390,295	16,83
390,548	16,32
390,802	18,94
391,055	17,54
391,309	16,6
391,563	14,89
391,816	14,55
392,07	13,59
392,323	14,22
392,577	14,54
392,83	15,48
393,084	21,91
393,337	26,28
393,591	27,9
393,844	27,41
394,098	30,87
394,351	35,59
394,604	37,1
394,858	39,92
395,111	39,28
395,364	37,14
395,618	39,29
395,871	36,19
396,124	34,98
396,378	33,51
396,631	33,36
396,884	30,89
397,137	32
397,391	33,58
397,644	29,81
397,897	32,1
398,15	33,91
398,403	36,2
398,657	33,93
398,91	34,19
399,163	36,33
399,416	35,17
399,669	35,18
399,922	35,16
400,175	32,88
400,428	32,94
400,681	32,41
400,934	25,26
401,187	23,81
401,44	23,02
401,693	20,64
401,946	17,2
402,199	12,36
402,452	10,9
402,704	7,09
402,957	6,69
403,21	9,06
403,463	8,62
403,716	10,18
403,969	10,48
404,221	9,35
404,474	10,63
404,727	15,25
404,98	16,66
405,232	16,81
405,485	19,62
405,738	21,16
405,99	20,53
406,243	22,04
406,496	23,97
406,748	23,54
407,001	21,5
407,253	22,41
407,506	22,33
407,759	23,56
408,011	21,32
408,264	21,64
408,516	22,27
408,769	20,54
409,021	21,2
409,274	21,85
409,526	23,81
409,778	23,09
410,031	28,48
410,283	28,14
410,536	33,85
410,788	31,75
411,04	30,76
411,293	31,53
411,545	31,96
411,797	31,69
412,049	31,97
412,302	32,51
412,554	32,28
412,806	30,47
413,058	28,73
413,311	30,32
413,563	27,91
413,815	29,03
414,067	26,96
414,319	26,16
414,571	26,68
414,823	25,41
415,075	24,51
415,328	26,19
415,58	29,47
415,832	30,56
416,084	30,56
416,336	28,69
416,588	33,02
416,84	31,07
417,091	34,06
417,343	31,67
417,595	34,78
417,847	33,37
418,099	34,98
418,351	33,6
418,603	36,92
418,855	37,93
419,106	38,68
419,358	37,69
419,61	36,33
419,862	38,61
420,114	35,86
420,365	34,94
420,617	35,74
420,869	33,33
421,12	31,35
421,372	33,27
421,624	30,73
421,875	31,82
422,127	29,87
422,379	30,41
422,63	32,55
422,882	31
423,133	31,28
423,385	30,11
423,636	32,88
423,888	35,29
424,139	36,85
424,391	35,97
424,642	33,96
424,894	31,23
425,145	30,99
425,396	28,28
425,648	31,67
425,899	29,04
426,151	29,3
426,402	28,37
426,653	29,03
426,905	27,36
427,156	26,47
427,407	27,69
427,658	25,62
427,91	25,3
428,161	26,19
428,412	29,78
428,663	33,47
428,914	35,9
429,166	37,43
429,417	39,3
429,668	37,52
429,919	35,51
430,17	35,6
430,421	37,25
430,672	40,71
430,923	40,6
431,174	40,24
431,425	40,17
431,676	39,91
431,927	38,45
432,178	39,02
432,429	40,15
432,68	40,78
432,931	46,07
433,182	49,51
433,433	47,07
433,683	50,25
433,934	50,74
434,185	49,96
434,436	48,68
434,687	51,42
434,937	54,58
435,188	54,51
435,439	54,83
435,69	56,61
435,94	56,86
436,191	56,82
436,442	55,46
436,692	53,54
436,943	51,74
437,194	50,61
437,444	53,8
437,695	58,34
437,945	59,07
438,196	57,61
438,447	57,87
438,697	59,48
438,948	59,11
439,198	56,89
439,449	53,33
439,699	55,6
439,949	56,13
440,2	56,37
440,45	58,01
440,701	55,9
440,951	56,05
441,201	56,96
441,452	56,72
441,702	56,43
441,952	57,75
442,203	58,87
442,453	57,37
442,703	59,45
442,953	60,79
443,204	62,9
443,454	63,26
443,704	64,49
443,954	62,93
444,204	65,86
444,455	68,2
444,705	70,36
444,955	72,46
445,205	72,36
445,455	70,44
445,705	73,02
445,955	75,22
446,205	74,86
446,455	76,23
446,705	78,64
446,955	81,14
447,205	84,42
447,455	86,52
447,705	85,06
447,955	86,99
448,205	88,82
448,454	90,24
448,704	94
448,954	94,43
449,204	95,67
449,454	96,83
449,704	97,33
449,953	99,02
450,203	102,97
450,453	102,82
450,703	105,64
450,952	106,88
451,202	109,01
451,452	110,02
451,701	113,53
451,951	117,66
452,201	119,77
452,45	119,62
452,7	122,56
452,949	123,3
453,199	125,29
453,448	127,24
453,698	130,17
453,947	131,7
454,197	130,69
454,446	130,26
454,696	134,39
454,945	135,83
455,195	135,79
455,444	137,43
455,693	141,08
455,943	139,46
456,192	141,45
456,442	141,28
456,691	142,52
456,94	143,56
457,189	144,18
457,439	147,38
457,688	149,43
457,937	148,51
458,186	148,42
458,436	148,57
458,685	148,72
458,934	146,49
459,183	145,7
459,432	147,26
459,681	145
459,93	143,04
460,179	142,97
460,429	140,18
460,678	143,24
460,927	147,21
461,176	145,44
461,425	142,74
461,674	144,82
461,923	145,06
462,172	144,01
462,42	141,3
462,669	142,72
462,918	140,32
463,167	139,27
463,416	136,4
463,665	137,51
463,914	136,72
464,162	134,07
464,411	133,57
464,66	132,48
464,909	130,05
465,158	127,95
465,406	126,59
465,655	128,02
465,904	128,32
466,152	127,91
466,401	127,11
466,65	128,96
466,898	127,68
467,147	122,97
467,395	123,71
467,644	125,53
467,893	123,91
468,141	123,36
468,39	119,6
468,638	115,91
468,887	113,15
469,135	112,34
469,384	110,71
469,632	110,28
469,88	110,19
470,129	112,18
470,377	107,79
470,626	110,73
470,874	113,35
471,122	112,79
471,371	110,61
471,619	109,02
471,867	110,29
472,115	108,74
472,364	108,02
472,612	110,29
472,86	108,86
473,108	108,37
473,356	106,69
473,605	106
473,853	102,88
474,101	102,61
474,349	101,31
474,597	103,17
474,845	102,13
475,093	99,28
475,341	95,61
475,589	96,1
475,837	97,07
476,085	99,18
476,333	97,36
476,581	99,77
476,829	99,58
477,077	100,27
477,325	100,37
477,573	101,97
477,821	98,15
478,069	98,47
478,317	97,64
478,564	99,05
478,812	96,7
479,06	95,22
479,308	92,7
479,555	91,92
479,803	91,97
480,051	93,35
480,299	94,22
480,546	95,08
480,794	92
481,042	92,89
481,289	91,18
481,537	93,81
481,784	91,43
482,032	94,99
482,28	94,23
482,527	94,97
482,775	95,56
483,022	97,94
483,27	99,36
483,517	103,26
483,765	101,52
484,012	101,2
484,259	98,3
484,507	101,21
484,754	102,95
485,002	103,17
485,249	102,74
485,496	106,13
485,744	106,32
485,991	105,35
486,238	103,55
486,486	108,15
486,733	109,5
486,98	114,28
487,227	113,37
487,474	116,86
487,722	118,75
487,969	115,45
488,216	116,11
488,463	118,56
488,71	116,19
488,957	116,72
489,204	115,19
489,451	117,61
489,699	116,04
489,946	112,59
490,193	111,3
490,44	112,57
490,687	113,04
490,934	110,39
491,18	106,32
491,427	108,76
491,674	111,32
491,921	113,34
492,168	112,57
492,415	110,34
492,662	113,24
492,909	115,05
493,155	114,28
493,402	112,76
493,649	112,57
493,896	114,14
494,142	109,83
494,389	111,37
494,636	108,98
494,883	108,47
495,129	105,35
495,376	103,48
495,623	106,2
495,869	107,58
496,116	107,73
496,362	110,11
496,609	113,27
496,855	117,94
497,102	116,88
497,348	116,96
497,595	119,57
497,841	125,13
498,088	124,96
498,334	124,73
498,581	126,49
498,827	127,97
499,074	127,92
499,32	130,73
499,566	134,71
499,813	135,77
500,059	134,27
500,305	133,38
500,552	133,02
500,798	133,88
501,044	139,53
501,29	138,31
501,537	136,84
501,783	140,91
502,029	142,53
502,275	142,45
502,521	142,23
502,767	144,57
503,013	148,85
503,26	146,31
503,506	144,28
503,752	147,01
503,998	145,79
504,244	146,92
504,49	145,09
504,736	146,82
504,982	146,19
505,228	148,67
505,474	148,86
505,72	149,85
505,966	148,93
506,211	152,35
506,457	151,59
506,703	149,85
506,949	147,78
507,195	147,53
507,441	144,5
507,686	148,53
507,932	149
508,178	151,14
508,424	149,6
508,669	148
508,915	149,5
509,161	151,42
509,406	152,18
509,652	152,91
509,898	155,45
510,143	157,57
510,389	156,04
510,634	151,88
510,88	157,01
511,125	160,61
511,371	161,29
511,616	163,11
511,862	160,09
512,107	158,29
512,353	161,84
512,598	164,09
512,844	163,38
513,089	161,06
513,335	161,8
513,58	161,97
513,825	162,08
514,071	161,96
514,316	162,6
514,561	162,59
514,806	160,33
515,052	163,35
515,297	161,69
515,542	161,49
515,787	161,96
516,033	163,51
516,278	163,2
516,523	162,82
516,768	161,3
517,013	160,02
517,258	158,43
517,503	157,58
517,748	157,35
517,993	158
518,238	158,63
518,483	156,76
518,728	155,36
518,973	152,33
519,218	152,63
519,463	153,19
519,708	153,6
519,953	151,8
520,198	151,84
520,443	153,34
520,688	156,38
520,933	154,44
521,177	156,43
521,422	153,6
521,667	158,23
521,912	159,69
522,157	156,99
522,401	159,74
522,646	160,36
522,891	161,1
523,135	163
523,38	163,07
523,625	162,52
523,869	166,4
524,114	167,78
524,358	168,18
524,603	168,62
524,848	167,39
525,092	167,78
525,337	169,12
525,581	170,15
525,826	171,93
526,07	171,96
526,315	173,15
526,559	173,71
526,803	171,57
527,048	176,75
527,292	177,7
527,537	177,57
527,781	175,86
528,025	174,02
528,269	175,12
528,514	176,08
528,758	174,56
529,002	175,74
529,247	176,68
529,491	174,59
529,735	181,14
529,979	180,4
530,223	182,67
530,467	180,79
530,712	178,87
530,956	177,71
531,2	178,82
531,444	175,92
531,688	177,79
531,932	175,92
532,176	176,43
532,42	177,96
532,664	178,47
532,908	176,48
533,152	176,39
533,396	176,29
533,64	175,78
533,884	173,43
534,128	172,97
534,371	174,78
534,615	176,24
534,859	174,92
535,103	174,19
535,347	175,59
535,59	176,72
535,834	173,48
536,078	175,26
536,322	176,37
536,565	179,34
536,809	178,1
537,053	179,91
537,296	176,85
537,54	177,17
537,784	175,74
538,027	177,73
538,271	176,58
538,514	176,06
538,758	175,03
539,001	172,44
539,245	172,38
539,488	173,99
539,732	174,78
539,975	175,61
540,219	179,37
540,462	181,8
540,706	181,21
540,949	180,35
541,192	181,86
541,436	187,35
541,679	192,64
541,922	193,29
542,166	186,65
542,409	186,79
542,652	187,77
542,895	188,74
543,139	188,84
543,382	193,77
543,625	192,99
543,868	193,27
544,111	191,46
544,354	190,07
544,598	188,4
544,841	189,54
545,084	188,65
545,327	187,19
545,57	188,33
545,813	191,33
546,056	191,79
546,299	193,7
546,542	196,25
546,785	198,17
547,028	200,02
547,271	200,69
547,514	200,28
547,756	197,08
547,999	195,87
548,242	198,2
548,485	196,59
548,728	195,51
548,971	190,93
549,213	192,12
549,456	191,11
549,699	193,23
549,942	193,97
550,184	193,05
550,427	192,88
550,67	193,8
550,912	188,66
551,155	191,41
551,398	190,58
551,64	191,5
551,883	192,01
552,125	192,94
552,368	193,3
552,61	191,02
552,853	193,14
553,095	191,1
553,338	189,8
553,58	190,3
553,823	187,78
554,065	191,03
554,308	188,97
554,55	186,2
554,792	182,31
555,035	181,9
555,277	179,57
555,519	181,7
555,762	179,27
556,004	181,03
556,246	179,32
556,488	181,27
556,731	178,33
556,973	179,92
557,215	178,6
557,457	180,15
557,699	183,19
557,941	180,54
558,183	179,83
558,426	183,39
558,668	178,36
558,91	181,79
559,152	180,44
559,394	179,78
559,636	182,57
559,878	182,52
560,12	182,3
560,362	183,59
560,604	185,09
560,845	185,2
561,087	183,58
561,329	186,58
561,571	183,53
561,813	183,75
562,055	183,93
562,297	186,58
562,538	186,77
562,78	191,68
563,022	188,39
563,264	191,23
563,505	191,06
563,747	191,12
563,989	188,92
564,23	188,36
564,472	187,17
564,714	191,54
564,955	191,24
565,197	188,22
565,438	190,97
565,68	195,19
565,921	192,47
566,163	195,58
566,404	193,73
566,646	196,23
566,887	198,52
567,129	198,39
567,37	197,71
567,612	200,22
567,853	198,3
568,094	197,84
568,336	197,36
568,577	199,21
568,818	200,67
569,06	199,99
569,301	198,01
569,542	199,39
569,783	201,93
570,025	202,65
570,266	201,9
570,507	204,23
570,748	203,68
570,989	205,91
571,23	207,94
571,472	209,3
571,713	207,57
571,954	208,05
572,195	204,98
572,436	208,12
572,677	212,01
572,918	214,17
573,159	211,34
573,4	211,22
573,641	211,05
573,882	211,35
574,123	209,76
574,364	205,3
574,604	205,01
574,845	204,56
575,086	205,24
575,327	204,07
575,568	205,11
575,809	204,69
576,049	203,68
576,29	200,21
576,531	204,35
576,771	207,76
577,012	208,89
577,253	208,44
577,494	208,16
577,734	208,44
577,975	208,23
578,215	206,94
578,456	203,82
578,697	204,58
578,937	206,07
579,178	205,3
579,418	205,68
579,659	205,03
579,899	202,04
580,14	200,13
580,38	197,9
580,62	197,69
580,861	200,48
581,101	199,82
581,342	199,94
581,582	194,95
581,822	198,42
582,063	197,69
582,303	197,97
582,543	197,33
582,783	198,91
583,024	200,05
583,264	202,97
583,504	200,04
583,744	202,28
583,984	200,2
584,224	199,28
584,465	197,77
584,705	197,06
584,945	196,17
585,185	195,02
585,425	195,18
585,665	195,91
585,905	194,95
586,145	194,86
586,385	192,91
586,625	198,06
586,865	196,43
587,105	196,28
587,345	196,32
587,585	195,61
587,824	194,49
588,064	195,04
588,304	192,47
588,544	192,89
588,784	191,19
589,024	193,83
589,263	193,49
589,503	191,35
589,743	193,4
589,982	192,74
590,222	193,8
590,462	190,81
590,701	188,32
590,941	193,94
591,181	192,29
591,42	191,83
591,66	193,83
591,899	197,2
592,139	196,61
592,378	197,67
592,618	197,63
592,857	197,8
593,097	197,76
593,336	198,87
593,576	198,57
593,815	199,83
594,055	196,6
594,294	198,29
594,533	198,37
594,773	197,84
595,012	199,45
595,251	200,28
595,491	202,72
595,73	204,71
595,969	204,59
596,208	205,01
596,447	211,67
596,687	211,21
596,926	212,85
597,165	210,17
597,404	212,11
597,643	210,09
597,882	210,04
598,121	212,09
598,36	210,95
598,599	212,26
598,838	211,43
599,077	208,76
599,316	208,8
599,555	208,57
599,794	209,89
600,033	211,19
600,272	212,68
600,511	210,94
600,75	212,59
600,989	213,74
601,228	212,88
601,466	212,8
601,705	212,17
601,944	213,32
602,183	215,92
602,422	215,59
602,66	214,89
602,899	212,64
603,138	213,89
603,376	214,15
603,615	214,02
603,854	209,08
604,092	208,46
604,331	209,97
604,569	210,94
604,808	209,38
605,047	210,5
605,285	210,5
605,524	209,63
605,762	207,68
606	208,26
606,239	207,47
606,477	207,78
606,716	202,83
606,954	200,9
607,193	197,65
607,431	192,94
607,669	190,52
607,908	189,21
608,146	190,53
608,384	189,09
608,622	188,66
608,861	188,52
609,099	187,57
609,337	186,18
609,575	184,51
609,813	183,49
610,052	182,94
610,29	178,65
610,528	174,97
610,766	173,65
611,004	173,77
611,242	172,54
611,48	172,67
611,718	169,15
611,956	169,52
612,194	168,24
612,432	166,69
612,67	165,07
612,908	165,05
613,146	163,22
613,384	161,91
613,621	161,19
613,859	160,22
614,097	160,56
614,335	162,19
614,573	163,15
614,811	164,78
615,048	164,04
615,286	166,01
615,524	163,68
615,761	159,81
615,999	159,56
616,237	158,32
616,474	159,85
616,712	160,07
616,95	157,02
617,187	156,37
617,425	156,04
617,662	156,67
617,9	154,68
618,137	152,05
618,375	151,08
618,612	149,12
618,85	150,23
619,087	153,21
619,325	150,94
619,562	149,04
619,799	147,45
620,037	146,38
620,274	144,05
620,511	144,3
620,749	140,45
620,986	137,97
621,223	136,26
621,461	134,93
621,698	134,65
621,935	133,81
622,172	132,22
622,409	133,31
622,647	131,61
622,884	128,77
623,121	131,5
623,358	128,92
623,595	129,33
623,832	128,87
624,069	127,68
624,306	127,82
624,543	128,42
624,78	129,87
625,017	130,96
625,254	132,8
625,491	134,07
625,728	135,37
625,965	135,23
626,202	133,42
626,438	130,77
626,675	131,16
626,912	132,02
627,149	132,61
627,386	132,58
627,622	132,24
627,859	131,2
628,096	132,41
628,333	134,28
628,569	134,75
628,806	135,88
629,043	135,09
629,279	136,13
629,516	136,99
629,752	132,5
629,989	133,1
630,225	131,38
630,462	131,72
630,699	131,06
630,935	130,58
631,171	127,31
631,408	126,28
631,644	125,09
631,881	121,55
632,117	118,19
632,354	117,12
632,59	115,32
632,826	114,77
633,063	112,9
633,299	113,31
633,535	109,61
633,771	108,38
634,008	109,46
634,244	109,85
634,48	107,49
634,716	108,86
634,953	107,49
635,189	108,46
635,425	110,19
635,661	111,24
635,897	109,08
636,133	109,12
636,369	108,34
636,605	103,11
636,841	102,21
637,077	104,26
637,313	103,54
637,549	104,08
637,785	101,42
638,021	102,27
638,257	99,9
638,493	101,85
638,729	99,61
638,965	102,79
639,2	104,01
639,436	103,41
639,672	102,37
639,908	101,32
640,144	105,04
640,379	107,33
640,615	106,14
640,851	109,02
641,086	109,86
641,322	107,58
641,558	106,65
641,793	108,21
642,029	105,57
642,264	104,61
642,5	102,67
642,736	97,48
642,971	97,56
643,207	96,28
643,442	93,99
643,678	93,56
643,913	93,75
644,148	92,74
644,384	94,18
644,619	93,26
644,855	94,08
645,09	93,63
645,325	93,35
645,561	93,4
645,796	90,3
646,031	94,15
646,266	90,09
646,502	89,44
646,737	90,94
646,972	91,2
647,207	90,31
647,442	88,11
647,678	84,82
647,913	86,72
648,148	86,15
648,383	84,75
648,618	84,27
648,853	85,45
649,088	85,71
649,323	88,34
649,558	90,52
649,793	92,03
650,028	93,69
650,263	89,69
650,498	90,86
650,733	90,3
650,968	87,51
651,202	90,41
651,437	88,21
651,672	83,81
651,907	82,74
652,142	83,6
652,376	84,68
652,611	86,74
652,846	88,55
653,081	89,57
653,315	86,47
653,55	87,72
653,785	85,66
654,019	86,72
654,254	84,63
654,488	85,38
654,723	81,04
654,958	77,9
655,192	75,99
655,427	73,57
655,661	74,04
655,896	75,64
656,13	77,27
656,364	73,92
656,599	69,83
656,833	76,92
657,068	77,31
657,302	77,59
657,536	75,66
657,771	77,31
658,005	77,91
658,239	80,26
658,474	77,07
658,708	78,65
658,942	80,09
659,176	77,36
659,41	73,99
659,645	73,08
659,879	71,16
660,113	65,58
660,347	64,36
660,581	61,7
660,815	59,66
661,049	59,28
661,283	55,89
661,517	53,33
661,751	52,84
661,985	51,61
662,219	53,59
662,453	51,39
662,687	52,9
662,921	49,58
663,155	48,17
663,389	40,63
663,622	39,37
663,856	41,46
664,09	31,6
664,324	31,44
664,558	30,86
664,791	29,34
665,025	27,36
665,259	26,51
665,492	25,6
665,726	28,9
665,96	27,38
666,193	24,78
666,427	27,4
666,661	26,52
666,894	23,87
667,128	23,77
667,361	27,27
667,595	25,93
667,828	26,47
668,062	26,88
668,295	27,16
668,529	29,56
668,762	31,74
668,995	29,67
669,229	33,43
669,462	34,73
669,695	36,32
669,929	33,8
670,162	34,63
670,395	32,74
670,629	34,96
670,862	37,09
671,095	33,45
671,328	34,47
671,561	29,78
671,795	30,85
672,028	34,29
672,261	35,2
672,494	36,73
672,727	33,9
672,96	35,02
673,193	34,2
673,426	38,94
673,659	39,22
673,892	39,43
674,125	40,94
674,358	39,66
674,591	38,33
674,824	38,58
675,057	36,79
675,29	34,44
675,523	36,53
675,755	33,17
675,988	33,89
676,221	36,71
676,454	34,42
676,687	33,37
676,919	32,55
677,152	32,83
677,385	32,56
677,617	33,03
677,85	34,11
678,083	33,01
678,315	35,32
678,548	33,74
678,78	34,4
679,013	33
679,246	32,22
679,478	32,49
679,711	28,69
679,943	31,08
680,175	27,26
680,408	31,68
680,64	26,52
680,873	27,23
681,105	27,63
681,338	29,44
681,57	27,43
681,802	27,85
682,034	27,06
682,267	30,83
682,499	33,02
682,731	29,9
682,964	30,28
683,196	28,36
683,428	26,96
683,66	26,36
683,892	28,7
684,124	30,33
684,356	32,76
684,589	32,2
684,821	30,91
685,053	31,04
685,285	31,63
685,517	32,8
685,749	31,91
685,981	32,83
686,213	32,1
686,445	32,58
686,676	29,84
686,908	33,03
687,14	31,45
687,372	31,57
687,604	28,73
687,836	31,82
688,068	31,72
688,299	31,6
688,531	30,09
688,763	35,6
688,995	34,56
689,226	36,99
689,458	35,76
689,69	34,38
689,921	33,46
690,153	32,58
690,384	34,03
690,616	32,95
690,848	32,92
691,079	29,98
691,311	26,7
691,542	24,74
691,774	23,98
692,005	27,32
692,237	30,36
692,468	27,55
692,699	26,75
692,931	26,8
693,162	25,1
693,393	24,53
693,625	23,63
693,856	25,04
694,087	24,39
694,319	25,35
694,55	25,76
694,781	24,53
695,012	22,69
695,243	20,2
695,475	19,56
695,706	18,17
695,937	16,94
696,168	15,79
696,399	13,42
696,63	12,29
696,861	13,86
697,092	18,98
697,323	23,05
697,554	23,3
697,785	23,69
698,016	24,88
698,247	22,96
698,478	25,11
698,709	26,2
698,94	27,71
699,171	27,4
699,401	21,89
699,632	24,35
699,863	21,11
700,094	21,62
700,325	24,66
700,555	26,31
700,786	28,01
701,017	27,33
701,247	26,96
701,478	27,14
701,709	26,96
701,939	25,96
702,17	28,73
702,401	31,14
702,631	32,51
702,862	32,62
703,092	27,91
703,323	31,32
703,553	33,24
703,784	33,48
704,014	31,65
704,244	25,81
704,475	22,42
704,705	21,89
704,936	22,08
705,166	21,08
705,396	22,63
705,627	22,01
705,857	21,42
706,087	22,05
706,317	20,33
706,548	20,07
706,778	20
707,008	21,45
707,238	21,27
707,468	19,55
707,698	18,28
707,928	16,81
708,158	15,97
708,389	14,6
708,619	13,16
708,849	11,54
709,079	12,28
709,309	9,37
709,539	6,78
709,768	6,79
709,998	8,51
710,228	8,99
710,458	7,12
710,688	4,88
710,918	6,12
711,148	6,49
711,378	7,84
711,607	7,48
711,837	7,8
712,067	7,64
712,297	8,76
712,526	8,36
712,756	10,13
712,986	8,28
713,215	6,22
713,445	7,03
713,674	7,58
713,904	7,11
714,134	9,47
714,363	9,1
714,593	7,5
714,822	7,44
715,052	8,45
715,281	10
715,511	9,5
715,74	10,31
715,969	9,92
716,199	9,89
716,428	11,28
716,657	12,61
716,887	14,6
717,116	11,71
717,345	13,1
717,575	13,99
717,804	14,18
718,033	13,02
718,262	12,33
718,492	13,34
718,721	15,03
718,95	14,58
719,179	12,87
719,408	13,42
719,637	9,78
719,866	8,31
720,095	9,85
720,324	10,15
720,553	5,06
720,782	4,24
721,011	4,65
721,24	2,77
721,469	1,57
721,698	2,5
721,927	0,77
722,156	-1,43
722,385	-2,16
722,613	1,18
722,842	0,55
723,071	4,08
723,3	4,35
723,529	2,85
723,757	2,38
723,986	-0,12
724,215	0,14
724,443	1,88
724,672	2,69
724,901	3,19
725,129	4,61
725,358	6,79
725,586	3,75
725,815	2,99
726,043	1,79
726,272	0,04
726,5	-0,71
726,729	2,1
726,957	-2,38
727,186	-4,67
727,414	-4,88
727,642	-2,3
727,871	-0,83
728,099	-1,43
728,327	-2,25
728,556	0,26
728,784	0,65
729,012	-0,39
729,241	3
729,469	2,09
729,697	-0,3
729,925	1,53
730,153	-1,12
730,381	-0,62
730,61	-1,5
730,838	-5,12
731,066	-4,76
731,294	-4,2
731,522	-7,85
731,75	-12,02
731,978	-11,74
732,206	-12,94
732,434	-14,36
732,662	-12
732,89	-13,75
733,118	-14,16
733,346	-13,38
733,573	-13,49
733,801	-14,12
734,029	-6,96
734,257	-5,13
734,485	0,18
734,712	1,5
734,94	-0,11
735,168	3,59
735,396	3,65
735,623	2,14
735,851	3,07
736,078	7,39
736,306	6,96
736,534	6,05
736,761	5,68
736,989	2,47
737,216	2,03
737,444	0,57
737,671	2,61
737,899	7,81
738,126	5,81
738,354	5,49
738,581	7,44
738,809	9,11
739,036	6,43
739,263	6,41
739,491	5,66
739,718	4,82
739,945	10,15
740,173	12,42
740,4	13,36
740,627	12,01
740,854	12,91
741,081	9,82
741,309	8,04
741,536	2,35
741,763	1,5
741,99	3,14
742,217	1,89
742,444	2,26
742,671	4,48
742,898	5,08
743,125	0,98
743,352	-3,07
743,579	-2,02
743,806	-3,12
744,033	-0,45
744,26	0,51
744,487	-0,21
744,714	0,02
744,941	-0,27
745,167	5,09
745,394	4,21
745,621	3,64
745,848	4,18
746,075	6,54
746,301	9,7
746,528	12,68
746,755	11,23
746,981	8,78
747,208	11
747,435	13,25
747,661	13,66
747,888	15,7
748,114	13,47
748,341	16,15
748,567	18,13
748,794	15,37
749,02	14,21
749,247	10,74
749,473	11,34
749,7	10,29
749,926	8,94
750,152	13,63
750,379	15,83
750,605	15,56
750,831	16,91
751,058	16,15
751,284	14,24
751,51	17,54
751,737	18,96
751,963	17,65
752,189	14,85
752,415	15,7
752,641	15,95
752,867	14,33
753,094	14,04
753,32	13,19
753,546	11,63
753,772	14,16
753,998	12,58
754,224	10,88
754,45	10,07
754,676	9,95
754,902	7,55
755,128	9,43
755,354	8,82
755,579	10,24
755,805	12,85
756,031	12
756,257	11,74
756,483	11,42
756,709	10,18
756,934	9,72
757,16	8,07
757,386	8,53
757,612	6,41
757,837	4,75
758,063	7,92
758,289	11,52
758,514	9,04
758,74	3,67
758,965	-0,02
759,191	1,95
759,416	2,12
759,642	2,9
759,868	4,06
760,093	4,68
760,318	2,79
760,544	1,86
760,769	0,06
760,995	-0,37
761,22	-0,79
761,445	0,27
761,671	1,95
761,896	5,09
762,121	5,8
762,347	4,56
762,572	0,39
762,797	-0,41
763,022	1,28
763,248	5,91
763,473	5,74
763,698	6,04
763,923	6,42
764,148	4,38
764,373	2,24
764,598	3,95
764,823	6,27
765,048	1,58
765,273	-2,19
765,498	-2,38
765,723	-0,23
765,948	2,71
766,173	2,11
766,398	2,68
766,623	0,04
766,848	0,88
767,073	0,04
767,298	0,23
767,522	0,98
767,747	3,36
767,972	3,32
768,197	3,56
768,421	1,91
768,646	-0,72
768,871	-3,61
769,095	-4,03
769,32	-3,49
769,545	-3,01
769,769	-1,97
769,994	-2,12
770,218	-5,52
770,443	-4,05
770,667	-4,45
770,892	-3,34
771,116	-3,61
771,341	-1,08
771,565	0,12
771,79	1,2
772,014	0,99
772,238	-0,14
772,463	2,17
772,687	2,64
772,911	1,73
773,136	-2,03
773,36	-2,21
773,584	0,8
773,808	-1,37
774,033	-0,77
774,257	-0,41
774,481	-1,95
774,705	-3,29
774,929	-2,6
775,153	-2,86
775,377	0,04
775,602	-0,06
775,826	0,86
776,05	1,22
776,274	2,36
776,498	3,31
776,722	2,52
776,945	2,69
777,169	2,34
777,393	0,57
777,617	0,12
777,841	1,1
778,065	3,38
778,289	2,42
778,512	0,69
778,736	-0,64
778,96	-0,32
779,184	4,33
779,407	2,12
779,631	2,1
779,855	0,38
780,078	2,16
780,302	1,15
780,526	-1,5
780,749	-0,93
780,973	0,36
781,196	-0,19
781,42	-0,82
781,643	-0,56
781,867	0,46
782,09	-1,63
782,314	-2,99
782,537	-4,56
782,76	-5,24
782,984	-3,51
783,207	-4,83
783,431	-3,82
783,654	-3,78
783,877	-5,24
784,1	-4,64
784,324	-5,55
784,547	-5,2
784,77	-9,23
784,993	-9,39
785,216	-11,57
785,44	-11,99
785,663	-12,35
785,886	-10,18
786,109	-12,07
786,332	-12,64
786,555	-11,18
786,778	-7,75
787,001	-7,01
787,224	-3,73
787,447	-3,29
787,67	-2,28
787,893	-2,21
788,116	-0,43
788,339	0,81
788,561	-0,09
788,784	-4,24
789,007	-5,08
789,23	-7,37
789,453	-5,79
789,675	-6,96
789,898	-9,37
790,121	-11,37
790,344	-12,43
790,566	-11,59
790,789	-11,39
791,012	-11,56
791,234	-8,78
791,457	-6,62
791,679	-5,89
791,902	-6,76
792,124	-4,93
792,347	-4,49
792,569	-5,41
792,792	-9,22
793,014	-6,05
793,237	-2,92
793,459	-3,66
793,681	-3,42
793,904	-4,42
794,126	-7,82
794,348	-8,03
794,571	-7,71
794,793	-8,92
795,015	-10,03
795,237	-10,19
795,46	-9,93
795,682	-10,17
795,904	-8,18
796,126	-8,81
796,348	-9,93
796,57	-6,51
796,792	-4,97
797,014	-1,79
797,237	-0,13
797,459	-0,3
797,681	1,53
797,903	0,86
798,124	0,93
798,346	13,39
798,568	15,93
798,79	19,67
799,012	20,57
799,234	20,77
799,456	22,31
799,678	25,47
799,899	22,58
800,121	19,73
800,343	19,96
800,565	20,11
800,786	19,9
801,008	22,58
801,23	22,99
801,451	24,17
801,673	21,57
801,895	21,15
802,116	22,74
802,338	23,12
802,559	24,63
802,781	24,16
803,002	27,35
803,224	29,09
803,445	25,07
803,667	26,58
803,888	26,32
804,109	26,3
804,331	26,43
804,552	25,47
804,773	27,28
804,995	24,43
805,216	9,75
805,437	6,69
805,658	3,5
805,88	2,82
806,101	3,31
806,322	2,76
806,543	1,05
806,764	-0,6
806,985	0,25
807,207	-0,05
807,428	-1,13
807,649	-3,86
807,87	-6,62
808,091	-6,36
808,312	-5,8
808,533	0,24
808,754	1,44
808,975	-0,54
809,195	2,71
809,416	3,72
809,637	2,46
809,858	-0,34
810,079	-2,01
810,3	0,24
810,52	-1,49
810,741	-4,66
810,962	-7,8
811,183	-7,96
811,403	-8,41
811,624	-10,07
811,845	-8,6
812,065	-5,99
812,286	-5,07
812,506	-4,9
812,727	-6,21
812,948	-4,38
813,168	-2,99
813,389	-2,79
813,609	-0,93
813,83	-1,15
814,05	-1,56
814,27	-0,71
814,491	4,4
814,711	3,6
814,931	1,07
815,152	0,76
815,372	-2,28
815,592	-3,63
815,813	-4,48
816,033	-7,06
816,253	-6,08
816,473	-6,62
816,694	-4,97
816,914	-2,97
817,134	-2,2
817,354	-4,54
817,574	-2,42
817,794	-1,74
818,014	-2,4
818,234	-2,01
818,454	-2,64
818,674	-4,81
818,894	-8,97
819,114	-5,25
819,334	-5,53
819,554	-3,43
819,774	-2,78
819,994	-5,25
820,214	-7
820,433	-7,92
820,653	-8,07
820,873	-6,36
821,093	-6,85
821,312	-9,46
821,532	-6,49
821,752	-3,7
821,972	-6,11
822,191	-4,41
822,411	-5,34
822,63	-4,7
822,85	-4,9
823,07	-7,89
823,289	-7,15
823,509	-8,61
823,728	-7,41
823,948	-9,27
824,167	-10,1
824,387	-11,72
824,606	-9,45
824,825	-11,19
825,045	-10,82
825,264	-10,97
825,483	-8,26
825,703	-5,23
825,922	-8,96
826,141	-11,13
826,361	-10,69
826,58	-15,17
826,799	-15,42
827,018	-13,31
827,237	-13,12
827,456	-11,27
827,676	-10,99
827,895	-9,59
828,114	-8,98
828,333	-8,9
828,552	-9,03
828,771	-7,14
828,99	-10,68
829,209	-10,06
829,428	-7,94
829,647	-7,57
829,866	-5,6
830,084	-5,24
830,303	-6,1
830,522	-6,52
830,741	-5,83
830,96	-4,89
831,179	-3,82
831,397	-5,57
831,616	-3,63
831,835	-3,17
832,053	-2,08
832,272	-1,5
832,491	-2,04
832,709	-3,16
832,928	-1,09
833,147	-1,91
833,365	0,42
833,584	3,36
833,802	6,1
834,021	6,53
834,239	7,06
834,458	5,56
834,676	2,04
834,894	0,98
835,113	-1,13
835,331	-1,52
835,55	-2,65
835,768	-0,32
835,986	0,79
836,204	-1,31
836,423	0,12
836,641	-1,42
836,859	-1,88
837,077	-1,32
837,296	-1,99
837,514	-2,04
837,732	-2,91
837,95	-3,74
838,168	-1,9
838,386	-3,05
838,604	-1,06
838,822	-1
839,04	-2,48
839,258	-0,34
839,476	3,26
839,694	2,77
839,912	1,2
840,13	0,16
840,348	2,17
840,566	-1,32
840,783	0,46
841,001	-1,07
841,219	-0,35
841,437	0,63
841,655	2,67
841,872	2,76
842,09	1,61
842,308	3,07
842,525	3,17
842,743	4,75
842,961	5,38
843,178	2,95
843,396	7,49
843,613	8,02
843,831	9,23
844,048	9,27
844,266	8,9
844,483	8,88
844,701	7,2
844,918	6,59
845,136	6,31
845,353	3,46
845,57	4,85
845,788	7,88
846,005	4,34
846,222	2,57
846,439	5,02
846,657	7,41
846,874	7,2
847,091	4,65
847,308	6,77
847,526	4,54
847,743	4,11
847,96	1,9
848,177	2,67
848,394	2,05
848,611	2,09
848,828	2,26
849,045	0,43
849,262	0,03
849,479	-0,69
849,696	-2,9
849,913	-5,33
850,13	-10,33
850,347	-7,57
850,564	-7,52
850,78	-8,61
850,997	-10,59
851,214	-9,34
851,431	-8,62
851,647	-9,91
851,864	-10,14
852,081	-8,23
852,298	-12,36
852,514	-14,08
852,731	-12,3
852,948	-11,43
853,164	-11,62
853,381	-13,49
853,597	-13,02
853,814	-14,44
854,03	-18,74
854,247	-16,53
854,463	-16,71
854,68	-16,79
854,896	-16,17
855,113	-15,85
855,329	-14,69
855,545	-13,27
855,762	-12,9
855,978	-16,7
856,194	-18,66
856,411	-15,79
856,627	-13,83
856,843	-12,8
857,059	-11,06
857,275	-13,34
857,492	-12,31
857,708	-8,61
857,924	-7,26
858,14	-3,74
858,356	-4,39
858,572	-3,85
858,788	-6,34
859,004	-5,05
859,22	-6,16
859,436	-5,27
859,652	-6,29
859,868	-8,15
860,084	-9,15
860,3	-9,34
860,516	-10,29
860,731	-7,51
860,947	-10,51
861,163	-9,17
861,379	-8,45
861,595	-7,9
861,81	-7,84
862,026	-7,69
862,242	-7,04
862,457	-7,48
862,673	-4,42
862,889	-4,07
863,104	-3,7
863,32	-3,44
863,535	-2,38
863,751	-7,33
863,966	-3,54
864,182	-2,89
864,397	-5,59
864,613	-5,81
864,828	-7,22
865,044	-6,32
865,259	-3,56
865,474	-2,55
865,69	-1,2
865,905	-1,08
866,12	-2,82
866,336	-2,79
866,551	-0,76
866,766	0,27
866,981	-0,5
867,196	-0,11
867,412	-0,63
867,627	0,24
867,842	-0,85
868,057	-0,73
868,272	-1,05
868,487	-1,9
868,702	-3,9
868,917	-4,63
869,132	-3,04
869,347	-2,6
869,562	-2,91
869,777	-3,79
869,992	-4,32
870,207	-5,35
870,422	-6,89
870,636	-8,82
870,851	-9,96
871,066	-9,51
871,281	-11,27
871,495	-12,44
871,71	-9,44
871,925	-12,91
872,14	-15,13
872,354	-16,91
872,569	-17,54
872,783	-16,02
872,998	-15,21
873,213	-16,81
873,427	-14,21
873,642	-12,57
873,856	-12,73
874,071	-12,55
874,285	-13,2
874,5	-13,83
874,714	-14,91
874,928	-16,05
875,143	-16,87
875,357	-16,46
875,571	-17,99
875,786	-17,74
876	-15,34
876,214	-14,62
876,429	-17,52
876,643	-17,01
876,857	-15,45
877,071	-13,47
877,285	-14,3
877,499	-16,86
877,714	-14,47
877,928	-11,88
878,142	-13,8
878,356	-16,07
878,57	-14,96
878,784	-13,11
878,998	-12,88
879,212	-11,56
879,426	-14,86
879,639	-13,72
879,853	-15,19
880,067	-16,87
880,281	-18,95
880,495	-17,09
880,709	-15,12
880,922	-15,15
881,136	-14,06
881,35	-11,04
881,564	-11,31
881,777	-12,75
881,991	-11,39
882,205	-7,96
882,418	-8,69
882,632	-11,68
882,845	-12,1
883,059	-9,95
883,273	-9,61
883,486	-11,13
883,7	-8,45
883,913	-7,99
884,126	-6,84
884,34	-9,29
884,553	-12,7
884,767	-8,4
884,98	-8,68
885,193	-9,58
885,407	-10,73
885,62	-8,34
885,833	-7,45
886,046	-4,99
886,26	-6,39
886,473	-6,24
886,686	-5,49
886,899	-3,65
887,112	-5,01
887,326	-7,37
887,539	-5,4
887,752	-4,11
887,965	-7,14
888,178	-5,42
888,391	-4,4
888,604	-4,03
888,817	-6,08
889,03	-4,9
889,243	-6,07
889,455	-7,88
889,668	-6,91
889,881	-4,05
890,094	-4,69
890,307	-7,53
890,52	-6,3
890,732	-4,35
890,945	-5,85
891,158	-5,06
891,37	-6,03
891,583	-7,1
891,796	-5,16
892,008	-5,64
892,221	-7,1
892,434	-11,48
892,646	-11,48
892,859	-13,12
893,071	-10,87
893,284	-10,7
893,496	-11,03
893,709	-10,15
893,921	-8,15
894,133	-9,35
894,346	-10,18
894,558	-10,39
894,771	-11,04
894,983	-9,05
895,195	-9,23
895,407	-9,22
895,62	-11,73
895,832	-9,85
896,044	-8,07
896,256	-9,3
896,468	-10,33
896,681	-8,84
896,893	-8,1
897,105	-8,36
897,317	-9,04
897,529	-6,03
897,741	-4,74
897,953	-2,58
898,165	-2,68
898,377	-4,1
898,589	-3,09
898,801	-4,13
899,013	0,26
899,224	2,31
899,436	5,98
899,648	4,44
899,86	2,31
900,072	5,28
900,283	5,82
900,495	6,04
900,707	6,59
900,919	3,67
901,13	6,24
901,342	3,59
901,554	2,98
901,765	3,52
901,977	1,69
902,188	0,33
902,4	-0,92
902,611	-2,57
902,823	-4,12
903,034	-6,45
903,246	-8,87
903,457	-9,3
903,669	-11,44
903,88	-12,05
904,091	-13,39
904,303	-13,46
904,514	-15,34
904,725	-14,5
904,936	-14,25
905,148	-13,27
905,359	-10,94
905,57	-11,32
905,781	-13,64
905,992	-16,3
906,204	-15,25
906,415	-13,83
906,626	-15,73
906,837	-13,76
907,048	-14,16
907,259	-13,94
907,47	-14,43
907,681	-17,4
907,892	-13,21
908,103	-14,46
908,314	-16,29
908,525	-14,31
908,735	-12,16
908,946	-14,05
909,157	-14,43
909,368	-12,63
909,579	-12,05
909,789	-13,29
910	-13,31
910,211	-10,3
910,421	-10,55
910,632	-8,61
910,843	-11,27
911,053	-9,26
911,264	-5,78
911,475	-5,41
911,685	-6,38
911,896	-5,41
912,106	-5,72
912,317	-7,08
912,527	-3,83
912,737	-4,97
912,948	-4,79
913,158	-5,92
913,369	-8,76
913,579	-7,08
913,789	-7,15
914	-2,98
914,21	-1,5
914,42	-3,18
914,63	-2,6
914,841	-2,47
915,051	-0,62
915,261	-1,21
915,471	3,21
915,681	4,53
915,891	6,11
916,101	4,56
916,311	5,95
916,521	5,22
916,731	6,41
916,941	8,84
917,151	7,16
917,361	10,69
917,571	6,93
917,781	4,53
917,991	2,33
918,201	3,26
918,411	-0,53
918,621	-0,95
918,83	0,17
919,04	-2,3
919,25	-0,16
919,46	1,52
919,669	0,44
919,879	-0,49
920,089	-1,75
920,298	-4
920,508	-5,2
920,717	-4,6
920,927	-5,73
921,136	-5,31
921,346	-6,53
921,555	-9,3
921,765	-8,49
921,974	-11,78
922,184	-14,77
922,393	-16,24
922,603	-16,67
922,812	-13,31
923,021	-14,1
923,23	-16,89
923,44	-20,05
923,649	-20,84
923,858	-21,48
924,067	-21,44
924,277	-22,62
924,486	-19,93
924,695	-21,2
924,904	-18,33
925,113	-18,13
925,322	-16,61
925,531	-16,36
925,74	-18,65
925,949	-20,56
926,158	-18,38
926,367	-17,32
926,576	-16,64
926,785	-15,91
926,994	-16,71
927,203	-16,42
927,412	-16,65
927,621	-16,76
927,83	-13,9
928,038	-14,57
928,247	-15,23
928,456	-14,27
928,665	-11,5
928,873	-9,07
929,082	-5,37
929,291	-5,46
929,499	-2,49
929,708	-3,57
929,916	-2,63
930,125	-3,17
930,333	-3,21
930,542	-0,04
930,75	2,43
930,959	2,41
931,167	3,73
931,376	1,1
931,584	2,5
931,793	1,93
932,001	0,87
932,209	-0,3
932,418	-2,57
932,626	-4,42
932,834	-6,49
933,042	-9,98
933,251	-10,22
933,459	-9,86
933,667	-10,4
933,875	-10,51
934,083	-10,38
934,291	-10,25
934,499	-8,14
934,707	-8,55
934,915	-8,6
935,123	-6,71
935,331	-8,97
935,539	-12,45
935,747	-14,25
935,955	-15,35
936,163	-13,7
936,371	-13,7
936,579	-12,2
936,787	-13,44
936,995	-15,79
937,202	-19,3
937,41	-20,29
937,618	-21,77
937,826	-20,12
938,033	-24,1
938,241	-26,02
938,449	-24,23
938,656	-22,2
938,864	-21,2
939,071	-20,39
939,279	-17,68
939,486	-15,24
939,694	-15,38
939,901	-17,54
940,109	-17,71
940,316	-17,01
940,524	-16,66
940,731	-18,49
940,939	-18,23
941,146	-18,57
941,353	-19,09
941,561	-20,19
941,768	-20,78
941,975	-18
942,182	-19,19
942,39	-18,1
942,597	-15,68
942,804	-15,31
943,011	-15,64
943,218	-14,46
943,425	-14,53
943,632	-13,51
943,839	-14,01
944,046	-14,6
944,253	-13,88
944,46	-14,32
944,667	-10,02
944,874	-10,31
945,081	-8,29
945,288	-6,29
945,495	-5,26
945,702	-5,06
945,909	-7,5
946,115	-6,66
946,322	-5,99
946,529	-6,69
946,736	-6,46
946,942	-6,31
947,149	-5,85
947,356	-7,48
947,562	-8,74
947,769	-9,04
947,976	-10,33
948,182	-8,89
948,389	-11,17
948,595	-8,4
948,802	-8,52
949,008	-10,26
949,215	-9,23
949,421	-10,19
949,628	-11,5
949,834	-10,68
950,04	-11,1
950,247	-6,26
950,453	-4,16
950,659	-6,12
950,865	-3,82
951,072	-9,21
951,278	-6,03
951,484	-7,96
951,69	-12,35
951,896	-12,5
952,103	-12,64
952,309	-10,28
952,515	-9,64
952,721	-7,37
952,927	-6,25
953,133	-7,33
953,339	-8,56
953,545	-8,93
953,751	-7,99
953,957	-4,57
954,163	-6,31
954,369	-5,89
954,574	-6,88
954,78	-5,5
954,986	-5,4
955,192	-4,1
955,398	-5,62
955,603	-8,18
955,809	-6,07
956,015	-4,59
956,22	-4,16
956,426	-2,15
956,632	-7,34
956,837	-8,21
957,043	-7,3
957,248	-5,99
957,454	-5,53
957,66	-9,07
957,865	-9,45
958,07	-7,18
958,276	-9,41
958,481	-12,65
958,687	-14,66
958,892	-14,54
959,097	-15,17
959,303	-15,32
959,508	-14,38
959,713	-14,18
959,919	-15,09
960,124	-15,58
960,329	-15,06
960,534	-11,26
960,739	-9,93
960,945	-8,14
961,15	-10,37
961,355	-12,36
961,56	-16,24
961,765	-16,58
961,97	-16,37
962,175	-14,71
962,38	-17,49
962,585	-18,07
962,79	-19,26
962,995	-19,25
963,2	-20,4
963,404	-21,17
963,609	-24,34
963,814	-24,47
964,019	-26,72
964,224	-28,81
964,428	-26,44
964,633	-24,73
964,838	-22,56
965,042	-22,06
965,247	-24,24
965,452	-23,73
965,656	-21,78
965,861	-22,37
966,066	-23,31
966,27	-20,23
966,475	-16,7
966,679	-20,93
966,884	-20,93
967,088	-22,59
967,292	-23,18
967,497	-20,92
967,701	-20,95
967,906	-19,33
968,11	-15,87
968,314	-11,85
968,518	-13,98
968,723	-12,16
968,927	-10,73
969,131	-10,6
969,335	-8,85
969,539	-8,23
969,744	-7,3
969,948	-3
970,152	-0,42
970,356	0,17
970,56	0,71
970,764	-1,39
970,968	0,24
971,172	1,24
971,376	2,21
971,58	4,16
971,784	3,08
971,988	0,21
972,192	3,37
972,395	2,76
972,599	0,18
972,803	-2,42
973,007	-1,36
973,21	-0,53
973,414	-1,47
973,618	-2,06
973,822	-1,97
974,025	-1,72
974,229	-1,98
974,432	-6,71
974,636	-8,81
974,84	-6,51
975,043	-6,15
975,247	-7,8
975,45	-7,94
975,654	-4,82
975,857	-3,13
976,06	-3,81
976,264	-6,89
976,467	-5,2
976,671	-4,66
976,874	-2,16
977,077	-3,9
977,28	-4,99
977,484	-7,22
977,687	-7,81
977,89	-6,32
978,093	-5,64
978,297	-3,39
978,5	-6,19
978,703	-4,88
978,906	-4,17
979,109	-4,16
979,312	-2,28
979,515	-3,97
979,718	-3,23
979,921	-3,45
980,124	-5,25
980,327	-6,21
980,53	-6,12
980,733	-3,35
980,936	-2,05
981,138	-5,27
981,341	-4,27
981,544	-3,75
981,747	-5,04
981,949	-7,82
982,152	-6,81
982,355	-6,49
982,558	-3,44
982,76	-7,43
982,963	-7,51
983,165	-9,05
983,368	-6,86
983,571	-6,97
983,773	-2,87
983,976	-2,47
984,178	-1,25
984,381	-1,24
984,583	-4,54
984,785	-5,41
984,988	-3,14
985,19	-1,9
985,392	-3,05
985,595	-6,2
985,797	-5,74
985,999	-3,9
986,202	-2,13
986,404	-3,6
986,606	0,64
986,808	-0,01
987,01	1,02
987,212	0,22
987,415	-0,31
987,617	-1,17
987,819	-1,94
988,021	-0,5
988,223	-2,64
988,425	-3,82
988,627	-2,62
988,829	-6,38
989,031	-4,62
989,232	-4,88
989,434	-2,57
989,636	-3,61
989,838	-3,98
990,04	-3,65
990,242	-5,21
990,443	-9,17
990,645	-8,06
990,847	-4,94
991,048	-3,39
991,25	-5,9
991,452	-6,23
991,653	-7,04
991,855	-5,79
992,057	-5,53
992,258	-4,53
992,46	-6,19
992,661	-3,58
992,863	-7,49
993,064	-6,75
993,265	-8,16
993,467	-9,96
993,668	-7,37
993,87	-6,86
994,071	-7,81
994,272	-7,86
994,473	-6,26
994,675	-6,3
994,876	-5,97
995,077	-5,89
995,278	-5,71
995,48	-4,87
995,681	-7,34
995,882	-5,36
996,083	-6,01
996,284	-10,21
996,485	-9,12
996,686	-10,33
996,887	-11,17
997,088	-15,05
997,289	-17,26
997,49	-16,71
997,691	-17,1
997,892	-16,59
998,092	-11,55
998,293	-12,8
998,494	-12,66
998,695	-12,08
998,896	-10,67
999,096	-9,52
999,297	-9,71
999,498	-10,92
999,698	-12,81
999,899	-14,77
1000,1	-17,62
1000,3	-15,87
1000,501	-15,53
1000,701	-14,44
1000,902	-14,47
1001,102	-15,48
1001,303	-13,55
1001,503	-15,24
1001,704	-15,28
1001,904	-15,24
1002,105	-15,58
1002,305	-15,02
1002,505	-15,83
1002,706	-16,66
1002,906	-16,04
1003,106	-17,72
1003,306	-15,69
1003,507	-11,49
1003,707	-10,63
1003,907	-7,78
1004,107	-6,95
1004,307	-9,74
1004,507	-8,88
1004,707	-9,45
1004,907	-11,24
1005,107	-11,98
1005,308	-11,56
1005,507	-11,69
1005,707	-8,76
1005,907	-9,26
1006,107	-7,7
1006,307	-5,74
1006,507	-6,62
1006,707	-6,86
1006,907	-6,54
1007,106	-8,32
1007,306	-8,33
1007,506	-8,66
1007,706	-8,15
1007,905	-10,01
1008,105	-9,85
1008,305	-11,13
1008,504	-8,99
1008,704	-3,79
1008,903	-2,15
1009,103	-0,48
1009,303	-0,46
1009,502	-0,05
1009,702	-2
1009,901	-2,96
1010,1	-7,18
1010,3	-5,43
1010,499	-8,16
1010,699	-8,37
1010,898	-10,83
1011,097	-9,65
1011,296	-9,52
1011,496	-9,78
1011,695	-10,98
1011,894	-14,15
1012,093	-9,59
1012,293	-10,75
1012,492	-11,03
1012,691	-11,85
1012,89	-12,15
1013,089	-16,34
1013,288	-14,4
1013,487	-13,63
1013,686	-13,95
1013,885	-16,28
1014,084	-15,05
1014,283	-15,73
1014,482	-15,99
1014,681	-17,94
1014,88	-22,67
1015,078	-23,31
1015,277	-25,39
1015,476	-25,81
1015,675	-25,93
1015,873	-25,78
1016,072	-26,48
1016,271	-23,48
1016,47	-27,14
1016,668	-23,58
1016,867	-23,53
1017,065	-24,23
1017,264	-26,32
1017,463	-26,09
1017,661	-26,66
1017,86	-26,54
1018,058	-23,88
1018,256	-25,47
1018,455	-26,2
1018,653	-25,1
1018,852	-23,54
1019,05	-24,89
1019,248	-23,58
1019,447	-24,07
1019,645	-24,71
1019,843	-25,74
1020,041	-22,8
1020,24	-22,95
1020,438	-18,35
1020,636	-19,07
1020,834	-20,86
1021,032	-18,27
1021,23	-18,42
1021,428	-15,7
1021,626	-12,23
1021,824	-12,92
1022,022	-13,93
1022,22	-12,55
1022,418	-12,16
1022,616	-12,79
1022,814	-14,73
1023,012	-15,78
1023,21	-13,27
1023,408	-12,48
1023,606	-13,61
1023,803	-8,8
1024,001	-7,52
1024,199	-11,77
1024,397	-10,6
1024,594	-10,09
1024,792	-11,88
1024,99	-11,31
1025,187	-10,22
1025,385	-9,11
1025,582	-10,23
1025,78	-10,35
1025,977	-9,26
1026,175	-9,83
1026,372	-8,97
1026,57	-12,24
1026,767	-8,73
1026,965	-7,35
1027,162	-7,04
1027,359	-7,14
1027,557	-7,8
1027,754	-11,83
1027,951	-11,62
1028,148	-9,08
1028,346	-11,42
1028,543	-12,74
1028,74	-12,54
1028,937	-15,11
1029,134	-14,58
1029,331	-16,46
1029,528	-15,77
1029,725	-15,41
1029,923	-18,29
1030,12	-15,56
1030,317	-13,39
1030,513	-12,62
1030,71	-12,02
1030,907	-8,91
1031,104	-10,5
1031,301	-12,43
1031,498	-10,55
1031,695	-9,27
1031,892	-9,8
1032,088	-10
1032,285	-10,61
1032,482	-12,32
1032,678	-15,01
1032,875	-18,27
1033,072	-18,73
1033,268	-18,66
1033,465	-19,17
1033,662	-21,09
1033,858	-20,4
1034,055	-20,99
1034,251	-18,86
1034,448	-18,14
1034,644	-18,34
1034,84	-14,42
1035,037	-11,41
1035,233	-12,9
1035,43	-11,27
1035,626	-11,03
1035,822	-11,96
1036,019	-13,35
1036,215	-17,85
1036,411	-17,91
1036,607	-19,3
1036,803	-21,24
1037	-23,77
1037,196	-23,97
1037,392	-24,11
1037,588	-26,58
1037,784	-25,59
1037,98	-25,59
1038,176	-25,13
1038,372	-26,02
1038,568	-24,49
1038,764	-22,25
1038,96	-19,77
1039,156	-21,52
1039,352	-22,79
1039,547	-21,05
1039,743	-19,53
1039,939	-16,67
1040,135	-16,74
1040,331	-20,22
1040,526	-17,91
1040,722	-19,41
1040,918	-22,37
1041,113	-25,32
1041,309	-25,28
1041,505	-27,09
1041,7	-26,93
1041,896	-25,92
1042,091	-26,13
1042,287	-24,1
1042,482	-23,68
1042,678	-24,16
1042,873	-22,92
1043,069	-22,77
1043,264	-22,53
1043,459	-20,46
1043,655	-19,41
1043,85	-21,51
1044,045	-20,96
1044,24	-21,91
1044,436	-19,38
1044,631	-20,22
1044,826	-20,53
1045,021	-22,68
1045,216	-19,24
