Data from led_4000k_2_FLMT021711__9__17-33-24-057.txt Node

Date: Tue Nov 05 17:33:24 CET 2024
User: Etudiants TP
Spectrometer: FLMT02171
Trigger mode: 0
Integration Time (sec): 1,000000E-1
Scans to average: 5
Electric dark correction enabled: true
Nonlinearity correction enabled: true
Boxcar width: 15
XAxis mode: Wavelengths
Number of Pixels in Spectrum: 3648
>>>>>Begin Spectral Data<<<<<
194,658	-70,09
194,923	-66,12
195,188	-59,55
195,453	-57,48
195,717	-52,06
195,982	-51,79
196,247	-49,82
196,512	-51,16
196,777	-48,86
197,042	-46,26
197,307	-45,61
197,572	-39,86
197,837	-39,35
198,101	-35,41
198,366	-32,69
198,631	-30,48
198,896	-24,02
199,161	-15,8
199,425	-7,96
199,69	1,5
199,955	0,63
200,22	-2,24
200,484	-3,69
200,749	-3,68
201,014	-1,88
201,278	-1,31
201,543	0,53
201,807	-0,47
202,072	1,26
202,337	2,08
202,601	0,83
202,866	-1,84
203,13	-2,35
203,395	-4,52
203,659	-5,06
203,924	-6,39
204,189	-4
204,453	-2,12
204,717	0,21
204,982	1,21
205,246	2,08
205,511	3,64
205,775	1,86
206,04	6,1
206,304	4,04
206,568	5,66
206,833	4,97
207,097	5,51
207,361	6,99
207,626	11,69
207,89	13,49
208,154	13,74
208,419	16,73
208,683	18,39
208,947	21,2
209,211	20,41
209,476	20,59
209,74	21,2
210,004	21,94
210,268	22,12
210,532	24,72
210,796	25,1
211,061	27,1
211,325	28,04
211,589	27,37
211,853	29,24
212,117	30,02
212,381	29,9
212,645	30,19
212,909	29,25
213,173	26,62
213,437	27,1
213,701	27,65
213,965	28,29
214,229	24,22
214,493	25,1
214,757	24,28
215,021	25,15
215,285	30,68
215,549	33,31
215,813	29,44
216,077	28,89
216,34	31,05
216,604	28,37
216,868	27,47
217,132	28,14
217,396	27,14
217,659	28,42
217,923	22,99
218,187	23,68
218,451	23,62
218,714	20,18
218,978	21,19
219,242	22,57
219,505	24,19
219,769	26,06
220,033	25,55
220,296	26,07
220,56	26,64
220,824	23,97
221,087	25,15
221,351	25,92
221,614	25,3
221,878	26,26
222,142	24,27
222,405	23,88
222,669	25,81
222,932	21,2
223,196	17,87
223,459	13,21
223,722	14,14
223,986	13,25
224,249	10,96
224,513	10,84
224,776	12,48
225,04	14,17
225,303	12,09
225,566	12,46
225,83	12,26
226,093	16,69
226,356	13,51
226,62	11,56
226,883	13,86
227,146	13,28
227,409	13,04
227,673	10,28
227,936	8,9
228,199	9,13
228,462	7
228,725	6,17
228,989	6,03
229,252	6,63
229,515	11,28
229,778	9,91
230,041	8,58
230,304	6,01
230,567	7,55
230,83	4,75
231,093	7,96
231,356	8,8
231,619	15,01
231,882	12,77
232,145	15,45
232,408	14,66
232,671	15,75
232,934	14,3
233,197	11,52
233,46	10,9
233,723	11,93
233,986	10,3
234,249	7,44
234,512	9,28
234,775	12,98
235,037	11,43
235,3	12,13
235,563	12,18
235,826	13,44
236,089	15,73
236,351	14,72
236,614	17,09
236,877	16,83
237,14	18,65
237,402	18,68
237,665	11,57
237,928	11,12
238,19	9,58
238,453	12,3
238,716	11,33
238,978	11,33
239,241	9,87
239,503	13,36
239,766	9,12
240,029	6,89
240,291	9,87
240,554	11,27
240,816	8,6
241,079	10,85
241,341	9,22
241,604	8,86
241,866	6,23
242,129	8,18
242,391	10,77
242,653	11
242,916	10,21
243,178	10,28
243,441	10,89
243,703	9,94
243,965	8,02
244,228	8,11
244,49	8,73
244,752	9,48
245,015	11,11
245,277	14,07
245,539	12,14
245,801	15,25
246,064	14,39
246,326	13,37
246,588	14,14
246,85	17,46
247,112	18,52
247,374	21,32
247,637	22,93
247,899	22,05
248,161	23,29
248,423	18,01
248,685	18,01
248,947	18,82
249,209	18,09
249,471	21,85
249,733	22,8
249,995	21,89
250,257	21,39
250,519	19,97
250,781	21,69
251,043	19,74
251,305	21,24
251,567	23,41
251,829	23,51
252,091	23,29
252,353	19,85
252,615	19,01
252,876	16,97
253,138	15,12
253,4	10,31
253,662	11,56
253,924	12,87
254,185	15,35
254,447	15,95
254,709	16,36
254,971	16,21
255,232	18,88
255,494	15,99
255,756	12,75
256,017	14,81
256,279	14,4
256,541	14,5
256,802	13,83
257,064	14,83
257,326	12,9
257,587	12,31
257,849	13,27
258,11	17,45
258,372	18,22
258,633	18,83
258,895	18,17
259,156	17,26
259,418	15,76
259,679	10,24
259,941	9,05
260,202	12,1
260,464	13,61
260,725	13,51
260,987	12,6
261,248	11,18
261,509	12,35
261,771	12,27
262,032	13,5
262,293	12,76
262,555	13,06
262,816	10,29
263,077	8,01
263,338	3,95
263,6	5,34
263,861	5,82
264,122	3,56
264,383	6,15
264,645	7,67
264,906	6,08
265,167	5,4
265,428	5,37
265,689	6,53
265,95	3,59
266,211	4,32
266,473	3,38
266,734	0,25
266,995	-3,21
267,256	-1,53
267,517	0,2
267,778	5,43
268,039	6,41
268,3	4,9
268,561	2,46
268,822	5,85
269,083	4,42
269,344	3,64
269,604	2,38
269,865	2,16
270,126	-1,38
270,387	0,38
270,648	1,19
270,909	1,17
271,17	-0,68
271,43	-3,68
271,691	-5,61
271,952	-7,38
272,213	-4,62
272,473	-7,31
272,734	-5,35
272,995	-2,97
273,256	-1,89
273,516	0,66
273,777	-2,3
274,038	-0,11
274,298	-3,45
274,559	-3,59
274,82	0,85
275,08	3,13
275,341	4,22
275,601	3,24
275,862	-0,9
276,122	-1,05
276,383	-1,2
276,643	1,61
276,904	-0,03
277,164	3,88
277,425	4,99
277,685	9,65
277,946	9,22
278,206	10,45
278,467	11,2
278,727	11,19
278,987	11,21
279,248	12,1
279,508	15,46
279,768	17,24
280,029	19,85
280,289	16,2
280,549	15,95
280,81	15,05
281,07	13,5
281,33	15,1
281,59	13,4
281,851	16,28
282,111	16,29
282,371	16,02
282,631	17,79
282,891	17,57
283,151	16,27
283,412	13,25
283,672	13,58
283,932	15,06
284,192	16,59
284,452	15,34
284,712	12,2
284,972	11,46
285,232	8,62
285,492	10,45
285,752	6,04
286,012	13,37
286,272	15,17
286,532	12,3
286,792	12,51
287,052	14,51
287,312	13,78
287,571	12,93
287,831	14,24
288,091	10,98
288,351	11,67
288,611	15,81
288,871	15,33
289,13	15,98
289,39	11,81
289,65	13,79
289,91	10,63
290,17	14
290,429	16,36
290,689	14,16
290,949	10,61
291,208	12,69
291,468	16,84
291,728	16,37
291,987	17,61
292,247	15,79
292,506	19,28
292,766	22,66
293,026	21,47
293,285	22,91
293,545	25,6
293,804	27,48
294,064	22,64
294,323	20,38
294,583	20,38
294,842	20,64
295,102	21,96
295,361	22,87
295,621	23,97
295,88	23,47
296,139	23,37
296,399	23,15
296,658	18,08
296,917	18,22
297,177	14,88
297,436	16,52
297,695	13,9
297,955	16,37
298,214	14,23
298,473	16,37
298,732	18,22
298,992	21,56
299,251	20,71
299,51	16,45
299,769	17,77
300,028	17,76
300,287	18,12
300,547	16,58
300,806	13,65
301,065	15,95
301,324	17,82
301,583	13,9
301,842	9,76
302,101	8,3
302,36	8,93
302,619	8,95
302,878	10,01
303,137	6,24
303,396	8,43
303,655	9,27
303,914	7,31
304,173	7,92
304,432	8,61
304,691	11,41
304,95	8,9
305,208	14,08
305,467	13,81
305,726	13,57
305,985	14,65
306,244	15,63
306,503	13,18
306,761	10,89
307,02	7,23
307,279	6,89
307,537	8,52
307,796	6,45
308,055	3,76
308,314	5,4
308,572	4,56
308,831	6,77
309,09	7,47
309,348	8,03
309,607	7,72
309,865	11,76
310,124	11,44
310,382	12,45
310,641	13,2
310,9	10,52
311,158	11,66
311,417	10,74
311,675	10,77
311,933	10,96
312,192	11,9
312,45	11,56
312,709	11,73
312,967	10,6
313,226	10,13
313,484	9,05
313,742	7,27
314,001	5,23
314,259	3,42
314,517	4,98
314,776	7,19
315,034	10,18
315,292	8,33
315,55	5,5
315,809	3,72
316,067	4,99
316,325	2,98
316,583	2,94
316,841	1,46
317,1	-1,44
317,358	-5,06
317,616	-6,71
317,874	-7,86
318,132	-8,44
318,39	-9,07
318,648	-9,45
318,906	-8,25
319,164	-8,3
319,422	-9,48
319,68	-11,06
319,938	-11,18
320,196	-12,67
320,454	-11,73
320,712	-13,74
320,97	-11,86
321,228	-13,82
321,486	-11,08
321,744	-9,23
322,002	-7,6
322,26	-9,6
322,517	-10,11
322,775	-12,32
323,033	-13,8
323,291	-10,78
323,549	-8,35
323,806	-5,98
324,064	-5,57
324,322	-3,21
324,58	-2,35
324,837	0,48
325,095	-0,73
325,353	0,67
325,61	3
325,868	2,41
326,126	4,75
326,383	3,45
326,641	2,2
326,898	3,95
327,156	3,27
327,413	3,88
327,671	3,59
327,928	6,95
328,186	8,5
328,443	7,48
328,701	12,85
328,958	12,75
329,216	13,43
329,473	11,27
329,731	11,79
329,988	11,19
330,245	14,32
330,503	14,75
330,76	14,02
331,017	16,49
331,275	14,51
331,532	14,76
331,789	13,43
332,047	13,87
332,304	10,41
332,561	9,92
332,818	8,52
333,076	11,54
333,333	13,32
333,59	12,75
333,847	14,2
334,104	12,13
334,361	11,7
334,618	11,36
334,876	8,58
335,133	8,97
335,39	7,12
335,647	9,42
335,904	4,72
336,161	2,27
336,418	2,68
336,675	-2,67
336,932	-0,84
337,189	-2,12
337,446	-1,27
337,703	-2,53
337,96	-5,48
338,216	-4,8
338,473	-6,53
338,73	-4,08
338,987	-4,94
339,244	-1,54
339,501	-4,16
339,757	-2,73
340,014	-3,89
340,271	-2,8
340,528	-2,8
340,785	0,77
341,041	0,78
341,298	-1,65
341,555	-0,49
341,811	-1,07
342,068	-2,02
342,325	-1,44
342,581	1,96
342,838	3,65
343,094	3,37
343,351	4,66
343,608	1,9
343,864	4,56
344,121	6,83
344,377	6,4
344,634	6,14
344,89	4,81
345,147	5,18
345,403	3,67
345,66	4,85
345,916	6,49
346,172	3,71
346,429	1,73
346,685	-0,64
346,942	-0,96
347,198	-5,46
347,454	-3,51
347,711	-4,2
347,967	-6,1
348,223	-4,76
348,48	-4,23
348,736	-0,5
348,992	-1,56
349,248	0,16
349,504	0,69
349,761	1,3
350,017	1,01
350,273	0,61
350,529	-2,97
350,785	-2,77
351,041	-3,22
351,297	-2,28
351,554	-3,93
351,81	-7,66
352,066	-8,83
352,322	-8,75
352,578	-6,66
352,834	-7,65
353,09	-7,44
353,346	-6,68
353,602	-8,68
353,858	-8,21
354,114	-9,73
354,369	-7,95
354,625	-5,14
354,881	-6,39
355,137	-2,62
355,393	-2,34
355,649	-2,17
355,905	-1,12
356,16	-1,76
356,416	-0,86
356,672	-9,53
356,928	-8,93
357,183	-10,4
357,439	-11,3
357,695	-13,64
357,951	-8,45
358,206	-8,89
358,462	-7,83
358,718	-9,9
358,973	-7,77
359,229	-7,18
359,484	-6,05
359,74	-2,28
359,996	-2,53
360,251	0,67
360,507	-0,35
360,762	0,02
361,018	1,26
361,273	-1,3
361,529	2,13
361,784	0,77
362,04	3,7
362,295	2,99
362,55	2,83
362,806	5,92
363,061	4,25
363,316	4,18
363,572	5,15
363,827	6,68
364,082	3,87
364,338	3,04
364,593	4,76
364,848	5,06
365,104	3,76
365,359	6,3
365,614	8,24
365,869	6,01
366,124	6,12
366,38	5,79
366,635	7,81
366,89	8,45
367,145	6,98
367,4	10,67
367,655	10,99
367,91	12,4
368,165	10
368,42	5,74
368,675	6,79
368,93	7,37
369,185	6,11
369,44	5,28
369,695	8,32
369,95	6,73
370,205	6
370,46	5,24
370,715	4,55
370,97	7,23
371,225	7,79
371,48	8,8
371,734	9,48
371,989	12,15
372,244	11,71
372,499	13,11
372,754	10,96
373,008	9,08
373,263	4,61
373,518	6,45
373,773	2,94
374,027	2,78
374,282	4,74
374,537	5,34
374,791	5,53
375,046	4,74
375,301	2,76
375,555	2,12
375,81	2,97
376,064	3,89
376,319	8,33
376,573	7,16
376,828	4,61
377,082	10,06
377,337	7,27
377,591	4,37
377,846	5,14
378,1	8,4
378,355	9,08
378,609	7,72
378,863	5,29
379,118	6,32
379,372	4,48
379,627	3,13
379,881	0,72
380,135	1,31
380,389	1,97
380,644	2,55
380,898	4,94
381,152	5,75
381,407	5,48
381,661	8,77
381,915	10,59
382,169	10,73
382,423	8,26
382,677	5,43
382,932	7
383,186	8,32
383,44	7,58
383,694	10,3
383,948	8,82
384,202	8,28
384,456	11,12
384,71	13,43
384,964	11,06
385,218	12,97
385,472	14,32
385,726	13,86
385,98	12,94
386,234	11,59
386,488	8,26
386,742	8,18
386,996	6,31
387,249	7,42
387,503	8,49
387,757	11,06
388,011	11,36
388,265	10,04
388,518	12,38
388,772	12,3
389,026	14,12
389,28	10,8
389,533	8,51
389,787	10,09
390,041	8,3
390,295	8,81
390,548	9,92
390,802	11,27
391,055	9,94
391,309	9,81
391,563	8,21
391,816	9,44
392,07	8,43
392,323	8,9
392,577	8,85
392,83	10,94
393,084	17,83
393,337	21,48
393,591	22,98
393,844	24,29
394,098	28,66
394,351	34,39
394,604	36,53
394,858	37,63
395,111	38,98
395,364	37,45
395,618	37,34
395,871	35,6
396,124	34,64
396,378	33,46
396,631	34,05
396,884	31,61
397,137	32,17
397,391	33,3
397,644	30,28
397,897	29,96
398,15	30,71
398,403	32,58
398,657	31,92
398,91	30,81
399,163	31,48
399,416	30,29
399,669	29,18
399,922	28,08
400,175	24,8
400,428	24,35
400,681	24,02
400,934	17,77
401,187	16,39
401,44	15,32
401,693	13,04
401,946	8,32
402,199	2,76
402,452	1,23
402,704	-3,07
402,957	-5,46
403,21	-3,75
403,463	-3,47
403,716	-2,93
403,969	-0,79
404,221	-1,38
404,474	0,92
404,727	4,07
404,98	6,17
405,232	7,05
405,485	8,19
405,738	9,43
405,99	10,09
406,243	10,73
406,496	12,36
406,748	12,75
407,001	11,47
407,253	10,43
407,506	10,02
407,759	10,81
408,011	9,62
408,264	9,94
408,516	9,78
408,769	7
409,021	6,93
409,274	6,19
409,526	8,01
409,778	7,93
410,031	10,75
410,283	10,81
410,536	17,39
410,788	16,08
411,04	15,88
411,293	17,15
411,545	19,05
411,797	18,04
412,049	18,08
412,302	17,56
412,554	18,79
412,806	16,62
413,058	15,2
413,311	16,86
413,563	17,17
413,815	17,06
414,067	15,19
414,319	14,44
414,571	14,39
414,823	13,19
415,075	12,39
415,328	13,44
415,58	16,82
415,832	18,21
416,084	18,07
416,336	16,37
416,588	22,2
416,84	20,07
417,091	24,28
417,343	21,56
417,595	23,61
417,847	24,86
418,099	24,79
418,351	23,67
418,603	26,63
418,855	26,82
419,106	26,62
419,358	25,71
419,61	25,54
419,862	26,95
420,114	24,74
420,365	23,54
420,617	24,91
420,869	22,4
421,12	21,05
421,372	21,55
421,624	20,01
421,875	20,58
422,127	17,62
422,379	19,22
422,63	22,77
422,882	21,83
423,133	21,03
423,385	20,92
423,636	21,74
423,888	24,44
424,139	28,03
424,391	23,88
424,642	23,1
424,894	21,53
425,145	22,45
425,396	19,4
425,648	22,86
425,899	21,11
426,151	20,83
426,402	19,82
426,653	20,72
426,905	19,67
427,156	17,26
427,407	17,06
427,658	16,66
427,91	16,16
428,161	15,03
428,412	15,9
428,663	18,2
428,914	19,39
429,166	19,64
429,417	20,33
429,668	18,89
429,919	16,69
430,17	14,83
430,421	13,91
430,672	17,53
430,923	18,42
431,174	16,76
431,425	16,13
431,676	14,74
431,927	10,47
432,178	13,07
432,429	14,54
432,68	12,58
432,931	14,67
433,182	18,39
433,433	13,6
433,683	16,1
433,934	15,36
434,185	14,28
434,436	11,33
434,687	12,08
434,937	13,7
435,188	12,37
435,439	11,49
435,69	13,8
435,94	13,94
436,191	14,25
436,442	14,21
436,692	12,88
436,943	11,86
437,194	11,11
437,444	13,01
437,695	19,04
437,945	19,56
438,196	17,79
438,447	16,59
438,697	16,51
438,948	14,74
439,198	14,09
439,449	9,88
439,699	11,19
439,949	9,73
440,2	8,38
440,45	10,46
440,701	10,28
440,951	9,85
441,201	11,79
441,452	10,11
441,702	9,5
441,952	9,99
442,203	10,81
442,453	8,92
442,703	10,37
442,953	11,58
443,204	12,72
443,454	9,85
443,704	9,61
443,954	6,48
444,204	7,38
444,455	8,33
444,705	9,24
444,955	9,36
445,205	8,69
445,455	3,88
445,705	4,79
445,955	5,89
446,205	6,22
446,455	7,17
446,705	8,92
446,955	8,5
447,205	10,02
447,455	12,64
447,705	11,76
447,955	10,07
448,205	9,22
448,454	7,23
448,704	8,13
448,954	6,59
449,204	6,96
449,454	7,65
449,704	7,03
449,953	6,55
450,203	9,1
450,453	6,82
450,703	8,53
450,952	7,35
451,202	9,2
451,452	8,82
451,701	11,27
451,951	14,96
452,201	13,65
452,45	12,83
452,7	14,59
452,949	13,9
453,199	15,2
453,448	17,72
453,698	18,5
453,947	16,88
454,197	15,29
454,446	14,12
454,696	18
454,945	18,13
455,195	15,64
455,444	16,21
455,693	21,16
455,943	19,13
456,192	21,74
456,442	20,46
456,691	20,98
456,94	21,2
457,189	20,37
457,439	22,16
457,688	24,78
457,937	23,91
458,186	25,06
458,436	24,67
458,685	25,69
458,934	24,42
459,183	25,19
459,432	28,81
459,681	28,57
459,93	29,21
460,179	28,7
460,429	26,76
460,678	29,87
460,927	32,01
461,176	30,58
461,425	30,65
461,674	34,21
461,923	33,89
462,172	34,21
462,42	31,81
462,669	34,61
462,918	34,49
463,167	34,25
463,416	31,02
463,665	32,99
463,914	32,28
464,162	31,07
464,411	31,54
464,66	33,19
464,909	32,18
465,158	32,1
465,406	31,84
465,655	33,29
465,904	34,71
466,152	35,48
466,401	35,32
466,65	38,07
466,898	35,42
467,147	30,71
467,395	29,84
467,644	31,32
467,893	31,16
468,141	31,88
468,39	28,64
468,638	26,66
468,887	25,08
469,135	24,71
469,384	23
469,632	23,37
469,88	22,41
470,129	24,59
470,377	21,33
470,626	23,48
470,874	25,1
471,122	28,43
471,371	27,3
471,619	25,45
471,867	28,48
472,115	28,64
472,364	26,08
472,612	28,35
472,86	26,2
473,108	25,89
473,356	26,06
473,605	26,17
473,853	23,07
474,101	22,43
474,349	19,67
474,597	23,37
474,845	23,82
475,093	21,82
475,341	20,72
475,589	19,78
475,837	20,34
476,085	21,46
476,333	20,06
476,581	20,98
476,829	20,34
477,077	22,33
477,325	22,65
477,573	24,34
477,821	22,5
478,069	24,4
478,317	25,18
478,564	27,19
478,812	23,02
479,06	21,6
479,308	20,29
479,555	20,01
479,803	18,72
480,051	20,66
480,299	20,27
480,546	22,3
480,794	19,79
481,042	19,19
481,289	17,17
481,537	18,69
481,784	17,98
482,032	21,56
482,28	20,09
482,527	18,16
482,775	19,02
483,022	19,37
483,27	21,53
483,517	25
483,765	24,81
484,012	24,8
484,259	22,78
484,507	26,37
484,754	27,68
485,002	27,95
485,249	26,87
485,496	29,8
485,744	27,6
485,991	25,63
486,238	23,79
486,486	28,49
486,733	30,91
486,98	34,97
487,227	33,76
487,474	36,02
487,722	38,69
487,969	37,15
488,216	36,76
488,463	37,93
488,71	36,79
488,957	35,45
489,204	34,53
489,451	35,31
489,699	34,79
489,946	33,32
490,193	33,69
490,44	32,98
490,687	33,58
490,934	32,24
491,18	26,79
491,427	28,26
491,674	31,33
491,921	31,31
492,168	28,59
492,415	25,8
492,662	25,8
492,909	28,92
493,155	27,88
493,402	27,7
493,649	26,44
493,896	26,97
494,142	21,23
494,389	20,3
494,636	18,21
494,883	15,41
495,129	12,83
495,376	9,28
495,623	12,8
495,869	14,94
496,116	15,55
496,362	17,35
496,609	21,41
496,855	27,02
497,102	27,32
497,348	26,08
497,595	26,45
497,841	30,78
498,088	28,72
498,334	27,69
498,581	26,47
498,827	27,86
499,074	28,2
499,32	29,06
499,566	33,1
499,813	33,21
500,059	32,18
500,305	33,72
500,552	30,61
500,798	28,92
501,044	32,76
501,29	31,14
501,537	28,13
501,783	31,76
502,029	35,46
502,275	33,7
502,521	33,75
502,767	35,07
503,013	38,13
503,26	33,67
503,506	30,19
503,752	31,06
503,998	29,3
504,244	29,22
504,49	25,19
504,736	26,91
504,982	26,69
505,228	29,41
505,474	29,94
505,72	32,63
505,966	31,64
506,211	34,72
506,457	35,24
506,703	33,17
506,949	31,76
507,195	30,79
507,441	28,11
507,686	29,4
507,932	29,59
508,178	33,17
508,424	32,12
508,669	30,87
508,915	32,64
509,161	35,6
509,406	35,35
509,652	32,32
509,898	35,94
510,143	36,61
510,389	35,15
510,634	31,59
510,88	35,74
511,125	38,03
511,371	39,88
511,616	41,29
511,862	39,44
512,107	36,65
512,353	36,34
512,598	36,91
512,844	34,15
513,089	30,93
513,335	31,42
513,58	31,6
513,825	32,61
514,071	31,96
514,316	31,58
514,561	32,63
514,806	30,73
515,052	34,35
515,297	34,5
515,542	35,48
515,787	35,24
516,033	37,5
516,278	37,95
516,523	37,51
516,768	36,86
517,013	35,51
517,258	35,51
517,503	33,63
517,748	35,81
517,993	34,97
518,238	35,38
518,483	33,59
518,728	33,28
518,973	30,42
519,218	29,99
519,463	32,14
519,708	32,36
519,953	31,76
520,198	31,53
520,443	34,05
520,688	36,94
520,933	36,99
521,177	37,83
521,422	35,13
521,667	37,73
521,912	38,19
522,157	34,34
522,401	37,58
522,646	36,96
522,891	36,48
523,135	35,3
523,38	35,08
523,625	33,96
523,869	35,05
524,114	35,97
524,358	34,32
524,603	34,13
524,848	32,16
525,092	33,08
525,337	32,65
525,581	34,3
525,826	36,6
526,07	36,71
526,315	36,78
526,559	36,28
526,803	34,99
527,048	36,53
527,292	38,39
527,537	37,68
527,781	35,96
528,025	34,06
528,269	35,66
528,514	35,04
528,758	33,17
529,002	34,14
529,247	37,47
529,491	36,7
529,735	41,58
529,979	41,35
530,223	42,19
530,467	40,22
530,712	38,01
530,956	38,06
531,2	38,65
531,444	37,05
531,688	39,45
531,932	39,13
532,176	39,94
532,42	42,7
532,664	41,85
532,908	40,98
533,152	39,85
533,396	39,65
533,64	37,79
533,884	36,25
534,128	36,72
534,371	37
534,615	37,26
534,859	36,08
535,103	36,88
535,347	38,16
535,59	39,22
535,834	35,32
536,078	37,28
536,322	39,66
536,565	42
536,809	39,68
537,053	41,62
537,296	40,42
537,54	39,46
537,784	37,56
538,027	38,67
538,271	37,66
538,514	36,05
538,758	37,22
539,001	34,63
539,245	33,23
539,488	34,76
539,732	36,74
539,975	35,73
540,219	38,47
540,462	38,52
540,706	40,81
540,949	39,95
541,192	41,79
541,436	47,67
541,679	52,58
541,922	54,16
542,166	50,22
542,409	49,88
542,652	50,57
542,895	51,41
543,139	52,03
543,382	55,19
543,625	54,38
543,868	54,8
544,111	52,84
544,354	50,66
544,598	49,48
544,841	49,37
545,084	49,41
545,327	50,24
545,57	52,1
545,813	55,33
546,056	54,88
546,299	54,13
546,542	56,8
546,785	59,42
547,028	60,16
547,271	58,5
547,514	59,01
547,756	55,71
547,999	56,57
548,242	57,72
548,485	54,71
548,728	55,03
548,971	49,58
549,213	49,24
549,456	49,42
549,699	49,48
549,942	50,03
550,184	48,92
550,427	48,83
550,67	47,95
550,912	44,76
551,155	45,66
551,398	44,52
551,64	44,01
551,883	44,87
552,125	43,66
552,368	43,88
552,61	40,77
552,853	42,43
553,095	40,49
553,338	40,38
553,58	41,67
553,823	40,93
554,065	41,97
554,308	37,06
554,55	34,78
554,792	33,3
555,035	31,54
555,277	30,69
555,519	30,53
555,762	27,9
556,004	30,19
556,246	27,3
556,488	28,36
556,731	24,49
556,973	24,14
557,215	23,47
557,457	26,26
557,699	28,65
557,941	25,59
558,183	26,36
558,426	28,54
558,668	25,8
558,91	25,58
559,152	25,52
559,394	23,85
559,636	26,29
559,878	26,33
560,12	25,96
560,362	27,29
560,604	28,71
560,845	27,92
561,087	25,51
561,329	27,87
561,571	27,22
561,813	29,57
562,055	28,79
562,297	30,46
562,538	30,85
562,78	33,39
563,022	31,21
563,264	32,93
563,505	32,91
563,747	33,2
563,989	31,92
564,23	31,05
564,472	29,76
564,714	31,92
564,955	30,79
565,197	26,79
565,438	29,4
565,68	31,69
565,921	30,38
566,163	31,51
566,404	31,9
566,646	34,78
566,887	37,88
567,129	38,37
567,37	37,34
567,612	39,93
567,853	36,47
568,094	36,83
568,336	37,23
568,577	39,07
568,818	39,09
569,06	35,26
569,301	32,93
569,542	34,02
569,783	34,48
570,025	35,83
570,266	36,53
570,507	37,95
570,748	36,74
570,989	37,75
571,23	39,77
571,472	39,93
571,713	39,74
571,954	40,96
572,195	40,03
572,436	40,86
572,677	43,82
572,918	44,5
573,159	41,87
573,4	38,89
573,641	38,37
573,882	37,72
574,123	34,45
574,364	29,23
574,604	30,36
574,845	29,39
575,086	29,62
575,327	30,66
575,568	29,95
575,809	29,54
576,049	27,28
576,29	24,73
576,531	31,98
576,771	36,13
577,012	38,24
577,253	38,04
577,494	38,18
577,734	37,79
577,975	38,89
578,215	38,93
578,456	37,83
578,697	37,53
578,937	40,27
579,178	40,31
579,418	38,49
579,659	38,15
579,899	36,69
580,14	36,17
580,38	36,2
580,62	37,38
580,861	41,66
581,101	42,97
581,342	42,85
581,582	39,82
581,822	42,97
582,063	41,27
582,303	44,95
582,543	44,85
582,783	46,28
583,024	48,4
583,264	51,73
583,504	52,2
583,744	54,54
583,984	51,8
584,224	52,05
584,465	51,33
584,705	53,54
584,945	54,61
585,185	55,99
585,425	57,61
585,665	59,89
585,905	58,57
586,145	59,97
586,385	58,35
586,625	61,61
586,865	62,12
587,105	62,94
587,345	64,04
587,585	64,57
587,824	63,95
588,064	65,4
588,304	64,29
588,544	64,73
588,784	63,91
589,024	68,27
589,263	68,44
589,503	68,2
589,743	69,32
589,982	69,69
590,222	70,39
590,462	69,1
590,701	66,73
590,941	69,76
591,181	69,06
591,42	68,26
591,66	70,65
591,899	74,47
592,139	72,88
592,378	73,43
592,618	72,56
592,857	72,21
593,097	72,83
593,336	75,22
593,576	75,45
593,815	76,72
594,055	76,87
594,294	78,94
594,533	78,47
594,773	80,07
595,012	82,54
595,251	86,11
595,491	89,39
595,73	93,39
595,969	93,03
596,208	96,03
596,447	102,25
596,687	104,64
596,926	106,36
597,165	103,8
597,404	108,52
597,643	108,43
597,882	108,3
598,121	111,62
598,36	115,09
598,599	117,01
598,838	119,92
599,077	118,45
599,316	119,59
599,555	121,68
599,794	124,33
600,033	128,59
600,272	131,38
600,511	131,01
600,75	133,22
600,989	136,04
601,228	138,03
601,466	139,41
601,705	141,14
601,944	144,55
602,183	147,68
602,422	147,58
602,66	146,86
602,899	145,77
603,138	145,86
603,376	149,25
603,615	151,14
603,854	149,74
604,092	152,41
604,331	156,66
604,569	158,65
604,808	157,06
605,047	159,26
605,285	161,58
605,524	162,79
605,762	160,76
606	164,35
606,239	166,02
606,477	167,11
606,716	164,84
606,954	166,14
607,193	164,44
607,431	160,44
607,669	160,24
607,908	160,18
608,146	164,35
608,384	164,91
608,622	166,77
608,861	166,76
609,099	167,72
609,337	167,81
609,575	166,44
609,813	168,46
610,052	169,13
610,29	166,62
610,528	166,03
610,766	165,51
611,004	166,31
611,242	165,63
611,48	164,97
611,718	161,77
611,956	164,24
612,194	164,72
612,432	164,27
612,67	164,29
612,908	164,92
613,146	166,1
613,384	164,21
613,621	163,51
613,859	165,29
614,097	165,93
614,335	166,05
614,573	168,97
614,811	172,09
615,048	172,14
615,286	172,74
615,524	170,8
615,761	168,23
615,999	168,03
616,237	168,4
616,474	169,95
616,712	170,53
616,95	170,05
617,187	170,13
617,425	171,58
617,662	172,99
617,9	171,88
618,137	170,2
618,375	170,49
618,612	168,4
618,85	170,52
619,087	174,29
619,325	172,43
619,562	170,86
619,799	169,76
620,037	169,81
620,274	168,5
620,511	169,2
620,749	168,05
620,986	167,72
621,223	165,12
621,461	164,57
621,698	165,91
621,935	163,33
622,172	161,85
622,409	163,55
622,647	163,99
622,884	162,85
623,121	166,31
623,358	163,21
623,595	163,69
623,832	163,48
624,069	161,36
624,306	162,55
624,543	164,35
624,78	165,12
625,017	164,58
625,254	167,54
625,491	169,87
625,728	170,61
625,965	170,95
626,202	168,73
626,438	166,53
626,675	166,92
626,912	170,32
627,149	172,1
627,386	172,71
627,622	171,01
627,859	169,86
628,096	170,46
628,333	169,72
628,569	169,81
628,806	171,1
629,043	170,6
629,279	172,55
629,516	173,69
629,752	169,63
629,989	169,91
630,225	167,57
630,462	165,99
630,699	166,18
630,935	164,58
631,171	160,96
631,408	161,86
631,644	159,18
631,881	154,73
632,117	151,58
632,354	152,23
632,59	150,89
632,826	149
633,063	148,32
633,299	149,32
633,535	147,38
633,771	146,38
634,008	148,89
634,244	145,96
634,48	144,59
634,716	143,81
634,953	142,96
635,189	142,62
635,425	143,57
635,661	146,25
635,897	144,44
636,133	143,96
636,369	142,2
636,605	137,48
636,841	137,28
637,077	138,83
637,313	138,44
637,549	138,39
637,785	137,04
638,021	138,07
638,257	137,34
638,493	139,67
638,729	137,08
638,965	140,44
639,2	142,09
639,436	140,49
639,672	138,94
639,908	134,43
640,144	138,72
640,379	140,25
640,615	137,65
640,851	139,47
641,086	140,03
641,322	135,39
641,558	135,42
641,793	135,44
642,029	132,85
642,264	131,65
642,5	132,01
642,736	128,34
642,971	127,96
643,207	126
643,442	123,1
643,678	121,84
643,913	121,92
644,148	118,74
644,384	120,05
644,619	118,45
644,855	119,79
645,09	119,04
645,325	117,97
645,561	118,99
645,796	115,46
646,031	119,1
646,266	116,14
646,502	115,24
646,737	117,69
646,972	117,78
647,207	119,21
647,442	114,7
647,678	110,71
647,913	114,21
648,148	112,9
648,383	109,99
648,618	109,78
648,853	109,62
649,088	110,94
649,323	114,2
649,558	114,92
649,793	113,36
650,028	112,63
650,263	108,19
650,498	111,07
650,733	111,32
650,968	110,19
651,202	112,66
651,437	111,23
651,672	107,1
651,907	107,48
652,142	106,88
652,376	108,28
652,611	107,84
652,846	108,52
653,081	109,08
653,315	107,1
653,55	106,03
653,785	103,15
654,019	103,39
654,254	101,21
654,488	101,82
654,723	98,88
654,958	96,12
655,192	92,77
655,427	89,26
655,661	91,36
655,896	93,69
656,13	94,38
656,364	89,91
656,599	86,11
656,833	90,59
657,068	92,33
657,302	91,34
657,536	88,86
657,771	89,25
658,005	89,9
658,239	90,01
658,474	88,29
658,708	89,63
658,942	89,04
659,176	86,33
659,41	82,87
659,645	80,97
659,879	80,49
660,113	75,11
660,347	73,39
660,581	70,5
660,815	70,3
661,049	70,21
661,283	66,86
661,517	66,13
661,751	63,46
661,985	62,96
662,219	64,09
662,453	62,75
662,687	66,07
662,921	61,38
663,155	59,98
663,389	54,07
663,622	52,47
663,856	53,46
664,09	47,72
664,324	46,18
664,558	47,63
664,791	47,49
665,025	45,61
665,259	44,26
665,492	44,5
665,726	45,48
665,96	44,78
666,193	42,97
666,427	43,55
666,661	42,48
666,894	41,73
667,128	40,54
667,361	43,19
667,595	44,17
667,828	44,59
668,062	43,66
668,295	42,89
668,529	43,7
668,762	44,07
668,995	43,74
669,229	45,44
669,462	46,4
669,695	46,43
669,929	42,96
670,162	44,07
670,395	41,72
670,629	43,48
670,862	46,74
671,095	43,55
671,328	44,99
671,561	42,16
671,795	41,81
672,028	43,06
672,261	42,68
672,494	45,1
672,727	42,55
672,96	42,7
673,193	40,79
673,426	44,59
673,659	44,63
673,892	45,28
674,125	43,7
674,358	44,45
674,591	42,63
674,824	40,97
675,057	39,45
675,29	37,29
675,523	39,61
675,755	37,93
675,988	38,94
676,221	42,77
676,454	42,18
676,687	42,56
676,919	41,06
677,152	42,25
677,385	41,63
677,617	42,12
677,85	42,93
678,083	40,2
678,315	42,82
678,548	40,18
678,78	39,38
679,013	37,68
679,246	37,81
679,478	39,28
679,711	34,94
679,943	36,5
680,175	33,22
680,408	38,22
680,64	34,11
680,873	34,54
681,105	36,17
681,338	40,22
681,57	38,42
681,802	40,68
682,034	40,18
682,267	43,51
682,499	45,88
682,731	42,15
682,964	41,33
683,196	38,34
683,428	34,7
683,66	32,09
683,892	34,48
684,124	37,31
684,356	38,9
684,589	39,45
684,821	36,33
685,053	35,52
685,285	36,73
685,517	38,83
685,749	38,87
685,981	39,63
686,213	40,47
686,445	40,69
686,676	38,01
686,908	39,93
687,14	38,55
687,372	40,32
687,604	36,48
687,836	37,59
688,068	36,95
688,299	35,93
688,531	32,69
688,763	37,3
688,995	34,72
689,226	38,1
689,458	35,34
689,69	32,66
689,921	32,17
690,153	33,03
690,384	35,43
690,616	34,42
690,848	36,16
691,079	33,06
691,311	29,38
691,542	27,26
691,774	24,55
692,005	29,39
692,237	32,42
692,468	30,14
692,699	28,85
692,931	29,3
693,162	28,07
693,393	27,04
693,625	25,1
693,856	25,31
694,087	25,56
694,319	27,09
694,55	25,8
694,781	24,36
695,012	24,21
695,243	22,71
695,475	20,72
695,706	20,56
695,937	19,06
696,168	18,52
696,399	16,89
696,63	16,88
696,861	17,63
697,092	22,34
697,323	24,18
697,554	24,68
697,785	25,16
698,016	25,63
698,247	23,19
698,478	24,41
698,709	24,88
698,94	27,56
699,171	26,86
699,401	22,37
699,632	24,71
699,863	19,92
700,094	19,63
700,325	21,11
700,555	23,1
700,786	25,1
701,017	24,72
701,247	22
701,478	21,69
701,709	21,67
701,939	20,81
702,17	23,47
702,401	25,6
702,631	29,08
702,862	27,62
703,092	23,85
703,323	26,66
703,553	26,8
703,784	26,02
704,014	25,68
704,244	19,09
704,475	18,38
704,705	17,32
704,936	16,82
705,166	16,39
705,396	18,27
705,627	19,49
705,857	18,45
706,087	19,27
706,317	16,12
706,548	14,33
706,778	13,28
707,008	15,35
707,238	15,16
707,468	13,28
707,698	10,98
707,928	10,1
708,158	9,36
708,389	9,92
708,619	8,3
708,849	7
709,079	8,46
709,309	5,11
709,539	2,18
709,768	0,3
709,998	2,46
710,228	2,5
710,458	0,72
710,688	-1,65
710,918	-0,85
711,148	-1,3
711,378	1,74
711,607	-0,71
711,837	-0,22
712,067	0,4
712,297	-1
712,526	-0,83
712,756	0,63
712,986	-1,62
713,215	-4,05
713,445	-2,31
713,674	-0,39
713,904	-0,99
714,134	1,46
714,363	2,07
714,593	2,24
714,822	2,48
715,052	2,49
715,281	4,89
715,511	3,9
715,74	4,57
715,969	4,82
716,199	4,14
716,428	5,52
716,657	5,19
716,887	7,4
717,116	5,4
717,345	7,58
717,575	8,19
717,804	8,56
718,033	7,64
718,262	7,23
718,492	7,45
718,721	9,43
718,95	8,53
719,179	6,62
719,408	8,36
719,637	4,39
719,866	0,82
720,095	2,72
720,324	2,28
720,553	-1,9
720,782	-2,91
721,011	-3,16
721,24	-5,59
721,469	-7,33
721,698	-8,46
721,927	-9,62
722,156	-11,92
722,385	-13,33
722,613	-10,23
722,842	-10,12
723,071	-7,57
723,3	-6,5
723,529	-8,16
723,757	-6,94
723,986	-9,99
724,215	-11,74
724,443	-10,53
724,672	-8,39
724,901	-6,61
725,129	-4,93
725,358	-0,6
725,586	-3,15
725,815	-4,24
726,043	-4,59
726,272	-6,53
726,5	-7,26
726,729	-5,96
726,957	-8,76
727,186	-10,14
727,414	-8,8
727,642	-6,51
727,871	-5,46
728,099	-5,99
728,327	-6,54
728,556	-4,18
728,784	-1,91
729,012	-2,76
729,241	0,49
729,469	-0,25
729,697	-2,38
729,925	-1,52
730,153	-3,49
730,381	-3,58
730,61	-3,17
730,838	-4,83
731,066	-3,85
731,294	-1,94
731,522	-6,25
731,75	-11,55
731,978	-13,12
732,206	-14,14
732,434	-17,31
732,662	-14,95
732,89	-16,46
733,118	-17,45
733,346	-15,8
733,573	-16,4
733,801	-15,49
734,029	-9,21
734,257	-8
734,485	-5,45
734,712	-3,8
734,94	-5,75
735,168	-2,14
735,396	-1,45
735,623	-3,94
735,851	-3,37
736,078	-0,31
736,306	0,23
736,534	-0,58
736,761	-0,25
736,989	-3,54
737,216	-3,32
737,444	-5,04
737,671	-3,97
737,899	1,59
738,126	-0,46
738,354	-1,08
738,581	0,41
738,809	2,24
739,036	-0,29
739,263	-0,75
739,491	-2,79
739,718	-3,37
739,945	1,46
740,173	3,17
740,4	3,81
740,627	2,7
740,854	1,56
741,081	-0,08
741,309	-1,64
741,536	-5,63
741,763	-7,13
741,99	-4,25
742,217	-5,58
742,444	-4,76
742,671	-2,43
742,898	-2,5
743,125	-6,52
743,352	-9,85
743,579	-10,13
743,806	-9,23
744,033	-4,94
744,26	-5,01
744,487	-5,07
744,714	-4,92
744,941	-6,69
745,167	-2,26
745,394	-2,3
745,621	-2,46
745,848	-2,38
746,075	2,02
746,301	5,38
746,528	10,31
746,755	8,19
746,981	7,08
747,208	8,52
747,435	10,82
747,661	12,74
747,888	15,62
748,114	13,61
748,341	16,46
748,567	17,78
748,794	15,75
749,02	13,91
749,247	11,13
749,473	10,07
749,7	8,52
749,926	8,16
750,152	12,35
750,379	12,97
750,605	13,63
750,831	11,15
751,058	9,34
751,284	8,17
751,51	11,37
751,737	13,07
751,963	10,96
752,189	9,41
752,415	8,02
752,641	7,97
752,867	8,4
753,094	6,01
753,32	5,09
753,546	2,56
753,772	5,2
753,998	3,58
754,224	1,59
754,45	0,57
754,676	-0,32
754,902	-2,99
755,128	-2,46
755,354	-2,94
755,579	-0,47
755,805	2,03
756,031	1,23
756,257	2,25
756,483	0,85
756,709	-0,19
756,934	-0,61
757,16	-2,61
757,386	-2,78
757,612	-3,79
757,837	-4,26
758,063	-2,45
758,289	0,23
758,514	-3,22
758,74	-8,07
758,965	-10,37
759,191	-9,06
759,416	-6,96
759,642	-6,3
759,868	-6,91
760,093	-5,04
760,318	-7,82
760,544	-7,97
760,769	-8,9
760,995	-9,97
761,22	-8,93
761,445	-8,3
761,671	-5,97
761,896	-3,41
762,121	-3,31
762,347	-4,23
762,572	-7,57
762,797	-8,19
763,022	-7,8
763,248	-2,83
763,473	-1,68
763,698	-1,31
763,923	-1,36
764,148	-2,16
764,373	-1,82
764,598	-0,34
764,823	1,37
765,048	-1,34
765,273	-4,64
765,498	-4,92
765,723	-4,39
765,948	-2,38
766,173	-4,26
766,398	-3,53
766,623	-5,38
766,848	-5,57
767,073	-6,69
767,298	-5,6
767,522	-6,15
767,747	-4,97
767,972	-4,35
768,197	-3,69
768,421	-4,26
768,646	-7,22
768,871	-9,97
769,095	-9,47
769,32	-8,99
769,545	-8,76
769,769	-7,36
769,994	-6,03
770,218	-10,7
770,443	-10,15
770,667	-9,89
770,892	-9,48
771,116	-9,14
771,341	-7,83
771,565	-8,04
771,79	-7,48
772,014	-8,12
772,238	-8,4
772,463	-5,01
772,687	-3,71
772,911	-3,88
773,136	-5,89
773,36	-5,83
773,584	-4,36
773,808	-6,18
774,033	-5,75
774,257	-5,83
774,481	-6,69
774,705	-7,7
774,929	-8,46
775,153	-8,48
775,377	-7,78
775,602	-8,04
775,826	-6,24
776,05	-5,16
776,274	-5,73
776,498	-5,54
776,722	-6,79
776,945	-5,83
777,169	-5,28
777,393	-5,83
777,617	-6,15
777,841	-4,4
778,065	-3,67
778,289	-5,71
778,512	-7,09
778,736	-6,46
778,96	-7,27
779,184	-5,49
779,407	-7,53
779,631	-7,14
779,855	-8,75
780,078	-5,72
780,302	-7,11
780,526	-10,05
780,749	-9,94
780,973	-8,97
781,196	-7,95
781,42	-9,22
781,643	-9,67
781,867	-7,59
782,09	-10,99
782,314	-12,26
782,537	-11,78
782,76	-14,03
782,984	-12,89
783,207	-13,22
783,431	-13,19
783,654	-13,86
783,877	-17,05
784,1	-18,65
784,324	-19,8
784,547	-20,43
784,77	-25,41
784,993	-26,12
785,216	-26,67
785,44	-25,73
785,663	-27,32
785,886	-23,83
786,109	-23,63
786,332	-23,22
786,555	-22,9
786,778	-20,61
787,001	-21,31
787,224	-19,15
787,447	-16,25
787,67	-13,56
787,893	-15,21
788,116	-15,32
788,339	-13,28
788,561	-13,83
788,784	-17,68
789,007	-18,13
789,23	-19,7
789,453	-21,2
789,675	-20,24
789,898	-22,73
790,121	-24,26
790,344	-23,2
790,566	-22,82
790,789	-21,87
791,012	-20,52
791,234	-16,1
791,457	-13,13
791,679	-10,55
791,902	-11,13
792,124	-9,42
792,347	-10,95
792,569	-11,3
792,792	-15
793,014	-12,03
793,237	-10,01
793,459	-9,82
793,681	-9,78
793,904	-10,37
794,126	-13,36
794,348	-14,62
794,571	-14,23
794,793	-13,06
795,015	-12,83
795,237	-12,69
795,46	-11,63
795,682	-11,35
795,904	-9,18
796,126	-8,49
796,348	-8,53
796,57	-4,8
796,792	-4,25
797,014	-0,03
797,237	1,12
797,459	3,09
797,681	4,94
797,903	2,99
798,124	1,86
798,346	13,58
798,568	14,56
798,79	19,3
799,012	19,45
799,234	20,09
799,456	22,09
799,678	24,01
799,899	18,73
800,121	15,74
800,343	14,41
800,565	14,25
800,786	14,02
801,008	16,57
801,23	17,63
801,451	18,25
801,673	15,42
801,895	14,35
802,116	15,22
802,338	15,88
802,559	16,66
802,781	16,1
803,002	16,92
803,224	20,16
803,445	16,11
803,667	16,92
803,888	13,58
804,109	13,33
804,331	13,48
804,552	12,21
804,773	14,5
804,995	11,21
805,216	-2,33
805,437	-4,98
805,658	-8,75
805,88	-10,16
806,101	-10,17
806,322	-11,42
806,543	-11,16
806,764	-11,22
806,985	-9,52
807,207	-8,2
807,428	-7,08
807,649	-10,61
807,87	-12,83
808,091	-12,59
808,312	-12,4
808,533	-7,53
808,754	-6,32
808,975	-8,59
809,195	-6,01
809,416	-4,55
809,637	-5,11
809,858	-5,68
810,079	-8,16
810,3	-6,11
810,52	-6,7
810,741	-9,17
810,962	-12,08
811,183	-13,28
811,403	-12,68
811,624	-13,74
811,845	-12,04
812,065	-11,58
812,286	-11,37
812,506	-10,56
812,727	-10,01
812,948	-7,09
813,168	-5,3
813,389	-6,52
813,609	-4,57
813,83	-5,73
814,05	-7,07
814,27	-7,25
814,491	-2,48
814,711	-2,79
814,931	-5,57
815,152	-6,92
815,372	-9,87
815,592	-11,01
815,813	-11,81
816,033	-13,67
816,253	-14,33
816,473	-15,51
816,694	-13,49
816,914	-13,03
817,134	-13,35
817,354	-15,03
817,574	-12,37
817,794	-12,07
818,014	-15,22
818,234	-16,09
818,454	-16,28
818,674	-18,76
818,894	-21,32
819,114	-18,39
819,334	-17,84
819,554	-17,06
819,774	-15,64
819,994	-17,97
820,214	-18,89
820,433	-19,06
820,653	-19,64
820,873	-16,22
821,093	-14,72
821,312	-16,97
821,532	-14,8
821,752	-10,76
821,972	-11,87
822,191	-9,3
822,411	-9,97
822,63	-8,54
822,85	-8,52
823,07	-9,66
823,289	-7,77
823,509	-9,5
823,728	-7,05
823,948	-8,68
824,167	-8,09
824,387	-9,78
824,606	-9,11
824,825	-7,2
825,045	-7,58
825,264	-8,92
825,483	-6,92
825,703	-4,98
825,922	-7,14
826,141	-8,22
826,361	-7,43
826,58	-12,85
826,799	-14,16
827,018	-12,84
827,237	-12,92
827,456	-10,56
827,676	-12,07
827,895	-14,25
828,114	-12,77
828,333	-13,72
828,552	-16,14
828,771	-14,72
828,99	-17,83
829,209	-17,25
829,428	-14,74
829,647	-15,8
829,866	-14,52
830,084	-15,81
830,303	-16,88
830,522	-17,1
830,741	-16,58
830,96	-16,6
831,179	-14,82
831,397	-15,81
831,616	-15,4
831,835	-15,51
832,053	-14,01
832,272	-14,09
832,491	-12,98
832,709	-13,3
832,928	-13,67
833,147	-13,7
833,365	-10,78
833,584	-8,55
833,802	-6,53
834,021	-5,27
834,239	-4,83
834,458	-5,42
834,676	-8,37
834,894	-9,93
835,113	-10,88
835,331	-10,71
835,55	-11,72
835,768	-10,59
835,986	-10,14
836,204	-11,72
836,423	-9,82
836,641	-10,59
836,859	-10,84
837,077	-9,77
837,296	-8,89
837,514	-8,84
837,732	-10,26
837,95	-10,29
838,168	-7,81
838,386	-8,42
838,604	-5,82
838,822	-4,38
839,04	-6,24
839,258	-5,68
839,476	-4,3
839,694	-4,24
839,912	-5,5
840,13	-6,9
840,348	-3,45
840,566	-5,56
840,783	-4,85
841,001	-5,8
841,219	-4,83
841,437	-3,2
841,655	-1,91
841,872	-0,91
842,09	-2,02
842,308	-0,81
842,525	-0,81
842,743	1,01
842,961	-0,75
843,178	-4,54
843,396	-0,69
843,613	-0,93
843,831	-0,14
844,048	-1,91
844,266	-1,14
844,483	-0,44
844,701	-2,52
844,918	-2,62
845,136	-3,39
845,353	-5,42
845,57	-5,74
845,788	-1,44
846,005	-4,28
846,222	-6,16
846,439	-4,07
846,657	-5,05
846,874	-4,55
847,091	-7,45
847,308	-7,05
847,526	-8,62
847,743	-10,19
847,96	-11,91
848,177	-10,99
848,394	-11,7
848,611	-12,25
848,828	-11,93
849,045	-12,62
849,262	-11,79
849,479	-13,76
849,696	-14,68
849,913	-14,69
850,13	-20,27
850,347	-16,65
850,564	-17,35
850,78	-19,35
850,997	-21,67
851,214	-22,03
851,431	-21,27
851,647	-24,66
851,864	-23,3
852,081	-21,19
852,298	-24,88
852,514	-26,77
852,731	-24,21
852,948	-21,12
853,164	-21,02
853,381	-20,95
853,597	-22,23
853,814	-24,14
854,03	-25,71
854,247	-24,51
854,463	-23,75
854,68	-23,85
854,896	-23,27
855,113	-22,22
855,329	-21,57
855,545	-18,65
855,762	-19,72
855,978	-23,52
856,194	-24,47
856,411	-20,11
856,627	-18,1
856,843	-17,65
857,059	-15,99
857,275	-17,18
857,492	-15,78
857,708	-11,66
857,924	-10,6
858,14	-7,9
858,356	-6,91
858,572	-7,05
858,788	-9,52
859,004	-6,5
859,22	-7,28
859,436	-7,13
859,652	-9,97
859,868	-11,72
860,084	-10,46
860,3	-10,63
860,516	-10,73
860,731	-11,44
860,947	-14,02
861,163	-12,17
861,379	-11,4
861,595	-10,97
861,81	-10,36
862,026	-10,33
862,242	-11,58
862,457	-11,74
862,673	-9,3
862,889	-9,3
863,104	-11,34
863,32	-10,32
863,535	-7,09
863,751	-11,64
863,966	-8,23
864,182	-6,92
864,397	-10,47
864,613	-12,74
864,828	-14,03
865,044	-13,72
865,259	-11,97
865,474	-11,43
865,69	-10,71
865,905	-10,39
866,12	-13,04
866,336	-11,95
866,551	-11,11
866,766	-12,16
866,981	-11,36
867,196	-10,77
867,412	-8,84
867,627	-7,89
867,842	-10,81
868,057	-10,12
868,272	-9,83
868,487	-12,25
868,702	-14,72
868,917	-14,83
869,132	-13,42
869,347	-13,06
869,562	-13,77
869,777	-13,56
869,992	-15,49
870,207	-17,49
870,422	-17,57
870,636	-19,8
870,851	-20,84
871,066	-21,56
871,281	-20,67
871,495	-21,46
871,71	-17,95
871,925	-21,68
872,14	-21,86
872,354	-23,84
872,569	-25,59
872,783	-23,67
872,998	-22,55
873,213	-23,41
873,427	-21,17
873,642	-20,63
873,856	-21,01
874,071	-22,46
874,285	-23,73
874,5	-23,56
874,714	-25,71
874,928	-26,96
875,143	-25,63
875,357	-24,38
875,571	-26,13
875,786	-24,94
876	-21,82
876,214	-19,09
876,429	-19,84
876,643	-19,5
876,857	-17,77
877,071	-17,35
877,285	-19,35
877,499	-23,15
877,714	-20,79
877,928	-18,94
878,142	-19,59
878,356	-23,05
878,57	-20,51
878,784	-19,47
878,998	-20,14
879,212	-16,73
879,426	-18,09
879,639	-18,15
879,853	-18,51
880,067	-19,27
880,281	-19,63
880,495	-16,95
880,709	-13,48
880,922	-11,85
881,136	-10,3
881,35	-7,93
881,564	-8,69
881,777	-11,36
881,991	-11,27
882,205	-8,01
882,418	-9,56
882,632	-12,51
882,845	-13,32
883,059	-14,24
883,273	-13,71
883,486	-15,54
883,7	-12,07
883,913	-10,67
884,126	-7,59
884,34	-10,33
884,553	-11,21
884,767	-8,69
884,98	-7,77
885,193	-9,77
885,407	-9,97
885,62	-7,43
885,833	-7,78
886,046	-5,15
886,26	-6,18
886,473	-6,86
886,686	-7,36
886,899	-6,3
887,112	-7,95
887,326	-10,37
887,539	-9,28
887,752	-8,77
887,965	-11,37
888,178	-9,45
888,391	-8,76
888,604	-8,29
888,817	-9,51
889,03	-7,67
889,243	-9,26
889,455	-11,32
889,668	-10,22
889,881	-7,59
890,094	-8,84
890,307	-12,82
890,52	-11,93
890,732	-10,46
890,945	-9,78
891,158	-10,39
891,37	-12,01
891,583	-11,63
891,796	-10,36
892,008	-11,65
892,221	-13,8
892,434	-17,21
892,646	-20,41
892,859	-20,94
893,071	-19,39
893,284	-16,08
893,496	-15,83
893,709	-16,16
893,921	-16,12
894,133	-17,87
894,346	-18,89
894,558	-19,01
894,771	-19,75
894,983	-16,47
895,195	-15,94
895,407	-16,69
895,62	-19,83
895,832	-18,21
896,044	-16,67
896,256	-17,55
896,468	-20,57
896,681	-16,57
896,893	-15,24
897,105	-15,13
897,317	-16,64
897,529	-15,02
897,741	-14,08
897,953	-10,8
898,165	-13,13
898,377	-12,8
898,589	-11,69
898,801	-11,92
899,013	-9,18
899,224	-5,13
899,436	-3,05
899,648	-4,35
899,86	-7,22
900,072	-5,13
900,283	-5,27
900,495	-2,49
900,707	-1,01
900,919	-4,1
901,13	-0,8
901,342	-2,23
901,554	-3,88
901,765	-3,35
901,977	-5,08
902,188	-4,82
902,4	-7,01
902,611	-7,5
902,823	-8,56
903,034	-9,86
903,246	-13,61
903,457	-15,41
903,669	-16,2
903,88	-16,91
904,091	-17,84
904,303	-16,29
904,514	-19,34
904,725	-17,18
904,936	-18,56
905,148	-18,16
905,359	-15,58
905,57	-15,76
905,781	-18,5
905,992	-19,74
906,204	-18,44
906,415	-18,61
906,626	-21,52
906,837	-17,47
907,048	-19,64
907,259	-21,12
907,47	-19,42
907,681	-21,02
907,892	-18,06
908,103	-19,75
908,314	-22,96
908,525	-20,67
908,735	-19,52
908,946	-19,93
909,157	-21,13
909,368	-18,56
909,579	-17,48
909,789	-17,83
910	-18,43
910,211	-16,88
910,421	-17,33
910,632	-17,7
910,843	-20,26
911,053	-16,88
911,264	-13,64
911,475	-13,59
911,685	-14,44
911,896	-13,29
912,106	-12,63
912,317	-14,3
912,527	-12,43
912,737	-12,51
912,948	-11,65
913,158	-11,61
913,369	-15,65
913,579	-13,92
913,789	-12,97
914	-10,58
914,21	-11,05
914,42	-11,03
914,63	-9,42
914,841	-6,96
915,051	-5,07
915,261	-5,09
915,471	-1,5
915,681	-0,42
915,891	0,18
916,101	-0,04
916,311	-0,03
916,521	2,02
916,731	3,05
916,941	6,14
917,151	6,19
917,361	9,8
917,571	4,83
917,781	3,37
917,991	1,9
918,201	1,69
918,411	-2,58
918,621	-3,45
918,83	-2,01
919,04	-5,2
919,25	-3,23
919,46	-2,98
919,669	-5
919,879	-5,24
920,089	-7,03
920,298	-8,32
920,508	-8,39
920,717	-8,11
920,927	-11,79
921,136	-11,96
921,346	-13,17
921,555	-17,17
921,765	-16,82
921,974	-19,4
922,184	-22
922,393	-23,7
922,603	-25,13
922,812	-23,27
923,021	-24,04
923,23	-25,87
923,44	-29,3
923,649	-28,95
923,858	-30,61
924,067	-29,39
924,277	-32,87
924,486	-31,64
924,695	-32,08
924,904	-29,08
925,113	-30,06
925,322	-30,64
925,531	-28,98
925,74	-30,88
925,949	-30,37
926,158	-28,2
926,367	-27,31
926,576	-25,98
926,785	-26,13
926,994	-26,97
927,203	-26
927,412	-24,81
927,621	-25,77
927,83	-23,79
928,038	-23,62
928,247	-24,34
928,456	-24,86
928,665	-22,68
928,873	-20,68
929,082	-17,31
929,291	-16,53
929,499	-15,84
929,708	-16,51
929,916	-15,93
930,125	-16,45
930,333	-18,88
930,542	-17,1
930,75	-14,04
930,959	-11,41
931,167	-11,3
931,376	-12,19
931,584	-11,01
931,793	-8,39
932,001	-9,82
932,209	-11,91
932,418	-15,22
932,626	-15,92
932,834	-16,76
933,042	-20,21
933,251	-19,87
933,459	-19,19
933,667	-21,47
933,875	-21,71
934,083	-19,36
934,291	-18,16
934,499	-17,39
934,707	-18,12
934,915	-17,49
935,123	-16,5
935,331	-17,5
935,539	-20,79
935,747	-21,17
935,955	-21,46
936,163	-22,36
936,371	-21,71
936,579	-19,73
936,787	-18,74
936,995	-19,06
937,202	-21,31
937,41	-22,89
937,618	-22,07
937,826	-22,55
938,033	-25,41
938,241	-28,41
938,449	-25,08
938,656	-22,39
938,864	-22,08
939,071	-22,41
939,279	-20,67
939,486	-16,72
939,694	-16,61
939,901	-19,23
940,109	-17,1
940,316	-16,69
940,524	-18,47
940,731	-20,53
940,939	-18,95
941,146	-18,28
941,353	-18,32
941,561	-18,99
941,768	-20
941,975	-18
942,182	-20,3
942,39	-18,72
942,597	-14,68
942,804	-14,87
943,011	-14,55
943,218	-13,91
943,425	-14,67
943,632	-14,02
943,839	-15,36
944,046	-16,51
944,253	-16,61
944,46	-16,03
944,667	-12,91
944,874	-14,67
945,081	-13,77
945,288	-12,4
945,495	-11,08
945,702	-11,25
945,909	-14,09
946,115	-12,78
946,322	-13,14
946,529	-14,33
946,736	-14,62
946,942	-13,1
947,149	-14
947,356	-15,31
947,562	-16,9
947,769	-16,75
947,976	-17,58
948,182	-16,35
948,389	-17,78
948,595	-15,78
948,802	-17,32
949,008	-19,24
949,215	-16,91
949,421	-19,68
949,628	-21,13
949,834	-21,3
950,04	-21,23
950,247	-17,73
950,453	-16,65
950,659	-16,96
950,865	-15,54
951,072	-18,39
951,278	-15,8
951,484	-17,32
951,69	-20,17
951,896	-21,15
952,103	-22,16
952,309	-21,11
952,515	-21,84
952,721	-19,65
952,927	-19,39
953,133	-19,52
953,339	-21,32
953,545	-22,31
953,751	-21,13
953,957	-18,78
954,163	-20,86
954,369	-19,9
954,574	-21,64
954,78	-20,35
954,986	-19,79
955,192	-16,4
955,398	-17,09
955,603	-19,78
955,809	-17,39
956,015	-15,68
956,22	-15,12
956,426	-15,17
956,632	-17,63
956,837	-18,58
957,043	-17,71
957,248	-16,96
957,454	-17,84
957,66	-20,61
957,865	-21,23
958,07	-19,78
958,276	-21,06
958,481	-21,76
958,687	-23,08
958,892	-22,97
959,097	-23,45
959,303	-22,22
959,508	-22,86
959,713	-22
959,919	-21,74
960,124	-22,67
960,329	-21,17
960,534	-17,09
960,739	-15,18
960,945	-12,97
961,15	-13
961,355	-14,35
961,56	-18,8
961,765	-19,7
961,97	-20,86
962,175	-18,69
962,38	-22,58
962,585	-22,43
962,79	-23,48
962,995	-24
963,2	-25,24
963,404	-25,61
963,609	-27,15
963,814	-28,54
964,019	-30,64
964,224	-31,95
964,428	-29,65
964,633	-27,87
964,838	-27,66
965,042	-27,26
965,247	-29,23
965,452	-28,02
965,656	-28,2
965,861	-26,41
966,066	-26,94
966,27	-23,95
966,475	-19,76
966,679	-25,59
966,884	-25,38
967,088	-28,03
967,292	-28,1
967,497	-28,27
967,701	-28,41
967,906	-28,19
968,11	-26,8
968,314	-23,02
968,518	-24,85
968,723	-21,15
968,927	-19,54
969,131	-18,52
969,335	-16,54
969,539	-14,98
969,744	-14,64
969,948	-13,03
970,152	-10,32
970,356	-8,09
970,56	-7,52
970,764	-8,88
970,968	-6,9
971,172	-6,41
971,376	-4,6
971,58	-2,87
971,784	-3,73
971,988	-4,02
972,192	-2,16
972,395	-3,19
972,599	-5,07
972,803	-7,58
973,007	-4,75
973,21	-4,98
973,414	-5,74
973,618	-6,76
973,822	-6,96
974,025	-7,65
974,229	-7,05
974,432	-8,53
974,636	-10,27
974,84	-9,55
975,043	-9,48
975,247	-12,59
975,45	-12,52
975,654	-11,14
975,857	-10,24
976,06	-10,17
976,264	-11,54
976,467	-9,25
976,671	-10,91
976,874	-9,56
977,077	-10,55
977,28	-11,78
977,484	-13,86
977,687	-15,51
977,89	-13,17
978,093	-12,48
978,297	-12,45
978,5	-14,97
978,703	-13,84
978,906	-13,22
979,109	-12,91
979,312	-12,69
979,515	-13,39
979,718	-13,89
979,921	-13,54
980,124	-14,8
980,327	-14,48
980,53	-13,98
980,733	-12,9
980,936	-10,29
981,138	-12,95
981,341	-12,98
981,544	-12,03
981,747	-12,38
981,949	-14,61
982,152	-13,24
982,355	-13,94
982,558	-11,25
982,76	-15,06
982,963	-15,1
983,165	-16,15
983,368	-15,59
983,571	-15,86
983,773	-11,82
983,976	-11,23
984,178	-12,06
984,381	-12,82
984,583	-16
984,785	-15,2
984,988	-13,36
985,19	-11,74
985,392	-14,02
985,595	-16,03
985,797	-16,94
985,999	-13,42
986,202	-11,85
986,404	-13,17
986,606	-9,43
986,808	-10,67
987,01	-8,91
987,212	-10,38
987,415	-11,4
987,617	-10,93
987,819	-12,85
988,021	-12,76
988,223	-13,94
988,425	-16,31
988,627	-16,03
988,829	-20,05
989,031	-17,13
989,232	-17,55
989,434	-16,27
989,636	-16,16
989,838	-15,91
990,04	-16,89
990,242	-17,47
990,443	-20,19
990,645	-17,69
990,847	-13,96
991,048	-14,65
991,25	-15,54
991,452	-17,34
991,653	-17,46
991,855	-16,31
992,057	-16,66
992,258	-16,23
992,46	-17,55
992,661	-15,14
992,863	-17,28
993,064	-15,48
993,265	-17,2
993,467	-18,3
993,668	-14,65
993,87	-14,62
994,071	-13,18
994,272	-12,69
994,473	-10,4
994,675	-8,29
994,876	-7,88
995,077	-6,13
995,278	-5,65
995,48	-5,28
995,681	-6,82
995,882	-5,52
996,083	-6,46
996,284	-8,59
996,485	-8,24
996,686	-8,04
996,887	-10,23
997,088	-13,79
997,289	-15,32
997,49	-15,78
997,691	-15,74
997,892	-15,51
998,092	-11,33
998,293	-10,85
998,494	-12,77
998,695	-13,12
998,896	-11,36
999,096	-11,96
999,297	-12,46
999,498	-14,78
999,698	-17,11
999,899	-20,96
1000,1	-21,93
1000,3	-21,82
1000,501	-22,27
1000,701	-22,33
1000,902	-21,47
1001,102	-21,77
1001,303	-21,41
1001,503	-24,37
1001,704	-23,48
1001,904	-23,56
1002,105	-23,23
1002,305	-23,85
1002,505	-25,03
1002,706	-26,35
1002,906	-26,47
1003,106	-27
1003,306	-25,83
1003,507	-23,96
1003,707	-24,2
1003,907	-21,81
1004,107	-20,85
1004,307	-23,2
1004,507	-21,92
1004,707	-21,1
1004,907	-22,67
1005,107	-23,15
1005,308	-22,98
1005,507	-23,53
1005,707	-19,69
1005,907	-19,57
1006,107	-17,32
1006,307	-16,65
1006,507	-15,55
1006,707	-13,89
1006,907	-14,32
1007,106	-16,46
1007,306	-17,39
1007,506	-16,25
1007,706	-14,72
1007,905	-15,43
1008,105	-15,28
1008,305	-17,2
1008,504	-16,54
1008,704	-10,54
1008,903	-9,06
1009,103	-6,84
1009,303	-9,66
1009,502	-8,99
1009,702	-9,07
1009,901	-8,41
1010,1	-11,41
1010,3	-10,78
1010,499	-11,64
1010,699	-13,56
1010,898	-15,98
1011,097	-14,17
1011,296	-15,09
1011,496	-16,64
1011,695	-18,43
1011,894	-20,96
1012,093	-17,28
1012,293	-16,66
1012,492	-15,7
1012,691	-17,08
1012,89	-19,58
1013,089	-21,5
1013,288	-21,09
1013,487	-21,03
1013,686	-22,43
1013,885	-24,63
1014,084	-23,83
1014,283	-23,19
1014,482	-23,6
1014,681	-22,62
1014,88	-27,62
1015,078	-26,22
1015,277	-28,8
1015,476	-28,69
1015,675	-28,21
1015,873	-28,57
1016,072	-30,83
1016,271	-27,03
1016,47	-29,11
1016,668	-28,09
1016,867	-28,52
1017,065	-29
1017,264	-30,38
1017,463	-29,53
1017,661	-28,22
1017,86	-26,19
1018,058	-24,28
1018,256	-26,06
1018,455	-27,73
1018,653	-28,05
1018,852	-27,62
1019,05	-29,08
1019,248	-30,24
1019,447	-30,61
1019,645	-29,4
1019,843	-31,08
1020,041	-29,55
1020,24	-30,6
1020,438	-27,37
1020,636	-28,21
1020,834	-31,25
1021,032	-28,66
1021,23	-30,42
1021,428	-28,86
1021,626	-23,82
1021,824	-23,97
1022,022	-24,66
1022,22	-22,27
1022,418	-22,52
1022,616	-23,23
1022,814	-24,36
1023,012	-24,81
1023,21	-21,89
1023,408	-22,49
1023,606	-25,4
1023,803	-21,11
1024,001	-22,57
1024,199	-26,17
1024,397	-25,94
1024,594	-25,61
1024,792	-28,02
1024,99	-28,31
1025,187	-26,95
1025,385	-23,08
1025,582	-23,18
1025,78	-24,57
1025,977	-22,12
1026,175	-21,34
1026,372	-20,34
1026,57	-22,92
1026,767	-19,13
1026,965	-17,04
1027,162	-17,17
1027,359	-17,53
1027,557	-16,62
1027,754	-22,04
1027,951	-23,07
1028,148	-20,85
1028,346	-21,75
1028,543	-24,81
1028,74	-25,47
1028,937	-26,65
1029,134	-26,59
1029,331	-28,46
1029,528	-28,24
1029,725	-27,6
1029,923	-30,31
1030,12	-25,51
1030,317	-23,74
1030,513	-22,53
1030,71	-20,16
1030,907	-19,02
1031,104	-18,81
1031,301	-19,74
1031,498	-19,2
1031,695	-19,11
1031,892	-19,08
1032,088	-19,46
1032,285	-21,35
1032,482	-22,44
1032,678	-24,92
1032,875	-28,92
1033,072	-28,81
1033,268	-28,31
1033,465	-27,7
1033,662	-30,55
1033,858	-28,13
1034,055	-27,39
1034,251	-25,37
1034,448	-28,05
1034,644	-26,62
1034,84	-24,28
1035,037	-22,57
1035,233	-21,78
1035,43	-19,05
1035,626	-19,09
1035,822	-18,89
1036,019	-20,39
1036,215	-23,71
1036,411	-24,84
1036,607	-25,58
1036,803	-29,24
1037	-29,25
1037,196	-29,62
1037,392	-30,72
1037,588	-33,64
1037,784	-32,64
1037,98	-32,84
1038,176	-32,41
1038,372	-32,55
1038,568	-30,73
1038,764	-28,2
1038,96	-24,29
1039,156	-25,71
1039,352	-28,24
1039,547	-27,03
1039,743	-25,74
1039,939	-23,6
1040,135	-24,05
1040,331	-26,92
1040,526	-22,85
1040,722	-24,14
1040,918	-24,93
1041,113	-27,98
1041,309	-29,25
1041,505	-33,02
1041,7	-31,4
1041,896	-29,45
1042,091	-28,63
1042,287	-27,72
1042,482	-26,07
1042,678	-26,75
1042,873	-25,14
1043,069	-25,4
1043,264	-24,91
1043,459	-22,03
1043,655	-20,78
1043,85	-22,18
1044,045	-20,51
1044,24	-21,55
1044,436	-19,03
1044,631	-20,42
1044,826	-21,81
1045,021	-25,05
1045,216	-23,42
