Data from led_4000k_2_FLMT021711__4__17-32-40-619.txt Node

Date: Tue Nov 05 17:32:40 CET 2024
User: Etudiants TP
Spectrometer: FLMT02171
Trigger mode: 0
Integration Time (sec): 1,000000E-1
Scans to average: 5
Electric dark correction enabled: true
Nonlinearity correction enabled: true
Boxcar width: 15
XAxis mode: Wavelengths
Number of Pixels in Spectrum: 3648
>>>>>Begin Spectral Data<<<<<
194,658	-61,63
194,923	-61,8
195,188	-55,59
195,453	-54,61
195,717	-48,95
195,982	-47,5
196,247	-45,7
196,512	-49,15
196,777	-46,66
197,042	-45,08
197,307	-44,57
197,572	-40,02
197,837	-40,06
198,101	-37,66
198,366	-35,85
198,631	-33,45
198,896	-27,35
199,161	-19,63
199,425	-11,52
199,69	-2,04
199,955	-2,21
200,22	-5,82
200,484	-5,6
200,749	-7,74
201,014	-6,23
201,278	-5,9
201,543	-5,41
201,807	-7,31
202,072	-6,46
202,337	-5,44
202,601	-5,49
202,866	-6,33
203,13	-4,54
203,395	-5,64
203,659	-6,37
203,924	-8,3
204,189	-7,5
204,453	-6,6
204,717	-3,72
204,982	-3,33
205,246	-1,6
205,511	0,34
205,775	-0,87
206,04	4,95
206,304	5,49
206,568	6,99
206,833	6,17
207,097	7,85
207,361	8,8
207,626	11,11
207,89	11,11
208,154	11,58
208,419	13,61
208,683	12,74
208,947	16,41
209,211	15,98
209,476	15,82
209,74	16,19
210,004	16,76
210,268	18,23
210,532	20,78
210,796	20,38
211,061	20,22
211,325	22,55
211,589	20,72
211,853	22,07
212,117	21,48
212,381	22,35
212,645	22,37
212,909	21,96
213,173	19,27
213,437	19,24
213,701	19,39
213,965	20,44
214,229	15,67
214,493	15,17
214,757	14,15
215,021	15,33
215,285	18,6
215,549	21,51
215,813	19,57
216,077	19,42
216,34	21,14
216,604	20,67
216,868	20,78
217,132	22,08
217,396	21,04
217,659	21,29
217,923	17,52
218,187	17,97
218,451	15,37
218,714	12,07
218,978	13,26
219,242	15,33
219,505	14,46
219,769	16,51
220,033	17,25
220,296	18,89
220,56	18,86
220,824	17,6
221,087	18,68
221,351	18,83
221,614	17,76
221,878	18,38
222,142	17,05
222,405	15,15
222,669	17,34
222,932	14,79
223,196	11,92
223,459	8,29
223,722	8,51
223,986	6,6
224,249	6,16
224,513	5,41
224,776	5,45
225,04	5,06
225,303	2,42
225,566	2,38
225,83	5,1
226,093	8,14
226,356	6,52
226,62	6,28
226,883	8,73
227,146	8,06
227,409	8,45
227,673	5,37
227,936	3,48
228,199	2,74
228,462	0,72
228,725	0,15
228,989	-0,17
229,252	1,57
229,515	7,88
229,778	6,41
230,041	6,16
230,304	3,13
230,567	6,17
230,83	4,16
231,093	5,49
231,356	5,37
231,619	11,61
231,882	9,54
232,145	13,08
232,408	11,29
232,671	10,7
232,934	10,75
233,197	9,61
233,46	8,98
233,723	10,95
233,986	8,91
234,249	6,64
234,512	8,89
234,775	12,9
235,037	11,24
235,3	12,32
235,563	11,86
235,826	15,21
236,089	16,83
236,351	16,63
236,614	19,54
236,877	20,08
237,14	22,43
237,402	21,79
237,665	14,95
237,928	14,95
238,19	12,12
238,453	15,86
238,716	15,7
238,978	15,3
239,241	14,27
239,503	17,48
239,766	12,77
240,029	11,8
240,291	14,02
240,554	15,05
240,816	14,66
241,079	14,64
241,341	15,48
241,604	15,67
241,866	12,1
242,129	12,8
242,391	14,74
242,653	14,15
242,916	13,42
243,178	14,04
243,441	14,05
243,703	13,27
243,965	9,76
244,228	10,87
244,49	11,49
244,752	11,75
245,015	12,31
245,277	13,86
245,539	13,12
245,801	14,54
246,064	13,97
246,326	13,09
246,588	12,81
246,85	12,9
247,112	12,99
247,374	14,84
247,637	15,77
247,899	15,46
248,161	15,25
248,423	10,61
248,685	9,7
248,947	10,47
249,209	10,59
249,471	10,17
249,733	9,63
249,995	8,78
250,257	8,68
250,519	7,99
250,781	9,25
251,043	6,89
251,305	8,76
251,567	10,84
251,829	11,05
252,091	11,86
252,353	8,33
252,615	7,45
252,876	6,9
253,138	5,12
253,4	1,88
253,662	2,4
253,924	4,69
254,185	6,81
254,447	8,47
254,709	8,76
254,971	10,05
255,232	13,25
255,494	13,27
255,756	10,79
256,017	13,41
256,279	14,88
256,541	14,9
256,802	15,72
257,064	15,63
257,326	13,47
257,587	15,48
257,849	16,73
258,11	20,42
258,372	21,65
258,633	22,5
258,895	21,03
259,156	19,83
259,418	16,6
259,679	11,86
259,941	9,31
260,202	11,28
260,464	13,28
260,725	12,57
260,987	9,53
261,248	9,05
261,509	8,29
261,771	6,48
262,032	8
262,293	7,66
262,555	6,81
262,816	3,97
263,077	2,18
263,338	-1,25
263,6	-1,02
263,861	-1,04
264,122	-4,49
264,383	-3,82
264,645	-1,11
264,906	-2,25
265,167	-0,46
265,428	-0,24
265,689	0,38
265,95	-2,1
266,211	-1,07
266,473	-1,57
266,734	-5,91
266,995	-8,64
267,256	-7,26
267,517	-4,1
267,778	0,11
268,039	1,72
268,3	-0,29
268,561	-2,03
268,822	2,11
269,083	1,85
269,344	0,1
269,604	0,99
269,865	1,35
270,126	-3,19
270,387	-2,86
270,648	-1,84
270,909	-1,65
271,17	-3,02
271,43	-6,5
271,691	-9,48
271,952	-12,04
272,213	-9,22
272,473	-8,95
272,734	-9,05
272,995	-6,56
273,256	-6,81
273,516	-3,5
273,777	-6,22
274,038	-3,66
274,298	-6,64
274,559	-7,26
274,82	-1,67
275,08	2,37
275,341	4,16
275,601	3,14
275,862	0,33
276,122	1,36
276,383	2,78
276,643	3,44
276,904	1,9
277,164	5,25
277,425	6,36
277,685	9,4
277,946	10,73
278,206	11,94
278,467	13,27
278,727	14,6
278,987	14,2
279,248	14,02
279,508	16,48
279,768	18,88
280,029	22,79
280,289	19,92
280,549	16,66
280,81	15,52
281,07	12,97
281,33	13,24
281,59	10,23
281,851	13,65
282,111	13,39
282,371	12,74
282,631	13,62
282,891	12,46
283,151	10,12
283,412	7,39
283,672	6,95
283,932	7,05
284,192	8,16
284,452	6,33
284,712	4,81
284,972	3,49
285,232	0,82
285,492	3,07
285,752	-0,69
286,012	4,96
286,272	7,32
286,532	4,81
286,792	3,67
287,052	6,23
287,312	7,63
287,571	7,33
287,831	8,25
288,091	5,43
288,351	6,29
288,611	11,11
288,871	11,07
289,13	12,21
289,39	7,93
289,65	9,99
289,91	6,84
290,17	8,21
290,429	10,3
290,689	7,59
290,949	4,23
291,208	6,04
291,468	9,5
291,728	10,46
291,987	12,67
292,247	10,08
292,506	13,55
292,766	16,57
293,026	15,23
293,285	16,43
293,545	17,8
293,804	19,07
294,064	14,42
294,323	11,56
294,583	12,94
294,842	12,87
295,102	13,13
295,361	12,15
295,621	12,71
295,88	12,5
296,139	12,3
296,399	12,07
296,658	5,3
296,917	5,54
297,177	2,22
297,436	4,74
297,695	3,33
297,955	5,72
298,214	4,81
298,473	6,15
298,732	9,85
298,992	12,49
299,251	11,49
299,51	7,34
299,769	7,78
300,028	7,8
300,287	8,52
300,547	7,25
300,806	4,56
301,065	8,06
301,324	8,7
301,583	5,15
301,842	1,98
302,101	0,5
302,36	1,05
302,619	-0,81
302,878	0,47
303,137	-2,43
303,396	0,55
303,655	1,48
303,914	-1,15
304,173	-1,54
304,432	-2,55
304,691	1,49
304,95	-0,43
305,208	4,92
305,467	5,43
305,726	3,93
305,985	4,31
306,244	6,85
306,503	6,44
306,761	4,52
307,02	2,6
307,279	2,93
307,537	4,39
307,796	1,04
308,055	-1,58
308,314	-0,9
308,572	-2,39
308,831	-0,42
309,09	-0,15
309,348	1,38
309,607	2,05
309,865	5,52
310,124	4,91
310,382	6,85
310,641	7,92
310,9	5,77
311,158	8,53
311,417	6,66
311,675	7
311,933	8,32
312,192	11,05
312,45	12,8
312,709	13,75
312,967	13,71
313,226	13,06
313,484	11,56
313,742	10,49
314,001	8,79
314,259	4,89
314,517	6,11
314,776	7,83
315,034	9,91
315,292	7,18
315,55	5,43
315,809	5,38
316,067	5,92
316,325	4,81
316,583	6,74
316,841	6,47
317,1	4,3
317,358	0,41
317,616	-1,33
317,874	-2,93
318,132	-2,69
318,39	-3,52
318,648	-5,01
318,906	-3,98
319,164	-6,36
319,422	-7,17
319,68	-8,02
319,938	-8,28
320,196	-8,94
320,454	-8,19
320,712	-9,68
320,97	-9,68
321,228	-11,01
321,486	-8,28
321,744	-4,42
322,002	-2,47
322,26	-2,64
322,517	-3,67
322,775	-6,93
323,033	-7,85
323,291	-3,77
323,549	-2,85
323,806	-0,08
324,064	-0,37
324,322	0,49
324,58	-1,29
324,837	-0,13
325,095	-1,37
325,353	0,85
325,61	4,29
325,868	5,45
326,126	8,46
326,383	7,26
326,641	7,5
326,898	8,15
327,156	7,77
327,413	8,16
327,671	8,65
327,928	10,55
328,186	10,96
328,443	9,31
328,701	12,71
328,958	13,73
329,216	12,81
329,473	10,66
329,731	8,38
329,988	8,37
330,245	10,67
330,503	11,45
330,76	11,98
331,017	14,24
331,275	11,36
331,532	11,16
331,789	8,13
332,047	8,16
332,304	6,26
332,561	6,13
332,818	5,35
333,076	6,22
333,333	6,66
333,59	6,59
333,847	7,64
334,104	6,56
334,361	5,51
334,618	5,28
334,876	4,67
335,133	5,01
335,39	3,95
335,647	5,03
335,904	1,57
336,161	-0,84
336,418	-0,18
336,675	-3,89
336,932	-1,46
337,189	-1,6
337,446	-1,18
337,703	-1,72
337,96	-6,06
338,216	-7,45
338,473	-9,63
338,73	-9,82
338,987	-9,82
339,244	-6,37
339,501	-7,59
339,757	-6,01
340,014	-4,05
340,271	-2,95
340,528	-1,73
340,785	3
341,041	3,74
341,298	1,59
341,555	-0,78
341,811	-2,56
342,068	-6,17
342,325	-5,38
342,581	-2,12
342,838	-2,46
343,094	-1,54
343,351	-2,26
343,608	-5,27
343,864	-3,12
344,121	-2,17
344,377	-2,83
344,634	-3,87
344,89	-6,63
345,147	-5,86
345,403	-6,45
345,66	-6,58
345,916	-3,03
346,172	-3,46
346,429	-4,76
346,685	-5,9
346,942	-6,64
347,198	-11,27
347,454	-10,09
347,711	-9,74
347,967	-13,15
348,223	-11,79
348,48	-12,89
348,736	-11,65
348,992	-12,3
349,248	-9,67
349,504	-8,81
349,761	-8,53
350,017	-7,92
350,273	-7,13
350,529	-8,87
350,785	-9,64
351,041	-11,32
351,297	-8,9
351,554	-10,05
351,81	-12,14
352,066	-13,41
352,322	-13,59
352,578	-12,36
352,834	-13,49
353,09	-14,68
353,346	-14,29
353,602	-14,85
353,858	-17,95
354,114	-18,4
354,369	-17,04
354,625	-15,17
354,881	-16,76
355,137	-13,69
355,393	-13,87
355,649	-13,99
355,905	-13,77
356,16	-14,01
356,416	-13,24
356,672	-20,28
356,928	-19,47
357,183	-21,2
357,439	-21,51
357,695	-22,04
357,951	-17,18
358,206	-17,86
358,462	-17,81
358,718	-17,39
358,973	-15,22
359,229	-15,24
359,484	-13
359,74	-9,68
359,996	-8,08
360,251	-5,25
360,507	-6,33
360,762	-5,08
361,018	-1,45
361,273	-3,65
361,529	-1,74
361,784	-1,08
362,04	0,88
362,295	-0,44
362,55	0,96
362,806	2,63
363,061	2,93
363,316	3,55
363,572	4,86
363,827	6,92
364,082	3
364,338	3,66
364,593	3,82
364,848	3,88
365,104	3,42
365,359	6,7
365,614	6,73
365,869	3,25
366,124	3,96
366,38	4,34
366,635	5,73
366,89	6,95
367,145	6,75
367,4	9,33
367,655	8,97
367,91	10
368,165	7,41
368,42	4,86
368,675	5,17
368,93	4,93
369,185	3,51
369,44	3,84
369,695	7,07
369,95	4,61
370,205	4,96
370,46	4,29
370,715	2,98
370,97	4,2
371,225	4,29
371,48	5,18
371,734	6,7
371,989	9,49
372,244	8,14
372,499	10,25
372,754	10,16
373,008	8,62
373,263	3,97
373,518	6,4
373,773	5,58
374,027	3,4
374,282	3,92
374,537	2,97
374,791	3,56
375,046	2,12
375,301	1,22
375,555	0,04
375,81	1,29
376,064	3,58
376,319	8,32
376,573	7,72
376,828	2,3
377,082	7,89
377,337	6,58
377,591	3,2
377,846	4,56
378,1	6,45
378,355	6,58
378,609	6,37
378,863	2,45
379,118	3,46
379,372	1,01
379,627	-1,15
379,881	-3,5
380,135	-4,06
380,389	-3,12
380,644	-3,24
380,898	-3,27
381,152	-2,31
381,407	-3,56
381,661	-1,38
381,915	1,21
382,169	1,33
382,423	-0,05
382,677	-3,54
382,932	-1,05
383,186	-0,34
383,44	-0,8
383,694	0,13
383,948	-2,19
384,202	-4,92
384,456	-2,88
384,71	0,83
384,964	-1,35
385,218	-0
385,472	0,7
385,726	-0,26
385,98	-0,55
386,234	-0,52
386,488	-2,64
386,742	-0,73
386,996	-2,36
387,249	-0,74
387,503	0,56
387,757	2,81
388,011	4,32
388,265	3,88
388,518	5,41
388,772	8,62
389,026	10,52
389,28	9,24
389,533	7,89
389,787	10,49
390,041	8,62
390,295	9,55
390,548	9,09
390,802	10,27
391,055	8,95
391,309	8,31
391,563	6,08
391,816	6,62
392,07	7,04
392,323	7,55
392,577	6,61
392,83	7,5
393,084	12,71
393,337	15,86
393,591	17,91
393,844	18,08
394,098	21,64
394,351	25,91
394,604	26,74
394,858	28,54
395,111	29,35
395,364	26,99
395,618	28,58
395,871	26,78
396,124	25,48
396,378	24,5
396,631	23,76
396,884	19,79
397,137	18,16
397,391	18,31
397,644	14,46
397,897	14,75
398,15	16,86
398,403	19,71
398,657	17,12
398,91	16,38
399,163	18,56
399,416	18,98
399,669	16,84
399,922	14,83
400,175	12,3
400,428	13,75
400,681	13,71
400,934	9,83
401,187	9,21
401,44	8,89
401,693	7,96
401,946	3,16
402,199	-1,85
402,452	-2,7
402,704	-5,41
402,957	-7,2
403,21	-5,3
403,463	-6,55
403,716	-6,47
403,969	-5,13
404,221	-6,78
404,474	-5,32
404,727	-0,62
404,98	2,19
405,232	2,53
405,485	3,94
405,738	6,95
405,99	6,46
406,243	7,54
406,496	10,65
406,748	9,51
407,001	7,42
407,253	6,98
407,506	8,85
407,759	11,24
408,011	8,8
408,264	8,41
408,516	9,35
408,769	5,06
409,021	6,01
409,274	5,41
409,526	6,31
409,778	6,23
410,031	9,41
410,283	9,91
410,536	14,86
410,788	13,9
411,04	12,91
411,293	13,87
411,545	14,35
411,797	13,2
412,049	13,47
412,302	14,53
412,554	14,05
412,806	13,41
413,058	12,44
413,311	13,21
413,563	11,75
413,815	11,25
414,067	7,42
414,319	6,17
414,571	7,57
414,823	5,71
415,075	4,93
415,328	4,04
415,58	7,08
415,832	8,78
416,084	9,81
416,336	7,25
416,588	13,56
416,84	11,17
417,091	14,13
417,343	12,14
417,595	14,2
417,847	14,58
418,099	15,47
418,351	13,66
418,603	15,98
418,855	17,65
419,106	18,19
419,358	19,31
419,61	18,98
419,862	19,83
420,114	17,35
420,365	18,37
420,617	18,68
420,869	16,51
421,12	15,21
421,372	16,35
421,624	15,31
421,875	17,89
422,127	15,17
422,379	15,91
422,63	20,28
422,882	19,1
423,133	19,51
423,385	18,2
423,636	20,04
423,888	20,94
424,139	23,31
424,391	19,56
424,642	18,96
424,894	18,07
425,145	18,04
425,396	15,5
425,648	17,57
425,899	15,47
426,151	16,19
426,402	14,96
426,653	14,34
426,905	13,7
427,156	12,29
427,407	12,44
427,658	12,22
427,91	11,32
428,161	9,64
428,412	11,78
428,663	14,43
428,914	15,6
429,166	15,75
429,417	16,66
429,668	15,16
429,919	12,97
430,17	11,95
430,421	10,36
430,672	14,21
430,923	14,01
431,174	13,8
431,425	13,89
431,676	11,91
431,927	10,12
432,178	11,13
432,429	11,51
432,68	10,87
432,931	14,35
433,182	17,63
433,433	16,57
433,683	17,79
433,934	16,55
434,185	15,52
434,436	14,48
434,687	15,59
434,937	17,71
435,188	17,1
435,439	16,73
435,69	16,09
435,94	17,39
436,191	16,39
436,442	16,15
436,692	15,41
436,943	13,65
437,194	12,87
437,444	15,4
437,695	20,71
437,945	21,33
438,196	20,58
438,447	18,9
438,697	20,6
438,948	19,33
439,198	17,42
439,449	14,97
439,699	14,45
439,949	15,01
440,2	13,87
440,45	15,32
440,701	14,2
440,951	12,42
441,201	11,99
441,452	11,26
441,702	11,19
441,952	12,69
442,203	13,55
442,453	12,09
442,703	13,91
442,953	14,71
443,204	15,97
443,454	15,74
443,704	14,86
443,954	12,89
444,204	13,94
444,455	15,87
444,705	17,22
444,955	17,83
445,205	17,17
445,455	14,98
445,705	15,28
445,955	16,9
446,205	16,5
446,455	16,85
446,705	19,02
446,955	19,58
447,205	22,86
447,455	26,32
447,705	23,39
447,955	23,48
448,205	23,96
448,454	23,81
448,704	26,99
448,954	26,81
449,204	28,24
449,454	29,15
449,704	27,82
449,953	27,21
450,203	29,84
450,453	26,42
450,703	28,32
450,952	28,12
451,202	30,98
451,452	30,64
451,701	35,15
451,951	38,44
452,201	37,79
452,45	36,48
452,7	38,01
452,949	38,07
453,199	38,17
453,448	40
453,698	40,83
453,947	40,92
454,197	40,29
454,446	39,59
454,696	43,71
454,945	42,71
455,195	40,84
455,444	44,22
455,693	47,77
455,943	46,37
456,192	47,75
456,442	47,53
456,691	48,51
456,94	47,9
457,189	46,94
457,439	49,26
457,688	51,35
457,937	49,58
458,186	51,32
458,436	51,89
458,685	53,23
458,934	52,79
459,183	53,82
459,432	54,27
459,681	53,93
459,93	52,59
460,179	52,66
460,429	50,2
460,678	53,5
460,927	56,4
461,176	54,9
461,425	55,66
461,674	56,62
461,923	56,06
462,172	54,14
462,42	52,24
462,669	54,28
462,918	52,87
463,167	51,83
463,416	48,84
463,665	49,34
463,914	49,3
464,162	46,44
464,411	45,47
464,66	46,23
464,909	44,48
465,158	44,22
465,406	44,83
465,655	46,21
465,904	47,06
466,152	46,02
466,401	46,53
466,65	47,25
466,898	44,62
467,147	41,84
467,395	41,94
467,644	45
467,893	45,55
468,141	45,09
468,39	40,81
468,638	37,99
468,887	36,39
469,135	34,41
469,384	34,92
469,632	35,97
469,88	35,66
470,129	37,35
470,377	35,29
470,626	38,73
470,874	40,38
471,122	40,43
471,371	37,55
471,619	35,71
471,867	38,59
472,115	38,61
472,364	37,46
472,612	40,28
472,86	38,69
473,108	36,89
473,356	37,12
473,605	36,78
473,853	35,06
474,101	33,45
474,349	31,86
474,597	35,41
474,845	34,16
475,093	31,3
475,341	27,16
475,589	26,42
475,837	28,1
476,085	30,46
476,333	28,18
476,581	29,96
476,829	28,66
477,077	31,21
477,325	30,23
477,573	31,93
477,821	28,11
478,069	28,32
478,317	27,8
478,564	29,22
478,812	29,72
479,06	29,81
479,308	28,8
479,555	28,61
479,803	26,65
480,051	28,34
480,299	27,87
480,546	28,59
480,794	27,06
481,042	26,32
481,289	25,04
481,537	25,53
481,784	24,06
482,032	27,36
482,28	25,58
482,527	24,39
482,775	26,34
483,022	28,09
483,27	30,51
483,517	33,32
483,765	32,47
484,012	33,22
484,259	31,98
484,507	34,72
484,754	33,52
485,002	33,38
485,249	32,91
485,496	37,66
485,744	36,5
485,991	35,53
486,238	35,01
486,486	37,73
486,733	38,85
486,98	41,5
487,227	40,36
487,474	43,74
487,722	45,18
487,969	43,28
488,216	42,96
488,463	44,89
488,71	44,65
488,957	43,84
489,204	45,14
489,451	46,77
489,699	45,96
489,946	42,97
490,193	43,42
490,44	42,53
490,687	43,69
490,934	40,78
491,18	37,13
491,427	37,53
491,674	41,37
491,921	42,38
492,168	42,55
492,415	40,77
492,662	42,28
492,909	43,04
493,155	40,48
493,402	40,17
493,649	38,89
493,896	38,81
494,142	33,91
494,389	34,12
494,636	32,16
494,883	30,7
495,129	29,52
495,376	28,06
495,623	30,65
495,869	32,52
496,116	33,91
496,362	35,02
496,609	38,69
496,855	42,98
497,102	42,18
497,348	41,48
497,595	44,78
497,841	48,21
498,088	46,37
498,334	45,76
498,581	44,38
498,827	44,72
499,074	46,88
499,32	46,65
499,566	48,8
499,813	47,91
500,059	47,39
500,305	47,21
500,552	47,95
500,798	48,28
501,044	52,76
501,29	51,18
501,537	48,11
501,783	51,26
502,029	54,66
502,275	53,09
502,521	51,9
502,767	52,24
503,013	54,15
503,26	51,53
503,506	49,12
503,752	49,36
503,998	46,41
504,244	46,92
504,49	43,25
504,736	44,69
504,982	43,92
505,228	45,77
505,474	45,78
505,72	47,92
505,966	46,91
506,211	51,18
506,457	51,77
506,703	47,16
506,949	46,1
507,195	44,88
507,441	42
507,686	43,91
507,932	43,45
508,178	44,52
508,424	43,51
508,669	41,38
508,915	42,86
509,161	46,22
509,406	47,77
509,652	46,4
509,898	51,06
510,143	52,41
510,389	51,52
510,634	48,14
510,88	50,54
511,125	53,34
511,371	54,07
511,616	56,34
511,862	52,91
512,107	50,58
512,353	51,76
512,598	51,7
512,844	49,94
513,089	48,32
513,335	48,45
513,58	49,02
513,825	48,51
514,071	47,25
514,316	47,97
514,561	49,27
514,806	47,84
515,052	51,03
515,297	50,05
515,542	51,87
515,787	52,6
516,033	55,55
516,278	54,83
516,523	54,2
516,768	53,28
517,013	50,12
517,258	49,52
517,503	46,38
517,748	46,5
517,993	46,35
518,238	46,39
518,483	45,75
518,728	44,59
518,973	43,05
519,218	42,98
519,463	45,29
519,708	44,89
519,953	43,24
520,198	44,5
520,443	47,25
520,688	51
520,933	50,35
521,177	50,27
521,422	49,48
521,667	54,15
521,912	54,11
522,157	50,87
522,401	52,9
522,646	52,29
522,891	53,61
523,135	54
523,38	53,64
523,625	49,77
523,869	52,91
524,114	56,26
524,358	55,23
524,603	55,5
524,848	52,36
525,092	53,82
525,337	55,19
525,581	57,89
525,826	60,58
526,07	60,64
526,315	62,66
526,559	61,54
526,803	60,66
527,048	63,25
527,292	64,86
527,537	65,85
527,781	64,49
528,025	60,75
528,269	61,31
528,514	61,36
528,758	59,88
529,002	59,26
529,247	60,51
529,491	61,53
529,735	66,57
529,979	66,92
530,223	68,78
530,467	65,83
530,712	63,32
530,956	62,27
531,2	64,15
531,444	61,19
531,688	60,59
531,932	60,18
532,176	63,26
532,42	65,06
532,664	66,35
532,908	65,45
533,152	62,86
533,396	62,03
533,64	61,91
533,884	58,44
534,128	58,01
534,371	60,45
534,615	61,17
534,859	59,99
535,103	58,66
535,347	59,31
535,59	60,71
535,834	55,33
536,078	57,56
536,322	59,95
536,565	62,7
536,809	61,04
537,053	61,89
537,296	58,78
537,54	59,25
537,784	58,64
538,027	60,07
538,271	59,51
538,514	58,11
538,758	58,66
539,001	57,04
539,245	56,37
539,488	57,86
539,732	58,59
539,975	60
540,219	60,8
540,462	60,94
540,706	63,32
540,949	63,5
541,192	66,06
541,436	72,71
541,679	78,13
541,922	76,39
542,166	71,83
542,409	72,14
542,652	72,67
542,895	74,86
543,139	75,65
543,382	81,88
543,625	80,89
543,868	80,49
544,111	79,64
544,354	77,71
544,598	77,33
544,841	79,63
545,084	78,64
545,327	78,18
545,57	79,34
545,813	81,8
546,056	82,47
546,299	82,22
546,542	84,58
546,785	88,1
547,028	87,45
547,271	85,43
547,514	84,45
547,756	82,69
547,999	83,15
548,242	84,33
548,485	82,15
548,728	80,55
548,971	75,21
549,213	74,89
549,456	75,5
549,699	74,89
549,942	75,2
550,184	75,09
550,427	73,59
550,67	73,46
550,912	67,35
551,155	68,97
551,398	69,38
551,64	68,99
551,883	70,46
552,125	69,34
552,368	68,97
552,61	66,06
552,853	68,35
553,095	67,15
553,338	67,25
553,58	68,24
553,823	67,28
554,065	69,8
554,308	65,54
554,55	64,4
554,792	61,75
555,035	60,7
555,277	59,58
555,519	60,29
555,762	57,37
556,004	57,78
556,246	53,67
556,488	53,9
556,731	51,18
556,973	52,26
557,215	53,05
557,457	54,82
557,699	56,58
557,941	54,04
558,183	53,28
558,426	57,52
558,668	54,42
558,91	54,96
559,152	54,12
559,394	52,83
559,636	54,6
559,878	55,64
560,12	54,71
560,362	54,74
560,604	54,63
560,845	53,48
561,087	51,08
561,329	52,8
561,571	50,35
561,813	51,63
562,055	51,8
562,297	55,08
562,538	56,48
562,78	58,93
563,022	56,86
563,264	58,79
563,505	59,34
563,747	62
563,989	60,55
564,23	59,44
564,472	57,74
564,714	60,02
564,955	59,83
565,197	57,3
565,438	60,14
565,68	62,39
565,921	59,61
566,163	60,7
566,404	58,65
566,646	61,25
566,887	63,6
567,129	65,65
567,37	62,64
567,612	66,75
567,853	64,36
568,094	66,27
568,336	67,45
568,577	69,72
568,818	70,55
569,06	68,43
569,301	66,69
569,542	66,29
569,783	67,05
570,025	66,53
570,266	67,77
570,507	68,98
570,748	68,66
570,989	69,8
571,23	71,78
571,472	72,38
571,713	72,53
571,954	73,12
572,195	70,88
572,436	73,52
572,677	76,24
572,918	77,74
573,159	75,88
573,4	74,71
573,641	74,1
573,882	75,76
574,123	73,72
574,364	68,39
574,604	67,75
574,845	66,69
575,086	66,55
575,327	66,55
575,568	65,09
575,809	63,76
576,049	62,47
576,29	59,83
576,531	65,72
576,771	68,39
577,012	69,99
577,253	69,23
577,494	69,01
577,734	68,12
577,975	68,86
578,215	67,69
578,456	66,29
578,697	65,14
578,937	67,23
579,178	64,98
579,418	64,4
579,659	63,54
579,899	60,36
580,14	58,94
580,38	57,4
580,62	57,99
580,861	61,6
581,101	61,36
581,342	60,64
581,582	56,08
581,822	59,18
582,063	57,37
582,303	59,3
582,543	57,74
582,783	60,17
583,024	61,85
583,264	64,24
583,504	63,4
583,744	64,86
583,984	61,95
584,224	61,3
584,465	60,44
584,705	60,14
584,945	61,54
585,185	61,59
585,425	62,36
585,665	61,96
585,905	61,93
586,145	62,27
586,385	61,18
586,625	64,41
586,865	64,69
587,105	66,04
587,345	66,14
587,585	66,64
587,824	65,4
588,064	65,35
588,304	62,56
588,544	63,17
588,784	61,23
589,024	64,75
589,263	64,12
589,503	63,17
589,743	64,58
589,982	64,72
590,222	63,83
590,462	61,82
590,701	61,04
590,941	62,48
591,181	61,81
591,42	60,12
591,66	63,25
591,899	66,46
592,139	66,65
592,378	66,97
592,618	64,88
592,857	65,01
593,097	66,7
593,336	65,84
593,576	64,5
593,815	64,55
594,055	63,8
594,294	63,83
594,533	62,32
594,773	61,65
595,012	62,25
595,251	62,8
595,491	66,07
595,73	68,29
595,969	68,03
596,208	69,91
596,447	74,52
596,687	75,34
596,926	76,78
597,165	73,63
597,404	75,16
597,643	72,92
597,882	71,17
598,121	71,47
598,36	72,71
598,599	74,35
598,838	75,45
599,077	71,27
599,316	70,49
599,555	69,39
599,794	70,45
600,033	73,32
600,272	73,57
600,511	70,32
600,75	72,5
600,989	75,19
601,228	75,41
601,466	74,76
601,705	75,31
601,944	76,77
602,183	78,6
602,422	77,64
602,66	77,06
602,899	74,32
603,138	74,48
603,376	74,93
603,615	75,43
603,854	72,8
604,092	73,05
604,331	74,98
604,569	76,47
604,808	75,94
605,047	78,93
605,285	81,22
605,524	80,76
605,762	78,63
606	78,86
606,239	79,92
606,477	81,37
606,716	77,73
606,954	78,22
607,193	75,71
607,431	71,2
607,669	70,33
607,908	70,19
608,146	72,12
608,384	70,03
608,622	69,69
608,861	69,81
609,099	68,18
609,337	67,37
609,575	66,1
609,813	67
610,052	66,11
610,29	62,2
610,528	60,13
610,766	59,9
611,004	58,85
611,242	57,41
611,48	55,62
611,718	51,9
611,956	51,1
612,194	50,23
612,432	48,28
612,67	45,58
612,908	47,05
613,146	45,44
613,384	44,69
613,621	42,87
613,859	41,81
614,097	41,89
614,335	42,19
614,573	42,02
614,811	45,56
615,048	43,17
615,286	45,05
615,524	43,06
615,761	40,6
615,999	41,03
616,237	40,3
616,474	42,83
616,712	43,54
616,95	42,55
617,187	41,73
617,425	43,19
617,662	45,38
617,9	44,01
618,137	40,8
618,375	40,08
618,612	38,53
618,85	41,57
619,087	44,74
619,325	44,85
619,562	43,21
619,799	41,87
620,037	42,32
620,274	39,79
620,511	42,03
620,749	38,68
620,986	37,15
621,223	35,67
621,461	34,71
621,698	34,85
621,935	33,88
622,172	30,57
622,409	32,95
622,647	31,67
622,884	28,64
623,121	31,06
623,358	28,79
623,595	29,2
623,832	28,62
624,069	27,03
624,306	27,8
624,543	29,12
624,78	30,05
625,017	29,61
625,254	32,05
625,491	34,49
625,728	36,18
625,965	36,42
626,202	34,22
626,438	32,53
626,675	32,15
626,912	34,55
627,149	36,24
627,386	36,39
627,622	35,63
627,859	35,2
628,096	37,33
628,333	36,18
628,569	37,33
628,806	40,55
629,043	40,38
629,279	43,1
629,516	44,66
629,752	41,72
629,989	43,55
630,225	43,2
630,462	43,88
630,699	43
630,935	42,57
631,171	39,47
631,408	39,21
631,644	37,45
631,881	34,17
632,117	32,47
632,354	34,6
632,59	32,79
632,826	32,93
633,063	33,01
633,299	33,53
633,535	31,88
633,771	30,65
634,008	32,33
634,244	30,55
634,48	29,07
634,716	30,55
634,953	29,78
635,189	28,61
635,425	29,15
635,661	33,95
635,897	32,86
636,133	32,01
636,369	30,28
636,605	25,43
636,841	25,26
637,077	26,07
637,313	24,42
637,549	25,51
637,785	24,28
638,021	25,98
638,257	25,16
638,493	27,76
638,729	26,5
638,965	30,24
639,2	32,39
639,436	29,81
639,672	29,09
639,908	28,55
640,144	32,7
640,379	34,31
640,615	33
640,851	34,71
641,086	36,9
641,322	34,5
641,558	36,4
641,793	36,68
642,029	35,34
642,264	33,87
642,5	34,69
642,736	31,06
642,971	30,13
643,207	27,87
643,442	25,93
643,678	28,12
643,913	29,21
644,148	28,72
644,384	30,07
644,619	30,77
644,855	31,91
645,09	32,62
645,325	32,27
645,561	33,3
645,796	30,13
646,031	33,78
646,266	30,4
646,502	30,33
646,737	34,31
646,972	32,95
647,207	32,43
647,442	28,24
647,678	24,69
647,913	26,84
648,148	27,68
648,383	24,99
648,618	25,53
648,853	24,73
649,088	26,63
649,323	29,65
649,558	31,34
649,793	31,89
650,028	33,15
650,263	29,87
650,498	32,39
650,733	31,6
650,968	28,35
651,202	30,63
651,437	28,79
651,672	25,76
651,907	25,64
652,142	25,65
652,376	25,17
652,611	27,24
652,846	27,06
653,081	27,81
653,315	27
653,55	27,44
653,785	25,76
654,019	24,88
654,254	22,88
654,488	24,25
654,723	20,44
654,958	19,26
655,192	17,76
655,427	14,24
655,661	16,93
655,896	20,75
656,13	21,81
656,364	18,02
656,599	13,53
656,833	22,21
657,068	24,8
657,302	24,5
657,536	23,79
657,771	25,6
658,005	27,39
658,239	30,51
658,474	28,37
658,708	29,95
658,942	30,55
659,176	26,85
659,41	24,34
659,645	24,21
659,879	22,28
660,113	19,58
660,347	18,91
660,581	15,99
660,815	15,66
661,049	13,04
661,283	10,78
661,517	10,15
661,751	8,6
661,985	8,69
662,219	10,11
662,453	7,44
662,687	10,1
662,921	4,53
663,155	3,45
663,389	-2,6
663,622	-2,68
663,856	0,36
664,09	-8,86
664,324	-10,96
664,558	-8,89
664,791	-9,62
665,025	-10,83
665,259	-11,27
665,492	-13,76
665,726	-11,1
665,96	-11,41
666,193	-13,13
666,427	-10,26
666,661	-10,76
666,894	-13,41
667,128	-14,09
667,361	-11,01
667,595	-11,51
667,828	-11,37
668,062	-11,29
668,295	-8,08
668,529	-6,75
668,762	-6,64
668,995	-7,01
669,229	-2,86
669,462	-2,28
669,695	-0,43
669,929	-2,66
670,162	-0,88
670,395	-3,72
670,629	-1,29
670,862	0,34
671,095	-3,86
671,328	-3,21
671,561	-6,12
671,795	-6,35
672,028	-4,57
672,261	-3,84
672,494	-2,56
672,727	-3,28
672,96	-3,1
673,193	-4,57
673,426	0,32
673,659	1,07
673,892	1,81
674,125	2,53
674,358	2,25
674,591	1,13
674,824	1,22
675,057	0,5
675,29	-0,98
675,523	-1,33
675,755	-2,73
675,988	-1,2
676,221	1,74
676,454	-0,04
676,687	0,39
676,919	0,22
677,152	1,16
677,385	1,68
677,617	2,46
677,85	4,12
678,083	2,46
678,315	5,12
678,548	3,07
678,78	3,4
679,013	2,48
679,246	3,07
679,478	3,57
679,711	1,99
679,943	3,65
680,175	2,17
680,408	6,18
680,64	1,68
680,873	1,67
681,105	1,04
681,338	5,23
681,57	4,69
681,802	5,11
682,034	4,7
682,267	8,87
682,499	10,46
682,731	8,82
682,964	7,99
683,196	6,26
683,428	4,19
683,66	3
683,892	6,26
684,124	8,73
684,356	11,92
684,589	12,28
684,821	9,89
685,053	10,41
685,285	11,84
685,517	14,1
685,749	15,41
685,981	17,09
686,213	17,99
686,445	17,69
686,676	14,98
686,908	15,41
687,14	15,25
687,372	14,24
687,604	10,01
687,836	11,48
688,068	10,55
688,299	11,72
688,531	6,74
688,763	12,09
688,995	10,81
689,226	14,42
689,458	11,77
689,69	10,23
689,921	8,78
690,153	9,98
690,384	10,95
690,616	10,14
690,848	10,44
691,079	6
691,311	3,43
691,542	0,27
691,774	-1,73
692,005	1,43
692,237	2,26
692,468	0,28
692,699	-1,67
692,931	-0,59
693,162	-3,68
693,393	-4,94
693,625	-7,28
693,856	-5,93
694,087	-5,07
694,319	-4,71
694,55	-5,24
694,781	-3,97
695,012	-3,01
695,243	-4,75
695,475	-5,68
695,706	-4,33
695,937	-5,73
696,168	-7,16
696,399	-9,89
696,63	-10,27
696,861	-10,33
697,092	-4,63
697,323	-1,96
697,554	-0,83
697,785	0,19
698,016	1,87
698,247	1,24
698,478	3
698,709	3,71
698,94	5,21
699,171	4,9
699,401	1,28
699,632	3,67
699,863	1,82
700,094	0,74
700,325	4,6
700,555	5,21
700,786	7,64
701,017	8,46
701,247	7,2
701,478	7,17
701,709	7,1
701,939	5,19
702,17	6,26
702,401	9,94
702,631	10,9
702,862	9,71
703,092	5,76
703,323	9,76
703,553	11,1
703,784	10,96
704,014	11,01
704,244	6,3
704,475	4,73
704,705	4,16
704,936	4,33
705,166	3,37
705,396	4,31
705,627	3,88
705,857	5,34
706,087	6,67
706,317	5,17
706,548	4,25
706,778	3,64
707,008	3,38
707,238	3,69
707,468	2,23
707,698	1,21
707,928	0,82
708,158	-2,05
708,389	-2,48
708,619	-3,83
708,849	-3,39
709,079	-1,33
709,309	-4,07
709,539	-7,66
709,768	-6,88
709,998	-3,65
710,228	-3,84
710,458	-5,65
710,688	-7,8
710,918	-7,95
711,148	-7,72
711,378	-6,69
711,607	-7,99
711,837	-6,58
712,067	-6,98
712,297	-6,87
712,526	-6,38
712,756	-5,68
712,986	-8,8
713,215	-11,67
713,445	-11,29
713,674	-9,96
713,904	-10,22
714,134	-6,55
714,363	-6,41
714,593	-8,1
714,822	-8,78
715,052	-9,65
715,281	-6,45
715,511	-6,53
715,74	-6,57
715,969	-7,27
716,199	-8,28
716,428	-7,39
716,657	-5,66
716,887	-4,66
717,116	-7,59
717,345	-5,44
717,575	-5,75
717,804	-4,87
718,033	-5,39
718,262	-6,77
718,492	-6,57
718,721	-6,19
718,95	-6,93
719,179	-8,53
719,408	-7,06
719,637	-10,27
719,866	-11,08
720,095	-9,73
720,324	-9,33
720,553	-12,45
720,782	-12,41
721,011	-12,63
721,24	-15,44
721,469	-17
721,698	-16,87
721,927	-16,4
722,156	-17,44
722,385	-20,01
722,613	-18,7
722,842	-18
723,071	-14,68
723,3	-13,01
723,529	-14
723,757	-13,28
723,986	-16,92
724,215	-16,84
724,443	-15,78
724,672	-12,17
724,901	-11,15
725,129	-8,54
725,358	-4,46
725,586	-7,76
725,815	-7,65
726,043	-8,74
726,272	-9,72
726,5	-10,6
726,729	-9,06
726,957	-12,98
727,186	-13,78
727,414	-11,35
727,642	-9,9
727,871	-9,15
728,099	-9,42
728,327	-8,76
728,556	-7,63
728,784	-6,04
729,012	-7,63
729,241	-4,39
729,469	-3,14
729,697	-4,52
729,925	-3,99
730,153	-5,68
730,381	-6,48
730,61	-5,72
730,838	-8,84
731,066	-6,89
731,294	-6,48
731,522	-9,53
731,75	-13,59
731,978	-15,1
732,206	-16,75
732,434	-18,91
732,662	-16,21
732,89	-17,87
733,118	-18,97
733,346	-18,74
733,573	-18,5
733,801	-19,7
734,029	-12,3
734,257	-12,53
734,485	-10,81
734,712	-8,52
734,94	-10,93
735,168	-6,72
735,396	-7,81
735,623	-8,4
735,851	-8,1
736,078	-5,49
736,306	-5,22
736,534	-7,05
736,761	-7,79
736,989	-10,23
737,216	-11,14
737,444	-13,55
737,671	-13,45
737,899	-8,59
738,126	-9,35
738,354	-9,19
738,581	-7,65
738,809	-7,06
739,036	-8,63
739,263	-8,55
739,491	-11,22
739,718	-11,43
739,945	-5,78
740,173	-4,38
740,4	-3,29
740,627	-4,7
740,854	-3,5
741,081	-6,18
741,309	-7,11
741,536	-10,97
741,763	-12,03
741,99	-9,19
742,217	-11,88
742,444	-11,28
742,671	-9
742,898	-8,91
743,125	-12,03
743,352	-15,48
743,579	-14,9
743,806	-15,42
744,033	-12,32
744,26	-10,68
744,487	-9,24
744,714	-8,5
744,941	-8,2
745,167	-3,76
745,394	-5,27
745,621	-6,23
745,848	-7,02
746,075	-4,67
746,301	-0,83
746,528	4,77
746,755	4,24
746,981	2,71
747,208	4,99
747,435	6,12
747,661	6,3
747,888	7,42
748,114	3,74
748,341	6,07
748,567	8,38
748,794	5,29
749,02	3,72
749,247	2,17
749,473	2,2
749,7	1,05
749,926	0,24
750,152	4,12
750,379	6,02
750,605	6,08
750,831	7,71
751,058	6,02
751,284	2,79
751,51	5,3
751,737	6,25
751,963	3,08
752,189	0,27
752,415	0,16
752,641	0,24
752,867	0,63
753,094	-1,98
753,32	-4,2
753,546	-6,87
753,772	-5,27
753,998	-6,83
754,224	-7,34
754,45	-7,71
754,676	-7,82
754,902	-8,98
755,128	-7,67
755,354	-7,9
755,579	-7,1
755,805	-4,64
756,031	-5,5
756,257	-4,85
756,483	-5,89
756,709	-8,2
756,934	-7,59
757,16	-9,35
757,386	-9,05
757,612	-11,37
757,837	-12,45
758,063	-9,97
758,289	-6,08
758,514	-9,33
758,74	-12,71
758,965	-15,25
759,191	-13,87
759,416	-11,52
759,642	-10,4
759,868	-10,79
760,093	-6,37
760,318	-8,03
760,544	-7
760,769	-8,39
760,995	-9,38
761,22	-10,2
761,445	-8,55
761,671	-7,19
761,896	-3,5
762,121	-3,4
762,347	-4,03
762,572	-7,96
762,797	-7,19
763,022	-7,05
763,248	-3,56
763,473	-3,07
763,698	-3,1
763,923	-3,5
764,148	-4,15
764,373	-6,16
764,598	-4,45
764,823	-2,98
765,048	-5,27
765,273	-8,66
765,498	-9,04
765,723	-8,12
765,948	-5,93
766,173	-7,57
766,398	-8,62
766,623	-11,1
766,848	-10,56
767,073	-13,12
767,298	-13,6
767,522	-14,19
767,747	-13,7
767,972	-13,54
768,197	-13
768,421	-14,66
768,646	-16,8
768,871	-20,94
769,095	-20,01
769,32	-19,47
769,545	-18,4
769,769	-16,54
769,994	-14,74
770,218	-17,8
770,443	-16,07
770,667	-14,97
770,892	-14,93
771,116	-16,31
771,341	-13,67
771,565	-13,74
771,79	-14,18
772,014	-15,78
772,238	-17,03
772,463	-15,17
772,687	-13,8
772,911	-13,13
773,136	-14,88
773,36	-12,47
773,584	-11,46
773,808	-13,27
774,033	-12,15
774,257	-11,22
774,481	-13,16
774,705	-13,22
774,929	-12,79
775,153	-12,2
775,377	-11,99
775,602	-11,42
775,826	-9,85
776,05	-7,91
776,274	-7,46
776,498	-7,84
776,722	-9,06
776,945	-8,16
777,169	-8,13
777,393	-10,76
777,617	-11,18
777,841	-9,74
778,065	-7,59
778,289	-10,25
778,512	-11
778,736	-10,48
778,96	-9,92
779,184	-7,45
779,407	-8,1
779,631	-9,33
779,855	-12,02
780,078	-11,78
780,302	-13,93
780,526	-14,37
780,749	-13,5
780,973	-12,64
781,196	-11,95
781,42	-12,42
781,643	-12,45
781,867	-10,93
782,09	-13
782,314	-12,75
782,537	-14,81
782,76	-16,22
782,984	-15,19
783,207	-16,67
783,431	-15,41
783,654	-18,5
783,877	-21,47
784,1	-23,74
784,324	-23,17
784,547	-22,3
784,77	-25,91
784,993	-26,8
785,216	-26,71
785,44	-25,63
785,663	-27,3
785,886	-24,85
786,109	-25,29
786,332	-25,31
786,555	-23,99
786,778	-21,39
787,001	-20,58
787,224	-19,33
787,447	-17,95
787,67	-16,97
787,893	-17,31
788,116	-17,42
788,339	-16,55
788,561	-17,04
788,784	-20,71
789,007	-22,59
789,23	-24,26
789,453	-23,52
789,675	-24,83
789,898	-27,86
790,121	-29,75
790,344	-30,29
790,566	-28,73
790,789	-27,3
791,012	-25,69
791,234	-22,87
791,457	-20,65
791,679	-19,9
791,902	-20,61
792,124	-18,65
792,347	-19,48
792,569	-19,98
792,792	-22,72
793,014	-19,38
793,237	-16,97
793,459	-17,14
793,681	-17,92
793,904	-18,77
794,126	-20,42
794,348	-21,93
794,571	-21,39
794,793	-23,33
795,015	-22,39
795,237	-23,17
795,46	-23,02
795,682	-23,96
795,904	-21,69
796,126	-21,77
796,348	-21,54
796,57	-17,19
796,792	-16,4
797,014	-11,27
797,237	-10,4
797,459	-7,54
797,681	-6,05
797,903	-7,55
798,124	-7,35
798,346	4,1
798,568	5,62
798,79	9,72
799,012	9,75
799,234	10,47
799,456	12,68
799,678	13,81
799,899	9,81
800,121	5,81
800,343	6,01
800,565	7,28
800,786	8,08
801,008	10,02
801,23	9,8
801,451	11,07
801,673	9,79
801,895	9,28
802,116	12,44
802,338	14,69
802,559	15,86
802,781	13,94
803,002	15,65
803,224	17,54
803,445	15,35
803,667	15,71
803,888	13,34
804,109	12,99
804,331	11,8
804,552	10,22
804,773	11,33
804,995	8,75
805,216	-6,55
805,437	-8,38
805,658	-10,86
805,88	-12,15
806,101	-10,63
806,322	-11,78
806,543	-12,14
806,764	-12,91
806,985	-10,63
807,207	-10,86
807,428	-11,08
807,649	-14,47
807,87	-16,47
808,091	-15,48
808,312	-14,75
808,533	-9,51
808,754	-8,56
808,975	-11,05
809,195	-9,13
809,416	-8,18
809,637	-7,58
809,858	-8,23
810,079	-9,94
810,3	-7,83
810,52	-7,51
810,741	-10,79
810,962	-12,06
811,183	-13,24
811,403	-12,15
811,624	-11,94
811,845	-10,85
812,065	-8,2
812,286	-8
812,506	-8,07
812,727	-8,1
812,948	-8,76
813,168	-5,84
813,389	-7,56
813,609	-4,25
813,83	-5,17
814,05	-6,04
814,27	-5,3
814,491	-1,8
814,711	-2,05
814,931	-5,64
815,152	-7,16
815,372	-9,87
815,592	-11,67
815,813	-12,43
816,033	-14,55
816,253	-14,72
816,473	-15,91
816,694	-16,14
816,914	-15,18
817,134	-18,28
817,354	-20,15
817,574	-18,25
817,794	-18,73
818,014	-18,98
818,234	-20,98
818,454	-22,27
818,674	-23,4
818,894	-26,49
819,114	-24,89
819,334	-24,42
819,554	-21,58
819,774	-18,81
819,994	-22,52
820,214	-21,62
820,433	-23,45
820,653	-23,41
820,873	-20,96
821,093	-21,58
821,312	-22,33
821,532	-20,75
821,752	-17,73
821,972	-18,11
822,191	-15,57
822,411	-17,13
822,63	-16,4
822,85	-16,06
823,07	-17,76
823,289	-16,14
823,509	-17,29
823,728	-14,75
823,948	-14,65
824,167	-16,67
824,387	-16,79
824,606	-14,89
824,825	-16,44
825,045	-15,32
825,264	-15,25
825,483	-14,04
825,703	-12,36
825,922	-13,28
826,141	-13,66
826,361	-15,93
826,58	-20,15
826,799	-20,05
827,018	-20,25
827,237	-19,75
827,456	-17,46
827,676	-18,24
827,895	-18,06
828,114	-16,61
828,333	-16,84
828,552	-16,09
828,771	-15,27
828,99	-18,66
829,209	-16,92
829,428	-15,25
829,647	-16,97
829,866	-16,38
830,084	-15,94
830,303	-16,66
830,522	-18,84
830,741	-18,36
830,96	-16,06
831,179	-15,48
831,397	-16
831,616	-14,84
831,835	-15,3
832,053	-14,41
832,272	-15,3
832,491	-13,04
832,709	-14,43
832,928	-15,34
833,147	-14,23
833,365	-13,06
833,584	-10,61
833,802	-6,6
834,021	-6,77
834,239	-6,82
834,458	-7,88
834,676	-10,64
834,894	-11,42
835,113	-11,94
835,331	-12,56
835,55	-12,96
835,768	-11,7
835,986	-10,3
836,204	-12,83
836,423	-12,05
836,641	-12,33
836,859	-13,37
837,077	-12,16
837,296	-11
837,514	-12,73
837,732	-14,32
837,95	-16,77
838,168	-15,33
838,386	-15,87
838,604	-13,02
838,822	-12,27
839,04	-11,35
839,258	-12,15
839,476	-9,16
839,694	-8,55
839,912	-10,88
840,13	-11,72
840,348	-9,72
840,566	-14,67
840,783	-12,62
841,001	-13,86
841,219	-13,07
841,437	-12,58
841,655	-12,31
841,872	-14,07
842,09	-14,55
842,308	-15,12
842,525	-15,94
842,743	-14,58
842,961	-13,42
843,178	-14,91
843,396	-11,06
843,613	-10,68
843,831	-8,89
844,048	-9,56
844,266	-8,61
844,483	-7,74
844,701	-6,68
844,918	-7,66
845,136	-8,4
845,353	-9,73
845,57	-8,37
845,788	-6,61
846,005	-8,99
846,222	-11,12
846,439	-7,6
846,657	-6,91
846,874	-5,95
847,091	-8,96
847,308	-6,4
847,526	-9,24
847,743	-10,78
847,96	-12,26
848,177	-12,02
848,394	-12,24
848,611	-12,26
848,828	-12,25
849,045	-12,52
849,262	-10,85
849,479	-13,58
849,696	-15,7
849,913	-17,05
850,13	-21,27
850,347	-18,99
850,564	-19,55
850,78	-20,62
850,997	-21,46
851,214	-21,71
851,431	-21,62
851,647	-23,04
851,864	-23,2
852,081	-22,64
852,298	-26,74
852,514	-28,37
852,731	-26,19
852,948	-24,53
853,164	-26,01
853,381	-26,08
853,597	-26,82
853,814	-27,68
854,03	-31,17
854,247	-28,87
854,463	-27
854,68	-27,24
854,896	-26,26
855,113	-25,91
855,329	-23,15
855,545	-21,46
855,762	-22,39
855,978	-26,3
856,194	-27,93
856,411	-23,62
856,627	-22,19
856,843	-20,97
857,059	-19,08
857,275	-20,31
857,492	-20,04
857,708	-15,96
857,924	-13,89
858,14	-11,29
858,356	-11,53
858,572	-10,79
858,788	-12,27
859,004	-10,44
859,22	-11,31
859,436	-10,56
859,652	-11,44
859,868	-13,85
860,084	-13,62
860,3	-14,21
860,516	-14,77
860,731	-13,37
860,947	-15,95
861,163	-15,24
861,379	-13,71
861,595	-13,15
861,81	-12,79
862,026	-14,7
862,242	-14,62
862,457	-13,72
862,673	-12,29
862,889	-11,14
863,104	-12,93
863,32	-11,95
863,535	-11,41
863,751	-15,43
863,966	-12,84
864,182	-10,77
864,397	-13,81
864,613	-15,87
864,828	-17,87
865,044	-16,38
865,259	-14,33
865,474	-14
865,69	-12,05
865,905	-13,11
866,12	-15,29
866,336	-15,6
866,551	-14,9
866,766	-14,43
866,981	-14,48
867,196	-13,57
867,412	-12,7
867,627	-12,91
867,842	-13,73
868,057	-14,3
868,272	-15,27
868,487	-16,07
868,702	-17,72
868,917	-18,97
869,132	-18,89
869,347	-18,54
869,562	-18,8
869,777	-18,4
869,992	-18,81
870,207	-18,62
870,422	-19,26
870,636	-21,9
870,851	-24,97
871,066	-26,19
871,281	-26,09
871,495	-26,42
871,71	-24,36
871,925	-25,63
872,14	-27,85
872,354	-30,45
872,569	-30,18
872,783	-28,97
872,998	-28,65
873,213	-28,77
873,427	-27,36
873,642	-26,92
873,856	-26,87
874,071	-27,62
874,285	-27,58
874,5	-29,76
874,714	-32,55
874,928	-32,2
875,143	-32,51
875,357	-31,51
875,571	-32,5
875,786	-31,67
876	-27,95
876,214	-26,23
876,429	-28,79
876,643	-28,3
876,857	-27,15
877,071	-26,47
877,285	-26,26
877,499	-28,66
877,714	-25,18
877,928	-23,47
878,142	-25,69
878,356	-28,21
878,57	-29,09
878,784	-27,41
878,998	-28,29
879,212	-25,92
879,426	-27,75
879,639	-26,52
879,853	-27,26
880,067	-28,35
880,281	-29,3
880,495	-28,5
880,709	-25,81
880,922	-24,53
881,136	-22,02
881,35	-18,88
881,564	-19,39
881,777	-21,56
881,991	-21,03
882,205	-18,51
882,418	-19,11
882,632	-22,26
882,845	-22,67
883,059	-20,99
883,273	-21,04
883,486	-22,95
883,7	-20,06
883,913	-21,46
884,126	-17,58
884,34	-21,61
884,553	-23,17
884,767	-17,5
884,98	-17,32
885,193	-17,61
885,407	-18,1
885,62	-16,74
885,833	-18,06
886,046	-15,76
886,26	-16,63
886,473	-16,92
886,686	-16,23
886,899	-13,45
887,112	-15,72
887,326	-19,38
887,539	-19,31
887,752	-18,67
887,965	-19,94
888,178	-19,17
888,391	-18,09
888,604	-18,31
888,817	-20,19
889,03	-18,13
889,243	-19,31
889,455	-22,23
889,668	-21,98
889,881	-19,43
890,094	-19,61
890,307	-22,82
890,52	-20,66
890,732	-21,26
890,945	-20,2
891,158	-20,53
891,37	-24,15
891,583	-24,48
891,796	-22,34
892,008	-23,63
892,221	-24,95
892,434	-27,44
892,646	-28,87
892,859	-30,04
893,071	-27,7
893,284	-27,76
893,496	-29
893,709	-27,09
893,921	-25,67
894,133	-26,16
894,346	-27,3
894,558	-27,25
894,771	-28,66
894,983	-26,14
895,195	-23,65
895,407	-22,93
895,62	-27,02
895,832	-25,82
896,044	-22,78
896,256	-24
896,468	-25,69
896,681	-23,23
896,893	-23,02
897,105	-23,78
897,317	-24,41
897,529	-23,19
897,741	-22,35
897,953	-20,18
898,165	-20,05
898,377	-21,35
898,589	-19,5
898,801	-18,51
899,013	-15,63
899,224	-12,47
899,436	-11,03
899,648	-13,22
899,86	-14,21
900,072	-11,3
900,283	-10,72
900,495	-9,51
900,707	-8,31
900,919	-10,94
901,13	-9,88
901,342	-9,53
901,554	-11,31
901,765	-11,04
901,977	-12,37
902,188	-11,85
902,4	-12,97
902,611	-14,09
902,823	-15,14
903,034	-16,81
903,246	-19,57
903,457	-19,71
903,669	-20,8
903,88	-20,9
904,091	-20,45
904,303	-18,82
904,514	-19,86
904,725	-20,09
904,936	-19,72
905,148	-18,57
905,359	-17,33
905,57	-18,76
905,781	-22,01
905,992	-21,97
906,204	-20,88
906,415	-19,7
906,626	-22,63
906,837	-20,05
907,048	-19,18
907,259	-20,13
907,47	-20,34
907,681	-21,85
907,892	-18,33
908,103	-18,76
908,314	-22,05
908,525	-20,84
908,735	-20,51
908,946	-20,59
909,157	-22,64
909,368	-19,36
909,579	-18,64
909,789	-19,56
910	-20,8
910,211	-18,97
910,421	-19,54
910,632	-18,81
910,843	-21,15
911,053	-19,45
911,264	-15,8
911,475	-16,6
911,685	-18,49
911,896	-17,23
912,106	-16,27
912,317	-17,47
912,527	-16,82
912,737	-16,88
912,948	-16,98
913,158	-16,84
913,369	-20,47
913,579	-19,75
913,789	-19,64
914	-16,33
914,21	-15,57
914,42	-17,66
914,63	-17,66
914,841	-16,43
915,051	-14,19
915,261	-11,67
915,471	-8,46
915,681	-7,3
915,891	-8,5
916,101	-10,44
916,311	-10,18
916,521	-9,02
916,731	-7,13
916,941	-4,25
917,151	-5,69
917,361	-4,24
917,571	-7,88
917,781	-11,42
917,991	-13,58
918,201	-11,75
918,411	-14,31
918,621	-14,36
918,83	-12,91
919,04	-14,41
919,25	-11,8
919,46	-11
919,669	-14,43
919,879	-14,96
920,089	-17,68
920,298	-18,8
920,508	-17,43
920,717	-17,01
920,927	-18,79
921,136	-18,44
921,346	-20,86
921,555	-23,11
921,765	-23,82
921,974	-26,48
922,184	-29,81
922,393	-30,88
922,603	-30,25
922,812	-28,06
923,021	-28,26
923,23	-31,12
923,44	-33,83
923,649	-33,91
923,858	-34,35
924,067	-32,8
924,277	-33,08
924,486	-30,51
924,695	-33,15
924,904	-31,66
925,113	-31,08
925,322	-30,27
925,531	-29,75
925,74	-32,55
925,949	-32,85
926,158	-28,19
926,367	-27,55
926,576	-27,03
926,785	-26,77
926,994	-29,45
927,203	-28,23
927,412	-27,23
927,621	-27,18
927,83	-23,83
928,038	-25,35
928,247	-26,51
928,456	-27,05
928,665	-24,13
928,873	-21,83
929,082	-20,37
929,291	-18,94
929,499	-17,51
929,708	-18,02
929,916	-16,38
930,125	-18,99
930,333	-19,69
930,542	-16,96
930,75	-14,88
930,959	-14,96
931,167	-14,02
931,376	-14,83
931,584	-13,92
931,793	-12,34
932,001	-13,2
932,209	-15,1
932,418	-19,23
932,626	-21,16
932,834	-23,03
933,042	-24,29
933,251	-23,33
933,459	-23,39
933,667	-24
933,875	-24,18
934,083	-23,09
934,291	-22,95
934,499	-20,41
934,707	-20,49
934,915	-20,07
935,123	-17,8
935,331	-19,54
935,539	-22,05
935,747	-24,44
935,955	-26,01
936,163	-26,13
936,371	-26,79
936,579	-23,67
936,787	-23,82
936,995	-25,98
937,202	-27,1
937,41	-26,04
937,618	-25,64
937,826	-26,59
938,033	-30,77
938,241	-33,06
938,449	-28,92
938,656	-26,85
938,864	-24,52
939,071	-25,67
939,279	-22,76
939,486	-20,2
939,694	-21,33
939,901	-22,29
940,109	-22,72
940,316	-21,83
940,524	-22,91
940,731	-23,64
940,939	-23,2
941,146	-23,41
941,353	-22,96
941,561	-23,89
941,768	-23,3
941,975	-20,93
942,182	-20,68
942,39	-19,35
942,597	-16,96
942,804	-17,84
943,011	-17,72
943,218	-17,14
943,425	-17,43
943,632	-17,21
943,839	-18,9
944,046	-19,72
944,253	-17,4
944,46	-17,42
944,667	-14,15
944,874	-17,63
945,081	-15,49
945,288	-14,7
945,495	-12,17
945,702	-12,91
945,909	-14,81
946,115	-13,9
946,322	-14,7
946,529	-16,39
946,736	-16,73
946,942	-15,78
947,149	-16,33
947,356	-18,4
947,562	-20,13
947,769	-20,56
947,976	-21,79
948,182	-21,06
948,389	-21,87
948,595	-22,15
948,802	-22,34
949,008	-23,01
949,215	-20,81
949,421	-22,38
949,628	-23,27
949,834	-22,52
950,04	-23,24
950,247	-20,17
950,453	-18,09
950,659	-21,36
950,865	-18,25
951,072	-23,2
951,278	-20,81
951,484	-23,67
951,69	-25,59
951,896	-26,83
952,103	-26,89
952,309	-25,47
952,515	-24,52
952,721	-21,45
952,927	-19,79
953,133	-21,42
953,339	-21,97
953,545	-22,59
953,751	-20,46
953,957	-17,87
954,163	-18,92
954,369	-18,24
954,574	-20,02
954,78	-19,58
954,986	-17,74
955,192	-15,07
955,398	-16,28
955,603	-18,68
955,809	-15,74
956,015	-14,5
956,22	-14,66
956,426	-13,74
956,632	-15,78
956,837	-17,41
957,043	-15,84
957,248	-15,36
957,454	-12,96
957,66	-15,37
957,865	-13,44
958,07	-13,04
958,276	-14,85
958,481	-15,93
958,687	-18,07
958,892	-18,94
959,097	-19,79
959,303	-19,57
959,508	-19,83
959,713	-20,28
959,919	-21,09
960,124	-23,55
960,329	-22,64
960,534	-19,86
960,739	-18,4
960,945	-16,54
961,15	-17,17
961,355	-19,93
961,56	-23,97
961,765	-25,14
961,97	-24,15
962,175	-23,52
962,38	-26,87
962,585	-25,89
962,79	-27,69
962,995	-28,71
963,2	-29,01
963,404	-29,43
963,609	-32,21
963,814	-34,2
964,019	-35,97
964,224	-38,46
964,428	-37,15
964,633	-34,27
964,838	-32,42
965,042	-30,57
965,247	-31,76
965,452	-31,99
965,656	-31,44
965,861	-30,39
966,066	-31,15
966,27	-27,51
966,475	-23,2
966,679	-28,02
966,884	-28,4
967,088	-30,5
967,292	-31,72
967,497	-31,55
967,701	-31,91
967,906	-29,95
968,11	-26,6
968,314	-23,71
968,518	-25,41
968,723	-22,54
968,927	-21,58
969,131	-19,92
969,335	-18,27
969,539	-18,95
969,744	-17,77
969,948	-15,5
970,152	-14,09
970,356	-12,59
970,56	-12,59
970,764	-13,13
970,968	-11,68
971,172	-12,56
971,376	-12,17
971,58	-11,92
971,784	-11,19
971,988	-12,61
972,192	-9,89
972,395	-9,72
972,599	-13,13
972,803	-15,34
973,007	-11,86
973,21	-11,68
973,414	-11,74
973,618	-12,45
973,822	-11,65
974,025	-10,89
974,229	-11,3
974,432	-14,07
974,636	-16,9
974,84	-16,3
975,043	-15,77
975,247	-19,25
975,45	-20,09
975,654	-18,4
975,857	-16,26
976,06	-16,88
976,264	-17,33
976,467	-15,51
976,671	-15,02
976,874	-14,21
977,077	-15,15
977,28	-15,71
977,484	-17,33
977,687	-18,65
977,89	-16,63
978,093	-17,21
978,297	-16,17
978,5	-18,98
978,703	-18,11
978,906	-16,96
979,109	-16,35
979,312	-16,3
979,515	-17,26
979,718	-17,14
979,921	-16,95
980,124	-19,38
980,327	-20,51
980,53	-19,72
980,733	-18,81
980,936	-16,36
981,138	-17,35
981,341	-17,27
981,544	-16,75
981,747	-17,5
981,949	-20,23
982,152	-18,8
982,355	-19,54
982,558	-16,07
982,76	-19,58
982,963	-19,62
983,165	-20,14
983,368	-19,75
983,571	-20,23
983,773	-17,28
983,976	-16,69
984,178	-15,66
984,381	-15,54
984,583	-18,37
984,785	-18,55
984,988	-16,21
985,19	-14,16
985,392	-17,24
985,595	-19,41
985,797	-19,76
985,999	-17,6
986,202	-14,37
986,404	-14,33
986,606	-10,18
986,808	-12,74
987,01	-11,44
987,212	-12,83
987,415	-14,55
987,617	-14,26
987,819	-13,39
988,021	-12,22
988,223	-13,14
988,425	-15,81
988,627	-15,39
988,829	-20,31
989,031	-17,98
989,232	-20,23
989,434	-17,8
989,636	-17,96
989,838	-19,12
990,04	-17,84
990,242	-19,17
990,443	-21,08
990,645	-18,77
990,847	-16,06
991,048	-14,53
991,25	-16,66
991,452	-18,38
991,653	-18,05
991,855	-17,4
992,057	-18,17
992,258	-18,52
992,46	-20
992,661	-18,81
992,863	-20,93
993,064	-19,26
993,265	-20,12
993,467	-20,66
993,668	-17,81
993,87	-17,68
994,071	-18,39
994,272	-18,87
994,473	-17,14
994,675	-15,98
994,876	-15,62
995,077	-15,62
995,278	-15,06
995,48	-12,83
995,681	-15,52
995,882	-14,3
996,083	-13,92
996,284	-18,2
996,485	-17,18
996,686	-19,13
996,887	-20,75
997,088	-23,46
997,289	-25,76
997,49	-25,92
997,691	-25,35
997,892	-25,08
998,092	-20,57
998,293	-19,92
998,494	-20,16
998,695	-20,5
998,896	-19,58
999,096	-19,18
999,297	-18,95
999,498	-20,14
999,698	-23,16
999,899	-25,98
1000,1	-28,86
1000,3	-28,1
1000,501	-28,33
1000,701	-27,92
1000,902	-29,03
1001,102	-29,45
1001,303	-27,58
1001,503	-29,75
1001,704	-29,91
1001,904	-30
1002,105	-29,34
1002,305	-29,31
1002,505	-29,29
1002,706	-30,85
1002,906	-30,67
1003,106	-32,79
1003,306	-31,41
1003,507	-29,22
1003,707	-29,32
1003,907	-28,14
1004,107	-25,69
1004,307	-29,07
1004,507	-27,29
1004,707	-27,62
1004,907	-29,56
1005,107	-29,26
1005,308	-29,75
1005,507	-31,72
1005,707	-30,66
1005,907	-29,97
1006,107	-26,71
1006,307	-24,16
1006,507	-25,4
1006,707	-23,79
1006,907	-24,49
1007,106	-24,07
1007,306	-25,09
1007,506	-25,01
1007,706	-23,87
1007,905	-24,74
1008,105	-23,77
1008,305	-25,72
1008,504	-25,31
1008,704	-20,81
1008,903	-19,44
1009,103	-18,18
1009,303	-19,23
1009,502	-18,58
1009,702	-19,95
1009,901	-21,11
1010,1	-24,06
1010,3	-23,37
1010,499	-24,96
1010,699	-26,64
1010,898	-28,18
1011,097	-26,78
1011,296	-27,08
1011,496	-27,46
1011,695	-27,01
1011,894	-27,02
1012,093	-24,73
1012,293	-25,6
1012,492	-25,86
1012,691	-25,51
1012,89	-26,77
1013,089	-28,84
1013,288	-26,93
1013,487	-25,46
1013,686	-25,91
1013,885	-27,67
1014,084	-27,21
1014,283	-27,18
1014,482	-27,89
1014,681	-27,83
1014,88	-31,85
1015,078	-30,49
1015,277	-32,42
1015,476	-32,04
1015,675	-31,7
1015,873	-30,76
1016,072	-30,5
1016,271	-26,65
1016,47	-30,18
1016,668	-28,81
1016,867	-29,41
1017,065	-31,16
1017,264	-31,9
1017,463	-32,43
1017,661	-32,09
1017,86	-32,13
1018,058	-31,9
1018,256	-32,58
1018,455	-33,15
1018,653	-32,81
1018,852	-31,99
1019,05	-33,69
1019,248	-34,76
1019,447	-37,06
1019,645	-36,5
1019,843	-37,49
1020,041	-36,43
1020,24	-37,76
1020,438	-33,75
1020,636	-33,08
1020,834	-36,35
1021,032	-32,51
1021,23	-34,45
1021,428	-32,11
1021,626	-29,08
1021,824	-29,68
1022,022	-31,2
1022,22	-30,59
1022,418	-30,09
1022,616	-30,51
1022,814	-30,16
1023,012	-30,54
1023,21	-27,67
1023,408	-28,92
1023,606	-29,46
1023,803	-24,03
1024,001	-22,67
1024,199	-24,6
1024,397	-23,45
1024,594	-24,11
1024,792	-26,63
1024,99	-25,34
1025,187	-25
1025,385	-20,87
1025,582	-21,13
1025,78	-20,8
1025,977	-20,15
1026,175	-20,26
1026,372	-19,76
1026,57	-23,83
1026,767	-21,22
1026,965	-19,27
1027,162	-21,62
1027,359	-21,26
1027,557	-20,46
1027,754	-23,13
1027,951	-23,83
1028,148	-21,4
1028,346	-21,97
1028,543	-25,09
1028,74	-25,44
1028,937	-27,54
1029,134	-27,88
1029,331	-29,04
1029,528	-27,76
1029,725	-29,04
1029,923	-34,25
1030,12	-32,18
1030,317	-31,15
1030,513	-31,33
1030,71	-29,21
1030,907	-25,9
1031,104	-27,53
1031,301	-28,19
1031,498	-28,32
1031,695	-27,26
1031,892	-27,09
1032,088	-26,86
1032,285	-28,51
1032,482	-28,96
1032,678	-30,56
1032,875	-33,75
1033,072	-33,29
1033,268	-33,49
1033,465	-33,77
1033,662	-36,7
1033,858	-36,69
1034,055	-36,76
1034,251	-34,5
1034,448	-35,36
1034,644	-35,2
1034,84	-31,2
1035,037	-29,8
1035,233	-28,7
1035,43	-27,16
1035,626	-26,99
1035,822	-25,89
1036,019	-25,47
1036,215	-29,26
1036,411	-29,72
1036,607	-31,08
1036,803	-35,17
1037	-35,94
1037,196	-36,97
1037,392	-36,58
1037,588	-38,66
1037,784	-38,25
1037,98	-40,02
1038,176	-40,25
1038,372	-39,75
1038,568	-38,48
1038,764	-36,9
1038,96	-34,49
1039,156	-36,19
1039,352	-36,64
1039,547	-35,1
1039,743	-34,19
1039,939	-32,41
1040,135	-32,27
1040,331	-35,5
1040,526	-34,03
1040,722	-33,96
1040,918	-36,3
1041,113	-38,82
1041,309	-39,71
1041,505	-42,36
1041,7	-42,02
1041,896	-41,01
1042,091	-41,55
1042,287	-40
1042,482	-39,25
1042,678	-39,04
1042,873	-37,09
1043,069	-38,46
1043,264	-37,89
1043,459	-37,03
1043,655	-36,2
1043,85	-37,51
1044,045	-36,84
1044,24	-37,52
1044,436	-35,94
1044,631	-36,5
1044,826	-37,38
1045,021	-39,71
1045,216	-38,05
