Data from led_4000k_2_FLMT021711__5__17-32-48-435.txt Node

Date: Tue Nov 05 17:32:48 CET 2024
User: Etudiants TP
Spectrometer: FLMT02171
Trigger mode: 0
Integration Time (sec): 1,000000E-1
Scans to average: 5
Electric dark correction enabled: true
Nonlinearity correction enabled: true
Boxcar width: 15
XAxis mode: Wavelengths
Number of Pixels in Spectrum: 3648
>>>>>Begin Spectral Data<<<<<
194,658	-66,08
194,923	-62,36
195,188	-55,84
195,453	-54,92
195,717	-49,37
195,982	-47,79
196,247	-45,35
196,512	-47,62
196,777	-44,81
197,042	-42,55
197,307	-43,04
197,572	-38,68
197,837	-38,28
198,101	-35
198,366	-32,56
198,631	-30,48
198,896	-24,85
199,161	-17,71
199,425	-10,11
199,69	-0,79
199,955	-0,37
200,22	-2,08
200,484	-2,13
200,749	-1,32
201,014	-0,47
201,278	-0,17
201,543	1,35
201,807	1,83
202,072	3,66
202,337	3,35
202,601	3,04
202,866	1,65
203,13	2,6
203,395	0,61
203,659	0,41
203,924	-1,13
204,189	-0,13
204,453	0,1
204,717	2,96
204,982	3,51
205,246	4,07
205,511	6,45
205,775	5,83
206,04	10,68
206,304	10,68
206,568	12,43
206,833	12,21
207,097	13,44
207,361	15,01
207,626	18,6
207,89	20,31
208,154	20,79
208,419	22,23
208,683	21,88
208,947	23,75
209,211	24,04
209,476	23,05
209,74	23,55
210,004	23,33
210,268	23
210,532	24,78
210,796	24,58
211,061	25,44
211,325	25,82
211,589	24,75
211,853	25,51
212,117	25,47
212,381	24,77
212,645	25,4
212,909	24,17
213,173	20,79
213,437	22,01
213,701	22,56
213,965	22,72
214,229	18,38
214,493	17,27
214,757	16,76
215,021	17,16
215,285	22,32
215,549	24,74
215,813	22,75
216,077	21,13
216,34	22,07
216,604	21,34
216,868	22,76
217,132	23,33
217,396	22,95
217,659	24,69
217,923	20,96
218,187	21,59
218,451	21,52
218,714	18,86
218,978	20,3
219,242	20,84
219,505	22,37
219,769	23,31
220,033	23,88
220,296	25,22
220,56	26,7
220,824	24,38
221,087	26,32
221,351	27,24
221,614	26,3
221,878	27,34
222,142	26,67
222,405	27,26
222,669	30,6
222,932	25,84
223,196	23,64
223,459	18,94
223,722	19,45
223,986	17,93
224,249	15,72
224,513	16,26
224,776	15,97
225,04	14,73
225,303	15,73
225,566	15,73
225,83	17,56
226,093	20,75
226,356	18,39
226,62	17,32
226,883	19,36
227,146	18,72
227,409	19,7
227,673	17,91
227,936	16,82
228,199	17,69
228,462	15,32
228,725	13,87
228,989	15,08
229,252	15,74
229,515	20,76
229,778	20,44
230,041	19,66
230,304	17,71
230,567	18,5
230,83	16,1
231,093	19,95
231,356	19,78
231,619	26,77
231,882	25,08
232,145	27,72
232,408	28,95
232,671	28,3
232,934	27,5
233,197	25,6
233,46	22,48
233,723	24,05
233,986	21,83
234,249	20,11
234,512	22,74
234,775	26,15
235,037	25,06
235,3	25,82
235,563	25,63
235,826	24,75
236,089	26,82
236,351	25,72
236,614	27,58
236,877	28,44
237,14	30,22
237,402	29,7
237,665	23,7
237,928	22,85
238,19	21,04
238,453	23,9
238,716	23,2
238,978	23,41
239,241	21,12
239,503	25,08
239,766	20,48
240,029	18,99
240,291	20,99
240,554	19,66
240,816	19,49
241,079	20,12
241,341	19,5
241,604	19,38
241,866	14,93
242,129	16,13
242,391	17,14
242,653	15,35
242,916	14,62
243,178	15,4
243,441	15,02
243,703	13,46
243,965	12,61
244,228	13,77
244,49	13,73
244,752	15,06
245,015	16,17
245,277	19,17
245,539	18,8
245,801	20,81
246,064	19,65
246,326	19,34
246,588	18,5
246,85	19,57
247,112	18,86
247,374	21,05
247,637	21,72
247,899	20,63
248,161	21,08
248,423	16,6
248,685	19,04
248,947	18,79
249,209	19,05
249,471	20,5
249,733	20,48
249,995	21,13
250,257	20,68
250,519	20,02
250,781	23,62
251,043	21,49
251,305	21,34
251,567	23,78
251,829	25,05
252,091	23,3
252,353	19,87
252,615	19,73
252,876	17,86
253,138	16,34
253,4	9,96
253,662	9,95
253,924	11,22
254,185	12,58
254,447	12,32
254,709	12,32
254,971	13,36
255,232	16,17
255,494	15,32
255,756	12,99
256,017	13,67
256,279	14,19
256,541	13,95
256,802	12,66
257,064	13,2
257,326	11,81
257,587	12,41
257,849	13,61
258,11	15,51
258,372	16,57
258,633	18,13
258,895	17,02
259,156	15,29
259,418	14,86
259,679	10,96
259,941	7,73
260,202	11,06
260,464	12,77
260,725	10,83
260,987	10,48
261,248	10,58
261,509	12,27
261,771	11,51
262,032	13,29
262,293	12,91
262,555	12,4
262,816	10,72
263,077	8,97
263,338	5,68
263,6	6,63
263,861	5,79
264,122	5,54
264,383	8
264,645	8,49
264,906	7,49
265,167	7,96
265,428	8,48
265,689	10,12
265,95	8,67
266,211	9,29
266,473	8,41
266,734	4,66
266,995	1,25
267,256	2,5
267,517	5,57
267,778	8,15
268,039	10,57
268,3	9,9
268,561	7,58
268,822	11,88
269,083	9,55
269,344	8,11
269,604	7,49
269,865	7,6
270,126	2,57
270,387	4,6
270,648	7,05
270,909	7,07
271,17	6,13
271,43	3,68
271,691	-0,17
271,952	-1,01
272,213	0,91
272,473	-1,25
272,734	0,05
272,995	2,59
273,256	3,89
273,516	6,85
273,777	4,22
274,038	6,37
274,298	4,15
274,559	3,56
274,82	8,71
275,08	10,95
275,341	13,76
275,601	11,45
275,862	9,97
276,122	10,1
276,383	11,15
276,643	12,72
276,904	10,28
277,164	13,1
277,425	13,66
277,685	18,09
277,946	20,42
278,206	22,99
278,467	24,98
278,727	24,54
278,987	24,2
279,248	23,81
279,508	26,23
279,768	29,17
280,029	30,95
280,289	26,65
280,549	23,97
280,81	23,7
281,07	21,2
281,33	22,69
281,59	20,38
281,851	22,9
282,111	20,92
282,371	20,48
282,631	22,26
282,891	21,14
283,151	19,45
283,412	17,67
283,672	16,54
283,932	16,65
284,192	17,75
284,452	15,79
284,712	14,27
284,972	13,85
285,232	12,52
285,492	14,43
285,752	11,1
286,012	14,65
286,272	16,86
286,532	13,46
286,792	14,27
287,052	16,93
287,312	18,36
287,571	16,75
287,831	16,47
288,091	12,93
288,351	14,46
288,611	19,13
288,871	19,36
289,13	20,89
289,39	16,66
289,65	17,36
289,91	16,54
290,17	19,31
290,429	21,87
290,689	18,85
290,949	14,31
291,208	17,59
291,468	20,16
291,728	22,49
291,987	24,71
292,247	24,02
292,506	26,67
292,766	28,32
293,026	27,1
293,285	28,58
293,545	30,7
293,804	30,5
294,064	26,91
294,323	23,6
294,583	23,53
294,842	22,38
295,102	22,2
295,361	21,7
295,621	22,31
295,88	23,57
296,139	24,23
296,399	25,55
296,658	21,58
296,917	21,92
297,177	18,48
297,436	19,42
297,695	18,21
297,955	18,89
298,214	17,72
298,473	18,82
298,732	20,69
298,992	26,21
299,251	24,6
299,51	19,42
299,769	20,5
300,028	18,26
300,287	17,75
300,547	17,78
300,806	16,61
301,065	20,31
301,324	21,59
301,583	17,68
301,842	15,08
302,101	13,98
302,36	14,84
302,619	14,88
302,878	16,26
303,137	13,53
303,396	14,61
303,655	16,1
303,914	11,77
304,173	12,96
304,432	11,35
304,691	13,33
304,95	11,55
305,208	15,42
305,467	15,89
305,726	14,91
305,985	15,62
306,244	18,1
306,503	18,16
306,761	18,5
307,02	13,91
307,279	15,01
307,537	17,66
307,796	14,26
308,055	14,07
308,314	15,15
308,572	12,61
308,831	14,06
309,09	14,19
309,348	14,63
309,607	13,59
309,865	17,41
310,124	16,68
310,382	18,87
310,641	20,07
310,9	16,97
311,158	17,72
311,417	17,87
311,675	18,98
311,933	21,58
312,192	22,69
312,45	22,67
312,709	22,66
312,967	21,96
313,226	21,46
313,484	20,6
313,742	18,97
314,001	16,4
314,259	12,17
314,517	12,86
314,776	14,29
315,034	16,79
315,292	13,81
315,55	11,62
315,809	12
316,067	11,68
316,325	10,42
316,583	10,66
316,841	8,8
317,1	6,86
317,358	3,39
317,616	3,2
317,874	1,69
318,132	1,27
318,39	0,23
318,648	-0,99
318,906	-0,33
319,164	-0,68
319,422	-2,61
319,68	-5,49
319,938	-5,34
320,196	-6,33
320,454	-5,52
320,712	-5,54
320,97	-6,05
321,228	-7,28
321,486	-5,21
321,744	-3,36
322,002	-1,75
322,26	-2,37
322,517	-2,01
322,775	-5,26
323,033	-6,87
323,291	-4,98
323,549	-2,82
323,806	-2,68
324,064	-2,64
324,322	-1,05
324,58	-1,87
324,837	1,62
325,095	-0,03
325,353	1,54
325,61	3,26
325,868	2,22
326,126	5,38
326,383	4,28
326,641	3,57
326,898	4,33
327,156	3,46
327,413	4,11
327,671	5,32
327,928	7,07
328,186	8,07
328,443	7,34
328,701	10,11
328,958	11,68
329,216	12,05
329,473	9,68
329,731	10,11
329,988	11,73
330,245	13,94
330,503	15,07
330,76	15,79
331,017	18,55
331,275	16,87
331,532	15,94
331,789	14,61
332,047	15,55
332,304	12,84
332,561	13,65
332,818	12,24
333,076	14,17
333,333	16,23
333,59	16,36
333,847	18,2
334,104	15,4
334,361	14,06
334,618	13,24
334,876	13,11
335,133	13,51
335,39	11,92
335,647	12,96
335,904	8,96
336,161	6,89
336,418	8,49
336,675	4,26
336,932	5,54
337,189	5,6
337,446	6,43
337,703	7,16
337,96	2,23
338,216	3,28
338,473	-0,25
338,73	-1,09
338,987	-1,16
339,244	2,11
339,501	0,28
339,757	1,09
340,014	1,78
340,271	2,85
340,528	4,55
340,785	8,2
341,041	8,2
341,298	4,56
341,555	4,16
341,811	4,63
342,068	3,42
342,325	3,26
342,581	5,44
342,838	6,35
343,094	6,93
343,351	7,78
343,608	4,86
343,864	7,46
344,121	8,86
344,377	7,98
344,634	8,66
344,89	7,14
345,147	5,79
345,403	5,19
345,66	4,22
345,916	6,28
346,172	3,68
346,429	2,13
346,685	1,92
346,942	1,2
347,198	-2,98
347,454	-0,83
347,711	-0,43
347,967	-4,38
348,223	-3,3
348,48	-5,32
348,736	-2,66
348,992	-1,92
349,248	0,14
349,504	0,29
349,761	-2,29
350,017	-3,32
350,273	-1,72
350,529	-2,15
350,785	-3,79
351,041	-4,68
351,297	-3,13
351,554	-2,95
351,81	-5,04
352,066	-6,04
352,322	-6,94
352,578	-5,72
352,834	-5,91
353,09	-5,15
353,346	-5,37
353,602	-7,15
353,858	-7,33
354,114	-7,08
354,369	-5,27
354,625	-3,38
354,881	-4,57
355,137	-1,5
355,393	-2,53
355,649	-2,5
355,905	-1,82
356,16	-1,82
356,416	-0,35
356,672	-7,11
356,928	-6,57
357,183	-7,19
357,439	-6,78
357,695	-6,8
357,951	-0,65
358,206	-1,02
358,462	-1,48
358,718	-1,94
358,973	-0,14
359,229	-0,72
359,484	-0,65
359,74	2,79
359,996	3,02
360,251	6,74
360,507	5,18
360,762	5,01
361,018	7,7
361,273	6,92
361,529	8,7
361,784	7,39
362,04	8,89
362,295	8,34
362,55	7,68
362,806	9,26
363,061	8,19
363,316	8,92
363,572	9,43
363,827	11,21
364,082	8,13
364,338	8,15
364,593	8,18
364,848	7,58
365,104	5,79
365,359	8,86
365,614	9,85
365,869	6,45
366,124	6,59
366,38	6,03
366,635	7,15
366,89	8,25
367,145	8,61
367,4	13,09
367,655	12,72
367,91	13,12
368,165	11,22
368,42	8,22
368,675	9,09
368,93	9,09
369,185	6,56
369,44	7,19
369,695	10,86
369,95	9,77
370,205	8,96
370,46	8,59
370,715	7,99
370,97	9,21
371,225	9,9
371,48	11,5
371,734	12,06
371,989	14,04
372,244	13,24
372,499	14,8
372,754	13,25
373,008	11,58
373,263	6,01
373,518	7,58
373,773	6,81
374,027	5,97
374,282	8,04
374,537	7,71
374,791	8,62
375,046	7,37
375,301	5,09
375,555	3
375,81	4,51
376,064	5,7
376,319	10,88
376,573	9,58
376,828	5,41
377,082	10,13
377,337	6,73
377,591	3,23
377,846	3,7
378,1	6,85
378,355	7,64
378,609	7,97
378,863	6,21
379,118	7,03
379,372	5,52
379,627	4,31
379,881	2,46
380,135	3
380,389	3,17
380,644	5,63
380,898	7,66
381,152	10,77
381,407	11,68
381,661	13,55
381,915	15,44
382,169	14,86
382,423	15,4
382,677	12,54
382,932	12,96
383,186	12,84
383,44	13,54
383,694	14,98
383,948	11,92
384,202	9,39
384,456	12,56
384,71	15,38
384,964	14,24
385,218	17,82
385,472	17,74
385,726	18,01
385,98	17,93
386,234	17,36
386,488	13,76
386,742	15,38
386,996	13,02
387,249	13,96
387,503	16,64
387,757	17,88
388,011	17,96
388,265	19,29
388,518	19,51
388,772	21,57
389,026	21,16
389,28	18,45
389,533	17,02
389,787	19,13
390,041	17,69
390,295	17,53
390,548	16,98
390,802	20,63
391,055	18,93
391,309	18,61
391,563	17,65
391,816	19,94
392,07	19,2
392,323	19,83
392,577	19,8
392,83	20,29
393,084	24,42
393,337	27,47
393,591	27,42
393,844	26,78
394,098	30,67
394,351	35,03
394,604	34,98
394,858	37,25
395,111	37,33
395,364	33,5
395,618	34,9
395,871	33,64
396,124	31,49
396,378	29,76
396,631	28,89
396,884	25,84
397,137	24,83
397,391	26,16
397,644	22,41
397,897	22,97
398,15	24,57
398,403	27,74
398,657	25,19
398,91	26,11
399,163	27,13
399,416	26,29
399,669	24,84
399,922	23,67
400,175	21,26
400,428	21,05
400,681	21,44
400,934	17,61
401,187	17,93
401,44	18,97
401,693	16,69
401,946	13,18
402,199	8,3
402,452	7,68
402,704	4,01
402,957	3
403,21	4,89
403,463	3,77
403,716	4,09
403,969	4,77
404,221	4,29
404,474	6,48
404,727	10,04
404,98	13,6
405,232	12,76
405,485	13,83
405,738	14,99
405,99	15,09
406,243	14,2
406,496	16,79
406,748	16,13
407,001	14,7
407,253	15,53
407,506	14,86
407,759	15,88
408,011	14,13
408,264	13,58
408,516	13,97
408,769	10,99
409,021	12,84
409,274	12,05
409,526	14,53
409,778	13,76
410,031	17,1
410,283	17,04
410,536	22,04
410,788	20,19
411,04	19,81
411,293	21,48
411,545	22,7
411,797	21,92
412,049	21,59
412,302	21,5
412,554	23,11
412,806	21,23
413,058	20
413,311	22,1
413,563	21,46
413,815	20,38
414,067	18,76
414,319	16,83
414,571	18,17
414,823	17,22
415,075	15,09
415,328	15,25
415,58	18,94
415,832	20,33
416,084	20,67
416,336	18,92
416,588	23,51
416,84	19,8
417,091	21,81
417,343	18,47
417,595	20,76
417,847	22,75
418,099	24,61
418,351	24,96
418,603	28,99
418,855	29,74
419,106	30,54
419,358	30,6
419,61	31,9
419,862	32,57
420,114	31,06
420,365	30,9
420,617	30,66
420,869	29,62
421,12	26,76
421,372	27,46
421,624	27,7
421,875	28,78
422,127	25,49
422,379	25,21
422,63	26,43
422,882	26,45
423,133	26,62
423,385	26,23
423,636	27,18
423,888	29,88
424,139	33,13
424,391	31,17
424,642	30,95
424,894	28,98
425,145	29,96
425,396	25,74
425,648	27,4
425,899	24,78
426,151	24,33
426,402	22,02
426,653	23
426,905	20,38
427,156	17,22
427,407	16,28
427,658	16,71
427,91	14,76
428,161	12,89
428,412	15,52
428,663	16,92
428,914	18,46
429,166	18,99
429,417	18,12
429,668	17,39
429,919	16,17
430,17	15,49
430,421	15,8
430,672	18,49
430,923	18,84
431,174	17,49
431,425	18,42
431,676	18,15
431,927	14,43
432,178	15,65
432,429	15,16
432,68	14,48
432,931	17,65
433,182	22,07
433,433	18,94
433,683	20,63
433,934	19,73
434,185	19,13
434,436	17,3
434,687	19,33
434,937	22,26
435,188	20,34
435,439	18,56
435,69	20,64
435,94	18,75
436,191	17,72
436,442	16,67
436,692	16,23
436,943	14,21
437,194	13,75
437,444	15,67
437,695	20,13
437,945	20,92
438,196	20,32
438,447	18,74
438,697	18,09
438,948	17,15
439,198	13,94
439,449	9,54
439,699	11,14
439,949	11,35
440,2	11,1
440,45	13,65
440,701	11,82
440,951	10,58
441,201	11,28
441,452	9,91
441,702	8,3
441,952	9,68
442,203	10,49
442,453	7,86
442,703	8,2
442,953	9,7
443,204	12,13
443,454	9,98
443,704	12,04
443,954	10,27
444,204	11,45
444,455	12,62
444,705	14,94
444,955	15,06
445,205	13,47
445,455	10,58
445,705	10,92
445,955	11,98
446,205	11,33
446,455	13,05
446,705	14,97
446,955	16,49
447,205	19,11
447,455	20,11
447,705	17,61
447,955	17,13
448,205	16,78
448,454	16,37
448,704	18,78
448,954	17,73
449,204	18,72
449,454	19,57
449,704	17,86
449,953	16,67
450,203	19,72
450,453	18,17
450,703	21,38
450,952	20,45
451,202	22,4
451,452	21,67
451,701	25,21
451,951	29,22
452,201	29,15
452,45	27,24
452,7	29,32
452,949	29,68
453,199	30,11
453,448	32,4
453,698	32,65
453,947	31,93
454,197	31,22
454,446	29,04
454,696	32,23
454,945	31,12
455,195	30,44
455,444	31,44
455,693	35,43
455,943	33,95
456,192	34,52
456,442	34,05
456,691	33,71
456,94	33,82
457,189	33,13
457,439	35,72
457,688	38,46
457,937	38,37
458,186	38,98
458,436	37,96
458,685	38,72
458,934	37,7
459,183	38,35
459,432	39,11
459,681	37,46
459,93	36,21
460,179	37,32
460,429	34,88
460,678	37,82
460,927	41,02
461,176	38,44
461,425	39,63
461,674	41,9
461,923	41,41
462,172	40,41
462,42	37,7
462,669	40,31
462,918	39,63
463,167	39,86
463,416	37,12
463,665	38,92
463,914	40,26
464,162	39,01
464,411	41,4
464,66	43,22
464,909	41,64
465,158	41,29
465,406	40,2
465,655	40,36
465,904	43,14
466,152	42,91
466,401	43,12
466,65	44,7
466,898	42,95
467,147	39,91
467,395	40,2
467,644	42,67
467,893	40,68
468,141	41,61
468,39	38,4
468,638	35,57
468,887	34,13
469,135	31,84
469,384	32,07
469,632	33,14
469,88	34,21
470,129	35,63
470,377	32,09
470,626	34,87
470,874	36,57
471,122	38,39
471,371	35,79
471,619	34,01
471,867	35,09
472,115	33,98
472,364	32,32
472,612	36,07
472,86	34,6
473,108	35,61
473,356	35,97
473,605	34,1
473,853	31,88
474,101	31,65
474,349	29,86
474,597	32,71
474,845	30,79
475,093	29,14
475,341	27,09
475,589	28,14
475,837	28,75
476,085	30,76
476,333	29,91
476,581	32,84
476,829	32,97
477,077	35,11
477,325	33,92
477,573	35,25
477,821	33,32
478,069	36,2
478,317	35,19
478,564	36,46
478,812	33,45
479,06	32,45
479,308	31,93
479,555	32,2
479,803	31,43
480,051	30,81
480,299	29,21
480,546	30,2
480,794	27,1
481,042	27,08
481,289	25,96
481,537	26,36
481,784	26,04
482,032	29,89
482,28	28,57
482,527	28,41
482,775	29
483,022	29,72
483,27	31,02
483,517	35,43
483,765	33,24
484,012	32,6
484,259	29,41
484,507	30,92
484,754	31,44
485,002	32,69
485,249	31,74
485,496	33,91
485,744	32,48
485,991	32,08
486,238	30,32
486,486	34,38
486,733	35,24
486,98	37,46
487,227	35,89
487,474	37,71
487,722	40,04
487,969	39,13
488,216	38,93
488,463	39,49
488,71	38,35
488,957	37,34
489,204	38,24
489,451	38,37
489,699	37,31
489,946	34,91
490,193	34,29
490,44	33,09
490,687	35,25
490,934	32,84
491,18	28,72
491,427	30,35
491,674	33,62
491,921	34,5
492,168	34,81
492,415	30,25
492,662	30,77
492,909	33,34
493,155	32,8
493,402	31,48
493,649	30,07
493,896	31,29
494,142	26,96
494,389	27,5
494,636	25,69
494,883	23,81
495,129	22,41
495,376	21,27
495,623	22,94
495,869	24,77
496,116	25,74
496,362	26,67
496,609	29,96
496,855	34,17
497,102	34,37
497,348	33,57
497,595	35,7
497,841	39,3
498,088	39,89
498,334	37,26
498,581	36,95
498,827	36,82
499,074	38
499,32	39,01
499,566	43,21
499,813	43,43
500,059	43,67
500,305	43,06
500,552	41,76
500,798	40,23
501,044	44,96
501,29	42,68
501,537	39,76
501,783	42,22
502,029	45,24
502,275	42,77
502,521	41,97
502,767	41,51
503,013	44,12
503,26	41,23
503,506	37,48
503,752	39,25
503,998	36,84
504,244	37,68
504,49	34,17
504,736	35,31
504,982	34,94
505,228	36,17
505,474	36,75
505,72	37,38
505,966	36,21
506,211	39,71
506,457	37,26
506,703	33,87
506,949	32,36
507,195	30,53
507,441	26,88
507,686	29,48
507,932	29,25
508,178	29,72
508,424	28,47
508,669	23,6
508,915	26,84
509,161	28,47
509,406	29,44
509,652	28,4
509,898	31,73
510,143	33,17
510,389	32,87
510,634	28,73
510,88	33,17
511,125	36,01
511,371	36,01
511,616	38,41
511,862	35,86
512,107	33,06
512,353	33,55
512,598	33,78
512,844	32,08
513,089	29,19
513,335	30,46
513,58	30,2
513,825	29,54
514,071	30,08
514,316	31,16
514,561	31,05
514,806	29,65
515,052	32,84
515,297	31,03
515,542	33,16
515,787	34,84
516,033	37,83
516,278	39,75
516,523	37,39
516,768	36,28
517,013	33,77
517,258	33,89
517,503	33,61
517,748	33,3
517,993	33,46
518,238	34,39
518,483	31,85
518,728	31,13
518,973	29,65
519,218	29,13
519,463	29,7
519,708	29,88
519,953	28,75
520,198	28,84
520,443	30,94
520,688	34,73
520,933	33,24
521,177	33,31
521,422	30,24
521,667	34,04
521,912	34,15
522,157	31,14
522,401	33,7
522,646	33,05
522,891	34,39
523,135	34,53
523,38	34,46
523,625	32,76
523,869	34,28
524,114	35,48
524,358	35,38
524,603	36,54
524,848	32,62
525,092	31,61
525,337	33,51
525,581	34,96
525,826	37,19
526,07	38,63
526,315	39,35
526,559	39,34
526,803	36,83
527,048	40,01
527,292	41,01
527,537	41,23
527,781	40,57
528,025	38,42
528,269	39,71
528,514	39,84
528,758	38,73
529,002	40,5
529,247	42,41
529,491	41,57
529,735	46,45
529,979	46,15
530,223	47,3
530,467	44,9
530,712	42,15
530,956	39,45
531,2	40,98
531,444	39,08
531,688	41,41
531,932	40,83
532,176	41,12
532,42	43,27
532,664	45,74
532,908	45,74
533,152	43,43
533,396	41,76
533,64	39,62
533,884	38,33
534,128	37,15
534,371	38,87
534,615	39,12
534,859	38,06
535,103	36,89
535,347	38,64
535,59	39,46
535,834	36,97
536,078	38,57
536,322	40,94
536,565	43,99
536,809	42,04
537,053	44,3
537,296	42,37
537,54	40,73
537,784	39,23
538,027	41,71
538,271	40,29
538,514	40,18
538,758	40,07
539,001	38,26
539,245	37,65
539,488	37,77
539,732	40,89
539,975	41,47
540,219	41,86
540,462	40,94
540,706	43,12
540,949	43,81
541,192	44,96
541,436	50,41
541,679	55,98
541,922	57,08
542,166	52,28
542,409	53,29
542,652	53,93
542,895	52,97
543,139	53,98
543,382	57,89
543,625	56,89
543,868	57,53
544,111	55,31
544,354	54,25
544,598	51,17
544,841	52,41
545,084	53,97
545,327	54,43
545,57	53,95
545,813	57,23
546,056	57,38
546,299	57,16
546,542	59,96
546,785	63,04
547,028	64,81
547,271	63,57
547,514	63,38
547,756	60,94
547,999	61,75
548,242	63,26
548,485	61,7
548,728	61,06
548,971	55,19
549,213	54,49
549,456	53,75
549,699	53,53
549,942	54,55
550,184	53,17
550,427	53,19
550,67	52,49
550,912	46,65
551,155	48
551,398	46,91
551,64	46,94
551,883	47,87
552,125	49,8
552,368	49,77
552,61	46,48
552,853	48,03
553,095	46,94
553,338	46,24
553,58	47,05
553,823	46,05
554,065	48,24
554,308	43,8
554,55	41,86
554,792	38,87
555,035	37,89
555,277	37,33
555,519	36,46
555,762	33,62
556,004	33,32
556,246	32,23
556,488	33,71
556,731	30,76
556,973	30,83
557,215	31,38
557,457	31,84
557,699	35,25
557,941	33,13
558,183	33,08
558,426	35,94
558,668	32,52
558,91	33,47
559,152	33,03
559,394	31,48
559,636	32,68
559,878	34,57
560,12	33,5
560,362	34,67
560,604	34,64
560,845	33,97
561,087	31,43
561,329	34,09
561,571	31,84
561,813	32,65
562,055	31,02
562,297	32,73
562,538	34,29
562,78	36,89
563,022	35,61
563,264	36,72
563,505	37,17
563,747	37,48
563,989	35,13
564,23	35,56
564,472	35,75
564,714	38,75
564,955	39,03
565,197	35,16
565,438	36,68
565,68	40,4
565,921	38,89
566,163	40,19
566,404	38,29
566,646	41,38
566,887	43,63
567,129	43,55
567,37	41
567,612	43,81
567,853	41,74
568,094	44,28
568,336	44,2
568,577	47,5
568,818	47,75
569,06	44,93
569,301	42,81
569,542	44,8
569,783	45,97
570,025	45,63
570,266	45,62
570,507	47,37
570,748	47,37
570,989	48,56
571,23	50,33
571,472	50,01
571,713	47,89
571,954	48,92
572,195	46,36
572,436	49,36
572,677	52,5
572,918	53,75
573,159	50,88
573,4	49,53
573,641	49,62
573,882	50,76
574,123	47,94
574,364	43,6
574,604	44,18
574,845	42,79
575,086	42,66
575,327	41,07
575,568	39,88
575,809	38,83
576,049	36,53
576,29	34,06
576,531	39,98
576,771	43,7
577,012	46,43
577,253	46,45
577,494	44,66
577,734	44,66
577,975	44,6
578,215	44,75
578,456	41,71
578,697	40,66
578,937	43,37
579,178	43,27
579,418	40,88
579,659	40,24
579,899	35,71
580,14	35,09
580,38	33,98
580,62	33,05
580,861	35,93
581,101	35,18
581,342	35,68
581,582	32,2
581,822	35,48
582,063	34,57
582,303	36,56
582,543	37,18
582,783	40,62
583,024	41,86
583,264	45,74
583,504	45,3
583,744	46,95
583,984	43,3
584,224	43,77
584,465	40,55
584,705	40,45
584,945	41,78
585,185	40,79
585,425	42,7
585,665	42,96
585,905	43,75
586,145	45,24
586,385	43,75
586,625	47,11
586,865	47,35
587,105	48,33
587,345	48,49
587,585	48,06
587,824	48,36
588,064	49,27
588,304	47,32
588,544	47,89
588,784	45,91
589,024	48,24
589,263	47,51
589,503	45,6
589,743	46,83
589,982	45,32
590,222	44,3
590,462	41,19
590,701	38,15
590,941	41,3
591,181	40,16
591,42	39,86
591,66	41,16
591,899	45,59
592,139	44,63
592,378	44,95
592,618	45,38
592,857	43,8
593,097	43,34
593,336	42,37
593,576	40,28
593,815	41,7
594,055	41,71
594,294	42,35
594,533	41,03
594,773	40,73
595,012	42,48
595,251	42,65
595,491	45,09
595,73	48,48
595,969	49,76
596,208	51,27
596,447	55,72
596,687	56,01
596,926	57,09
597,165	53,59
597,404	56,35
597,643	55,01
597,882	54,78
598,121	55,52
598,36	55,79
598,599	55,04
598,838	55,24
599,077	51,47
599,316	49,96
599,555	49,1
599,794	50,16
600,033	51,62
600,272	52,2
600,511	51,45
600,75	55,23
600,989	58,12
601,228	57,92
601,466	56,4
601,705	57,05
601,944	58,16
602,183	59,57
602,422	58,11
602,66	57,09
602,899	55,75
603,138	55,09
603,376	54,04
603,615	54,35
603,854	51,66
604,092	52,1
604,331	54,15
604,569	55,7
604,808	53,57
605,047	55,75
605,285	56,17
605,524	56,77
605,762	54,9
606	57,79
606,239	59,41
606,477	60,46
606,716	57,13
606,954	56,99
607,193	54,01
607,431	49,67
607,669	49,32
607,908	47,87
608,146	48,58
608,384	46,74
608,622	47,13
608,861	48,83
609,099	48,11
609,337	48,38
609,575	48,77
609,813	50,14
610,052	50,88
610,29	46,49
610,528	44,59
610,766	44,13
611,004	43,96
611,242	43,86
611,48	41,99
611,718	39,18
611,956	40,18
612,194	40,48
612,432	39,73
612,67	38,44
612,908	39,69
613,146	37,1
613,384	36,12
613,621	34,05
613,859	34,75
614,097	34,93
614,335	35,17
614,573	37,6
614,811	40,62
615,048	38,64
615,286	39,39
615,524	39,34
615,761	37,46
615,999	37,07
616,237	35,53
616,474	37,89
616,712	38,53
616,95	36,54
617,187	35,02
617,425	35,85
617,662	37,79
617,9	34,2
618,137	32,86
618,375	30,86
618,612	29,44
618,85	32,99
619,087	36,22
619,325	36,01
619,562	33,61
619,799	32,79
620,037	32,46
620,274	31,72
620,511	33,98
620,749	30,91
620,986	29,55
621,223	26,53
621,461	26,98
621,698	28,01
621,935	26,28
622,172	24,46
622,409	27,1
622,647	27,17
622,884	23,77
623,121	25,77
623,358	23,18
623,595	22,91
623,832	22,48
624,069	20,41
624,306	22,61
624,543	24,99
624,78	25,19
625,017	25,51
625,254	30,35
625,491	32,33
625,728	34,99
625,965	34,01
626,202	32,25
626,438	30,06
626,675	28,44
626,912	30,72
627,149	31,19
627,386	31,68
627,622	29,1
627,859	27,92
628,096	29,11
628,333	30,02
628,569	30,53
628,806	32,23
629,043	31,12
629,279	33,33
629,516	35,72
629,752	33,08
629,989	34,56
630,225	32,84
630,462	32,96
630,699	35,33
630,935	35,68
631,171	33,89
631,408	34,72
631,644	32,59
631,881	28,14
632,117	25,95
632,354	27,03
632,59	25,39
632,826	25,25
633,063	23,76
633,299	25,52
633,535	24,18
633,771	22,7
634,008	24,85
634,244	23,62
634,48	22,19
634,716	23,07
634,953	24,1
635,189	25,18
635,425	26,65
635,661	29,62
635,897	27,52
636,133	26,21
636,369	25,18
636,605	21,97
636,841	21,26
637,077	22,21
637,313	20,97
637,549	23,02
637,785	21,85
638,021	20,08
638,257	18,64
638,493	19,93
638,729	18,35
638,965	21,95
639,2	23,93
639,436	22,85
639,672	22,4
639,908	20,23
640,144	23,86
640,379	27,23
640,615	25,47
640,851	26,53
641,086	29,3
641,322	27,07
641,558	28,81
641,793	29,57
642,029	29,36
642,264	27,34
642,5	27,66
642,736	25,06
642,971	25,21
643,207	25,12
643,442	24,09
643,678	26,06
643,913	26,46
644,148	23,56
644,384	27,3
644,619	26,6
644,855	26,85
645,09	27
645,325	27,99
645,561	27,84
645,796	25,56
646,031	28,73
646,266	24,79
646,502	24,38
646,737	27,41
646,972	26,83
647,207	26,98
647,442	23,62
647,678	20,75
647,913	23,72
648,148	24,62
648,383	22,82
648,618	24,09
648,853	24,75
649,088	26,73
649,323	29,13
649,558	31,21
649,793	31,49
650,028	31,69
650,263	28,76
650,498	31,51
650,733	32,43
650,968	30,07
651,202	31,75
651,437	31,36
651,672	26,31
651,907	26,13
652,142	27,72
652,376	28,7
652,611	30,89
652,846	31,31
653,081	33,11
653,315	31,71
653,55	33,17
653,785	32,53
654,019	34,21
654,254	33,23
654,488	34,94
654,723	30,74
654,958	28,6
655,192	25,81
655,427	22,49
655,661	23,07
655,896	24,9
656,13	25,44
656,364	21,71
656,599	18,63
656,833	27,22
657,068	29,89
657,302	30,95
657,536	29
657,771	30,77
658,005	31,1
658,239	33,44
658,474	30,6
658,708	32,47
658,942	32,74
659,176	32,81
659,41	28,05
659,645	27,88
659,879	26,4
660,113	23,97
660,347	21,48
660,581	19,2
660,815	18,1
661,049	18,02
661,283	13,23
661,517	11,18
661,751	10,44
661,985	11,39
662,219	12,68
662,453	12,07
662,687	13,24
662,921	9,86
663,155	8,42
663,389	2,92
663,622	1,85
663,856	4,62
664,09	-4,83
664,324	-7,33
664,558	-8,73
664,791	-8,57
665,025	-10,49
665,259	-10,27
665,492	-11,91
665,726	-7,91
665,96	-9,01
666,193	-10,7
666,427	-8,94
666,661	-8,36
666,894	-10,13
667,128	-11,43
667,361	-8,52
667,595	-8,51
667,828	-8,27
668,062	-9,38
668,295	-8,89
668,529	-6,97
668,762	-5,99
668,995	-7,34
669,229	-2,94
669,462	-2,67
669,695	-0,95
669,929	-1,36
670,162	-0,23
670,395	-2,17
670,629	0,56
670,862	3,54
671,095	-0,25
671,328	0,67
671,561	-2,29
671,795	-0,66
672,028	1,41
672,261	3,68
672,494	4,75
672,727	3,23
672,96	4,07
673,193	3,57
673,426	8,12
673,659	7,71
673,892	9,23
674,125	8,64
674,358	8,58
674,591	7,82
674,824	7,33
675,057	6,86
675,29	6,31
675,523	7,41
675,755	5,72
675,988	5,7
676,221	8,85
676,454	6
676,687	6,9
676,919	5,37
677,152	4,55
677,385	3,78
677,617	4,5
677,85	4,81
678,083	3,48
678,315	6,74
678,548	4,46
678,78	3,12
679,013	3,01
679,246	1,67
679,478	1,64
679,711	-0,06
679,943	2,59
680,175	-0,39
680,408	3,57
680,64	0,6
680,873	0,96
681,105	1,97
681,338	6,05
681,57	5,54
681,802	5,75
682,034	5,74
682,267	9,31
682,499	11,23
682,731	8,72
682,964	7,93
683,196	7,53
683,428	4,57
683,66	4,13
683,892	7,03
684,124	9,48
684,356	13,03
684,589	15,51
684,821	14,36
685,053	14,1
685,285	13,89
685,517	14,49
685,749	16,27
685,981	18,62
686,213	18,8
686,445	19,96
686,676	17,75
686,908	17,21
687,14	15,13
687,372	15,23
687,604	11,81
687,836	11,58
688,068	11,54
688,299	10,77
688,531	8,05
688,763	13,09
688,995	11,2
689,226	15,5
689,458	12,96
689,69	12,1
689,921	10,84
690,153	11,3
690,384	12,5
690,616	11,96
690,848	12,76
691,079	8,86
691,311	7,15
691,542	4,12
691,774	1,02
692,005	3,5
692,237	6,28
692,468	5,79
692,699	5
692,931	4,4
693,162	2,45
693,393	1,98
693,625	0,28
693,856	0,91
694,087	1,48
694,319	3,81
694,55	3,93
694,781	2,88
695,012	2,78
695,243	1,42
695,475	0,95
695,706	0,28
695,937	-1,45
696,168	-0,95
696,399	-4,61
696,63	-5,16
696,861	-5,19
697,092	0,21
697,323	3,84
697,554	5,53
697,785	6,78
698,016	8,74
698,247	8,97
698,478	8,63
698,709	10,77
698,94	14,43
699,171	14,73
699,401	10,99
699,632	12,84
699,863	9,25
700,094	9,3
700,325	12,54
700,555	13,09
700,786	15,02
701,017	14,33
701,247	13,57
701,478	13,53
701,709	13,97
701,939	15,27
702,17	16,45
702,401	17,43
702,631	17,81
702,862	16,87
703,092	13,29
703,323	16,9
703,553	17,61
703,784	18,06
704,014	17,85
704,244	12,99
704,475	11,8
704,705	12,13
704,936	14,01
705,166	12,62
705,396	13,17
705,627	14,12
705,857	14,27
706,087	13,86
706,317	11,03
706,548	8,91
706,778	8,56
707,008	10,9
707,238	11,74
707,468	9,76
707,698	7,81
707,928	7,22
708,158	5,91
708,389	5,3
708,619	3,94
708,849	3,01
709,079	4,5
709,309	3,53
709,539	1,61
709,768	2,6
709,998	6,53
710,228	5,64
710,458	3,81
710,688	1,35
710,918	1,48
711,148	1,74
711,378	2,85
711,607	0,8
711,837	0,24
712,067	-1,35
712,297	-2,94
712,526	-2,6
712,756	-0,81
712,986	-3,95
713,215	-6,17
713,445	-6,17
713,674	-5,16
713,904	-6,34
714,134	-3,7
714,363	-4,57
714,593	-5,34
714,822	-5,38
715,052	-6,44
715,281	-4,16
715,511	-4,68
715,74	-3,69
715,969	-4,59
716,199	-6,06
716,428	-5,25
716,657	-4,63
716,887	-2,59
717,116	-5,87
717,345	-2,66
717,575	-2,44
717,804	-0,11
718,033	-0,03
718,262	-0,97
718,492	-0,94
718,721	0,17
718,95	0,1
719,179	-0,94
719,408	-0,16
719,637	-3,97
719,866	-6,8
720,095	-4,87
720,324	-4,34
720,553	-6,51
720,782	-5,49
721,011	-5,16
721,24	-8,51
721,469	-8,67
721,698	-7,49
721,927	-7,34
722,156	-7,62
722,385	-9,7
722,613	-7,17
722,842	-8,11
723,071	-5,37
723,3	-4,05
723,529	-4,65
723,757	-4,68
723,986	-9,39
724,215	-8,68
724,443	-7,49
724,672	-5,01
724,901	-5,53
725,129	-4,63
725,358	-1,63
725,586	-4,37
725,815	-3,99
726,043	-5,16
726,272	-6,59
726,5	-6,22
726,729	-4,73
726,957	-7,82
727,186	-10,25
727,414	-10,06
727,642	-8,07
727,871	-7,71
728,099	-7,52
728,327	-7,97
728,556	-7,73
728,784	-6,94
729,012	-8,22
729,241	-5,83
729,469	-4,76
729,697	-7,08
729,925	-6,27
730,153	-8,01
730,381	-8,66
730,61	-9,22
730,838	-11,77
731,066	-9,21
731,294	-9,91
731,522	-12,58
731,75	-17,9
731,978	-17,43
732,206	-17,87
732,434	-18,62
732,662	-15,51
732,89	-17,16
733,118	-18,91
733,346	-17,62
733,573	-17,51
733,801	-16,09
734,029	-7,69
734,257	-6,44
734,485	-3,02
734,712	-0,79
734,94	-2,74
735,168	0,02
735,396	0,76
735,623	1,53
735,851	2,8
736,078	5,74
736,306	5,79
736,534	3,76
736,761	4,57
736,989	1,95
737,216	2,04
737,444	0,15
737,671	2,9
737,899	7,98
738,126	5,9
738,354	5,44
738,581	7,18
738,809	8,87
739,036	7,19
739,263	7,1
739,491	4,59
739,718	3,95
739,945	8,64
740,173	11,56
740,4	10,56
740,627	8,72
740,854	8,2
741,081	4,17
741,309	2,84
741,536	-2,1
741,763	-2,73
741,99	-1,54
742,217	-1,67
742,444	-2,44
742,671	-2,74
742,898	-3,74
743,125	-6,24
743,352	-10,04
743,579	-8,49
743,806	-8,37
744,033	-5,59
744,26	-4,21
744,487	-3,34
744,714	-4,68
744,941	-5,37
745,167	-0,72
745,394	-1,41
745,621	-3,33
745,848	-2,47
746,075	0,27
746,301	2,9
746,528	6,71
746,755	5,99
746,981	5,32
747,208	5,91
747,435	8,79
747,661	9,91
747,888	11,54
748,114	8,93
748,341	11,89
748,567	13,85
748,794	10,07
749,02	9,92
749,247	6,6
749,473	6,87
749,7	7,39
749,926	6,65
750,152	9,62
750,379	12,47
750,605	12,69
750,831	11,39
751,058	10,43
751,284	8,54
751,51	9,13
751,737	10,85
751,963	10,36
752,189	8,26
752,415	8,36
752,641	8,88
752,867	7,47
753,094	5,19
753,32	3,68
753,546	1,54
753,772	4,12
753,998	1,93
754,224	1,41
754,45	-0,11
754,676	0,32
754,902	-1,7
755,128	-0,47
755,354	-1,06
755,579	0,94
755,805	3,93
756,031	3,07
756,257	2,61
756,483	2,9
756,709	0,96
756,934	1,31
757,16	-0,14
757,386	-1,02
757,612	-4,38
757,837	-5,03
758,063	-2,62
758,289	-0,01
758,514	-0,79
758,74	-4,53
758,965	-8,03
759,191	-6,61
759,416	-5,86
759,642	-4,76
759,868	-4,49
760,093	-2,43
760,318	-2,81
760,544	-3,13
760,769	-4,39
760,995	-5,94
761,22	-6,22
761,445	-3,93
761,671	-3,2
761,896	0,39
762,121	0,76
762,347	0,09
762,572	-2,69
762,797	-3,35
763,022	-3,89
763,248	0,82
763,473	0,51
763,698	-0,07
763,923	0,9
764,148	-0,13
764,373	-0,69
764,598	2,26
764,823	4,36
765,048	1,39
765,273	-2,01
765,498	-3,38
765,723	-3,04
765,948	-2,24
766,173	-3,91
766,398	-3,25
766,623	-6,08
766,848	-6,3
767,073	-7,99
767,298	-8,26
767,522	-7,4
767,747	-8,13
767,972	-6,02
768,197	-5,31
768,421	-7,16
768,646	-10
768,871	-14,48
769,095	-15,52
769,32	-13,98
769,545	-14,27
769,769	-12,04
769,994	-10,4
770,218	-13,37
770,443	-12,07
770,667	-11,26
770,892	-11,55
771,116	-12,36
771,341	-9,45
771,565	-9,19
771,79	-8,74
772,014	-8,96
772,238	-9,89
772,463	-6,75
772,687	-5,28
772,911	-4,72
773,136	-5,69
773,36	-4,94
773,584	-3,64
773,808	-5,04
774,033	-5
774,257	-6,37
774,481	-7,39
774,705	-7,66
774,929	-8,89
775,153	-9,91
775,377	-8,93
775,602	-8,51
775,826	-6,45
776,05	-4,16
776,274	-6,08
776,498	-6,53
776,722	-7,52
776,945	-5,77
777,169	-6,51
777,393	-7,78
777,617	-7,94
777,841	-7,42
778,065	-5,61
778,289	-8,06
778,512	-9,57
778,736	-9,84
778,96	-10,06
779,184	-8,55
779,407	-9,46
779,631	-9,19
779,855	-12,22
780,078	-12,78
780,302	-14,03
780,526	-15,43
780,749	-15,22
780,973	-13,87
781,196	-11,58
781,42	-13,25
781,643	-11,9
781,867	-10,87
782,09	-12,43
782,314	-12,56
782,537	-12,55
782,76	-12,63
782,984	-10,23
783,207	-9,93
783,431	-8,89
783,654	-10,1
783,877	-13,14
784,1	-14,64
784,324	-15,03
784,547	-16,01
784,77	-19,6
784,993	-20,98
785,216	-21,85
785,44	-21,21
785,663	-22,41
785,886	-20,02
786,109	-19,34
786,332	-20,3
786,555	-21,01
786,778	-17,3
787,001	-16,26
787,224	-15,17
787,447	-14,83
787,67	-12,67
787,893	-12,93
788,116	-12,96
788,339	-11,77
788,561	-14,33
788,784	-18,23
789,007	-18,92
789,23	-20,59
789,453	-20,8
789,675	-22,94
789,898	-25,94
790,121	-27,78
790,344	-27,52
790,566	-26,43
790,789	-25,94
791,012	-23,77
791,234	-21,14
791,457	-16,83
791,679	-16,13
791,902	-14,04
792,124	-13,25
792,347	-13,77
792,569	-13,8
792,792	-16,9
793,014	-15,47
793,237	-14,37
793,459	-12,98
793,681	-12,49
793,904	-12,71
794,126	-13,53
794,348	-12,44
794,571	-11,14
794,793	-10,92
795,015	-12
795,237	-13,4
795,46	-11,32
795,682	-9,2
795,904	-6,98
796,126	-8,51
796,348	-8,27
796,57	-3,36
796,792	-2,95
797,014	1,69
797,237	3,16
797,459	3,82
797,681	5,11
797,903	2,94
798,124	3,25
798,346	13,25
798,568	14,93
798,79	16,66
799,012	18,21
799,234	18,49
799,456	20,34
799,678	23,67
799,899	22,12
800,121	19,6
800,343	19,63
800,565	19,6
800,786	20,65
801,008	21,88
801,23	21,37
801,451	20,54
801,673	17,27
801,895	17,46
802,116	20,71
802,338	21,25
802,559	20,57
802,781	18,85
803,002	21,92
803,224	24,18
803,445	21,55
803,667	22,4
803,888	19,91
804,109	19,6
804,331	19,44
804,552	20,36
804,773	23,02
804,995	19,72
805,216	6,69
805,437	5,75
805,658	4,07
805,88	1,98
806,101	2,92
806,322	1,96
806,543	0,2
806,764	-2,95
806,985	0,42
807,207	0,5
807,428	0,32
807,649	-3,42
807,87	-4,85
808,091	-5,01
808,312	-4,31
808,533	1,97
808,754	4,26
808,975	2,22
809,195	4,18
809,416	5,27
809,637	4,8
809,858	3,11
810,079	1,11
810,3	1,72
810,52	1,67
810,741	-0,23
810,962	-0,6
811,183	-1,02
811,403	-0,96
811,624	-2,73
811,845	-2,01
812,065	-1,26
812,286	-0,55
812,506	-1,4
812,727	-1,08
812,948	-0,32
813,168	2,45
813,389	0,93
813,609	3,47
813,83	1,53
814,05	-0,39
814,27	0,31
814,491	3,4
814,711	3,37
814,931	1,84
815,152	0,5
815,372	-2,73
815,592	-4,31
815,813	-4,86
816,033	-7,04
816,253	-5,85
816,473	-5,79
816,694	-4,98
816,914	-3,87
817,134	-3,25
817,354	-5,83
817,574	-4,5
817,794	-6,23
818,014	-7,82
818,234	-8,58
818,454	-8,96
818,674	-9,19
818,894	-11,37
819,114	-9,71
819,334	-9,77
819,554	-6,38
819,774	-3,3
819,994	-6,43
820,214	-6,94
820,433	-6,14
820,653	-5,71
820,873	-3,56
821,093	-4,86
821,312	-5,94
821,532	-4,73
821,752	-2,45
821,972	-3,64
822,191	-1,64
822,411	-2,56
822,63	-1,86
822,85	-0,38
823,07	-2,66
823,289	-1,45
823,509	-3,01
823,728	-1,34
823,948	-4,39
824,167	-4,15
824,387	-4,83
824,606	-2,34
824,825	-3,15
825,045	-4,06
825,264	-4,48
825,483	-2,88
825,703	0,15
825,922	-1,85
826,141	-2,81
826,361	-4,58
826,58	-10,74
826,799	-11,68
827,018	-10,22
827,237	-9,94
827,456	-9,12
827,676	-9,04
827,895	-7,63
828,114	-6,33
828,333	-6,52
828,552	-7,07
828,771	-5,71
828,99	-9,23
829,209	-9,26
829,428	-6,19
829,647	-7,96
829,866	-7,12
830,084	-6,96
830,303	-5,55
830,522	-5,95
830,741	-4,21
830,96	-4,96
831,179	-5,39
831,397	-8,07
831,616	-6,87
831,835	-6,02
832,053	-4,79
832,272	-4,07
832,491	-5,01
832,709	-6,35
832,928	-5,63
833,147	-6,7
833,365	-3,75
833,584	-2,57
833,802	0,15
834,021	-0,7
834,239	0,35
834,458	-1,98
834,676	-5,64
834,894	-6,41
835,113	-8,22
835,331	-7,93
835,55	-8,29
835,768	-5,3
835,986	-4,14
836,204	-7,48
836,423	-6,54
836,641	-7,28
836,859	-9,93
837,077	-10,67
837,296	-11,69
837,514	-14,11
837,732	-13,18
837,95	-13,84
838,168	-8,7
838,386	-9
838,604	-6,67
838,822	-5,71
839,04	-7,53
839,258	-6,12
839,476	-3,93
839,694	-3,2
839,912	-3,74
840,13	-3,87
840,348	-0,09
840,566	-3,7
840,783	-1,35
841,001	-2,69
841,219	-0,59
841,437	1,54
841,655	2
841,872	2,66
842,09	2,29
842,308	2,34
842,525	0,86
842,743	2,88
842,961	2,26
843,178	-0,17
843,396	1,98
843,613	4,64
843,831	6,13
844,048	6,74
844,266	8,71
844,483	8,38
844,701	7,95
844,918	5,48
845,136	4,56
845,353	2,75
845,57	4,04
845,788	7,1
846,005	4,77
846,222	3,69
846,439	4,68
846,657	5,46
846,874	5,3
847,091	3,15
847,308	5,77
847,526	5,02
847,743	4,86
847,96	2,82
848,177	2,97
848,394	1,98
848,611	2,06
848,828	2,21
849,045	1,84
849,262	2,08
849,479	-0,03
849,696	-0,3
849,913	-1,25
850,13	-5,53
850,347	-3,68
850,564	-3,32
850,78	-5,96
850,997	-8,87
851,214	-8,97
851,431	-8,71
851,647	-12,12
851,864	-10,38
852,081	-9,23
852,298	-14,24
852,514	-17,45
852,731	-16,54
852,948	-14,66
853,164	-14,16
853,381	-14,26
853,597	-15,72
853,814	-19,02
854,03	-22,75
854,247	-21,45
854,463	-21,51
854,68	-22,47
854,896	-21,9
855,113	-21,04
855,329	-21,23
855,545	-20,7
855,762	-21,65
855,978	-24,8
856,194	-25,85
856,411	-21,51
856,627	-19,07
856,843	-17,9
857,059	-15,57
857,275	-18,09
857,492	-16,04
857,708	-11,45
857,924	-10,94
858,14	-8,33
858,356	-8,12
858,572	-8,67
858,788	-10,56
859,004	-8,57
859,22	-9,32
859,436	-8,27
859,652	-9,14
859,868	-11,38
860,084	-11,84
860,3	-11,07
860,516	-10,69
860,731	-9,43
860,947	-12,98
861,163	-11,37
861,379	-9,41
861,595	-9,23
861,81	-9,24
862,026	-8,74
862,242	-8,74
862,457	-7,76
862,673	-4,57
862,889	-5,06
863,104	-6,33
863,32	-6,14
863,535	-4,79
863,751	-10,04
863,966	-7,34
864,182	-6,14
864,397	-8,63
864,613	-10,12
864,828	-11,75
865,044	-9,81
865,259	-8,98
865,474	-9,09
865,69	-7,12
865,905	-5,83
866,12	-7,72
866,336	-8,96
866,551	-7,09
866,766	-7,64
866,981	-8,2
867,196	-6,97
867,412	-6,8
867,627	-5,84
867,842	-6,86
868,057	-6,88
868,272	-7,43
868,487	-8,19
868,702	-10,84
868,917	-11,24
869,132	-10,19
869,347	-10,79
869,562	-11,84
869,777	-13,06
869,992	-13,8
870,207	-13,75
870,422	-13,73
870,636	-15,54
870,851	-17,38
871,066	-18,32
871,281	-17,55
871,495	-18,73
871,71	-17,13
871,925	-19,28
872,14	-19,01
872,354	-21,91
872,569	-23,12
872,783	-21,02
872,998	-19,56
873,213	-20,95
873,427	-18,12
873,642	-17,05
873,856	-16,72
874,071	-17,29
874,285	-18,42
874,5	-19,76
874,714	-21,94
874,928	-22,53
875,143	-22,59
875,357	-22,57
875,571	-23,81
875,786	-24,03
876	-20,53
876,214	-18,2
876,429	-20,84
876,643	-19,08
876,857	-17,41
877,071	-15,86
877,285	-16,78
877,499	-19,02
877,714	-16,53
877,928	-13,76
878,142	-13,76
878,356	-14,43
878,57	-13,01
878,784	-13,47
878,998	-13,51
879,212	-10,8
879,426	-13,87
879,639	-12,7
879,853	-13,73
880,067	-14,18
880,281	-15,03
880,495	-13,3
880,709	-11,13
880,922	-10,13
881,136	-8,29
881,35	-5,5
881,564	-5,37
881,777	-8,03
881,991	-5,27
882,205	-1,88
882,418	-1,95
882,632	-5,13
882,845	-5,6
883,059	-4,14
883,273	-5,5
883,486	-7,22
883,7	-5,4
883,913	-4,76
884,126	-3,09
884,34	-7,37
884,553	-9,48
884,767	-4,6
884,98	-6,56
885,193	-8,19
885,407	-8,99
885,62	-7,44
885,833	-8,12
886,046	-6,33
886,26	-8,08
886,473	-8,77
886,686	-9,36
886,899	-6,5
887,112	-8,74
887,326	-11,3
887,539	-11,1
887,752	-9,55
887,965	-12,59
888,178	-11,04
888,391	-9
888,604	-9,29
888,817	-12,4
889,03	-11,44
889,243	-12,85
889,455	-13,92
889,668	-13,4
889,881	-9,06
890,094	-9,78
890,307	-12,41
890,52	-9,8
890,732	-9,22
890,945	-7,97
891,158	-9,08
891,37	-12,46
891,583	-11,61
891,796	-9,98
892,008	-10,23
892,221	-9,22
892,434	-13,2
892,646	-13,73
892,859	-14,09
893,071	-10,95
893,284	-10,03
893,496	-12,49
893,709	-12,81
893,921	-11,37
894,133	-12,02
894,346	-12,55
894,558	-11,21
894,771	-11,81
894,983	-9,54
895,195	-8,59
895,407	-6,06
895,62	-8,8
895,832	-7,25
896,044	-4,36
896,256	-5,11
896,468	-8,92
896,681	-6,63
896,893	-5,23
897,105	-7,44
897,317	-8,55
897,529	-6,54
897,741	-5,79
897,953	-2,6
898,165	-4,27
898,377	-4,93
898,589	-2,76
898,801	-5,09
899,013	-1,85
899,224	0,57
899,436	1,28
899,648	0,06
899,86	-1,91
900,072	0,12
900,283	1,33
900,495	2,14
900,707	3,15
900,919	0,56
901,13	1,59
901,342	-0,31
901,554	-2,28
901,765	-0,82
901,977	-3,73
902,188	-4,15
902,4	-4,98
902,611	-8,71
902,823	-9,62
903,034	-12,35
903,246	-15,07
903,457	-17,09
903,669	-17,68
903,88	-17,06
904,091	-17,39
904,303	-15,7
904,514	-18,98
904,725	-16,79
904,936	-15,28
905,148	-15,76
905,359	-12,99
905,57	-13,44
905,781	-15,88
905,992	-16,19
906,204	-16,12
906,415	-16,25
906,626	-17,91
906,837	-15,53
907,048	-16,57
907,259	-17,82
907,47	-20,31
907,681	-22,76
907,892	-19,3
908,103	-19,69
908,314	-23,71
908,525	-20,8
908,735	-19,56
908,946	-20,45
909,157	-20
909,368	-17,91
909,579	-15,06
909,789	-16,04
910	-16,12
910,211	-13,83
910,421	-14,65
910,632	-13,78
910,843	-17,24
911,053	-11,95
911,264	-9,25
911,475	-11,36
911,685	-10,98
911,896	-12,53
912,106	-11,36
912,317	-12,4
912,527	-10,37
912,737	-11,82
912,948	-11,18
913,158	-10,35
913,369	-13,29
913,579	-10,63
913,789	-9,31
914	-3,44
914,21	-0,78
914,42	-2,14
914,63	-1,6
914,841	-0,15
915,051	0,29
915,261	0,91
915,471	3,82
915,681	3,97
915,891	3,85
916,101	2,5
916,311	2,95
916,521	3,91
916,731	3,97
916,941	6,71
917,151	5,31
917,361	9,01
917,571	3,59
917,781	2,37
917,991	0,56
918,201	-0,38
918,411	-0,87
918,621	-0,73
918,83	0,41
919,04	-0,75
919,25	2,82
919,46	3,85
919,669	0,8
919,879	0,9
920,089	-1,34
920,298	-2,76
920,508	-3,48
920,717	-3,87
920,927	-4,68
921,136	-4,21
921,346	-5,41
921,555	-7,82
921,765	-8,95
921,974	-12,43
922,184	-14,79
922,393	-15,72
922,603	-16,54
922,812	-13,88
923,021	-14,54
923,23	-16,84
923,44	-21,11
923,649	-20,99
923,858	-22,34
924,067	-22,42
924,277	-26,43
924,486	-23,51
924,695	-23,64
924,904	-23,03
925,113	-24,1
925,322	-23,18
925,531	-23,88
925,74	-27,06
925,949	-27,32
926,158	-25,65
926,367	-26,47
926,576	-24,12
926,785	-23,22
926,994	-25,6
927,203	-26,14
927,412	-26,97
927,621	-27,26
927,83	-24,18
928,038	-25,26
928,247	-24,39
928,456	-23,67
928,665	-21,38
928,873	-20,32
929,082	-18,36
929,291	-17,81
929,499	-16,78
929,708	-17,65
929,916	-15,04
930,125	-16,2
930,333	-16,41
930,542	-14,07
930,75	-10,15
930,959	-9,81
931,167	-9,49
931,376	-10,07
931,584	-8,6
931,793	-8,85
932,001	-9,86
932,209	-11,01
932,418	-13,07
932,626	-14,03
932,834	-13,96
933,042	-18,84
933,251	-18,71
933,459	-17,75
933,667	-17,12
933,875	-17,12
934,083	-16,06
934,291	-16,27
934,499	-13,55
934,707	-13,68
934,915	-13,25
935,123	-11,07
935,331	-11,73
935,539	-14,25
935,747	-16,53
935,955	-16,21
936,163	-15,11
936,371	-15,05
936,579	-13,29
936,787	-13,29
936,995	-13,88
937,202	-16,83
937,41	-16,7
937,618	-17,88
937,826	-17,62
938,033	-22,75
938,241	-23,92
938,449	-20,9
938,656	-18,63
938,864	-17,76
939,071	-17,38
939,279	-15,95
939,486	-12,7
939,694	-13,09
939,901	-16,14
940,109	-15,85
940,316	-15,46
940,524	-16,36
940,731	-18,57
940,939	-17,38
941,146	-17,44
941,353	-18,14
941,561	-20,49
941,768	-20,25
941,975	-18,09
942,182	-18,17
942,39	-18,53
942,597	-15,2
942,804	-15,16
943,011	-15,66
943,218	-15,55
943,425	-17,17
943,632	-16,36
943,839	-18,03
944,046	-18,77
944,253	-18,02
944,46	-16,88
944,667	-13,28
944,874	-14,15
945,081	-12,65
945,288	-10,92
945,495	-8,78
945,702	-7,72
945,909	-9,85
946,115	-9,21
946,322	-9,11
946,529	-10,82
946,736	-11,01
946,942	-9,92
947,149	-9,06
947,356	-12,89
947,562	-13,59
947,769	-13,62
947,976	-12,59
948,182	-11,1
948,389	-12,36
948,595	-11,85
948,802	-12,14
949,008	-14,71
949,215	-14,69
949,421	-14,51
949,628	-14,81
949,834	-13,87
950,04	-14,32
950,247	-9,17
950,453	-6,97
950,659	-9,44
950,865	-6,3
951,072	-10,63
951,278	-9,12
951,484	-10,35
951,69	-14,29
951,896	-16,58
952,103	-18,18
952,309	-16,14
952,515	-16,18
952,721	-12,88
952,927	-9,95
953,133	-11,34
953,339	-12,41
953,545	-12,58
953,751	-10,87
953,957	-9,07
954,163	-9,62
954,369	-9,6
954,574	-13,32
954,78	-13,06
954,986	-12,25
955,192	-8,82
955,398	-10,21
955,603	-12,04
955,809	-10,57
956,015	-9,75
956,22	-9,97
956,426	-9,46
956,632	-14,25
956,837	-14,84
957,043	-13,16
957,248	-12,25
957,454	-12,2
957,66	-14,61
957,865	-16,14
958,07	-13,45
958,276	-13,78
958,481	-15,4
958,687	-17,01
958,892	-16,8
959,097	-17,45
959,303	-20,05
959,508	-20,45
959,713	-21,05
959,919	-21,82
960,124	-22,52
960,329	-22,64
960,534	-20,09
960,739	-18,69
960,945	-14,56
961,15	-14,8
961,355	-15,98
961,56	-21,2
961,765	-21,35
961,97	-20,78
962,175	-19,27
962,38	-22,67
962,585	-20,53
962,79	-21,74
962,995	-21,18
963,2	-21,71
963,404	-22,99
963,609	-27,15
963,814	-27,41
964,019	-29,07
964,224	-30,28
964,428	-28,61
964,633	-26,9
964,838	-25,76
965,042	-25,27
965,247	-27,59
965,452	-28,54
965,656	-25,44
965,861	-23,28
966,066	-23,21
966,27	-20,07
966,475	-15,98
966,679	-20,08
966,884	-20,39
967,088	-22,75
967,292	-25,69
967,497	-24,01
967,701	-24,3
967,906	-22,36
968,11	-20,08
968,314	-16,08
968,518	-18,15
968,723	-14,17
968,927	-14,63
969,131	-12,29
969,335	-10,36
969,539	-11,26
969,744	-8,59
969,948	-5,27
970,152	-3,47
970,356	-2,68
970,56	-1,06
970,764	-2,66
970,968	-0,42
971,172	0,53
971,376	1,49
971,58	2,73
971,784	4,35
971,988	1,18
972,192	3,18
972,395	2,39
972,599	-0,98
972,803	-2,98
973,007	-0,27
973,21	0,35
973,414	0,44
973,618	1,01
973,822	-0,02
974,025	0,93
974,229	-0,31
974,432	-3,3
974,636	-6,63
974,84	-5,8
975,043	-7,02
975,247	-8,43
975,45	-10,19
975,654	-10,33
975,857	-7,61
976,06	-9,31
976,264	-10,93
976,467	-9,57
976,671	-9,07
976,874	-8,88
977,077	-12,21
977,28	-13,37
977,484	-14,26
977,687	-15,22
977,89	-12,92
978,093	-13,5
978,297	-11,67
978,5	-14,56
978,703	-13,22
978,906	-11,26
979,109	-11,77
979,312	-10,13
979,515	-10,28
979,718	-10,1
979,921	-9,81
980,124	-11,48
980,327	-12,44
980,53	-11,97
980,733	-9,7
980,936	-6,97
981,138	-9
981,341	-8,44
981,544	-10,14
981,747	-11,3
981,949	-12,93
982,152	-12,82
982,355	-12,93
982,558	-10,28
982,76	-13,81
982,963	-14,17
983,165	-13,91
983,368	-11,33
983,571	-11,52
983,773	-10,01
983,976	-9,04
984,178	-8,95
984,381	-9,56
984,583	-12,25
984,785	-11,31
984,988	-9,57
985,19	-8,94
985,392	-10,66
985,595	-13,35
985,797	-14,22
985,999	-13,56
986,202	-11,38
986,404	-11,71
986,606	-9,15
986,808	-8,86
987,01	-7,93
987,212	-9,67
987,415	-10,27
987,617	-11,02
987,819	-10,26
988,021	-7,98
988,223	-9,62
988,425	-11,23
988,627	-11,55
988,829	-14,52
989,031	-11,63
989,232	-12,43
989,434	-11,45
989,636	-11,41
989,838	-12,5
990,04	-11,51
990,242	-12,28
990,443	-14,39
990,645	-12,8
990,847	-9,46
991,048	-9,05
991,25	-11,51
991,452	-13,14
991,653	-13,65
991,855	-14,37
992,057	-14,04
992,258	-11,68
992,46	-12,8
992,661	-10,66
992,863	-11,27
993,064	-10,92
993,265	-12,43
993,467	-13,78
993,668	-11,78
993,87	-10,47
994,071	-10,69
994,272	-10,63
994,473	-7,52
994,675	-5,85
994,876	-4,72
995,077	-4,84
995,278	-4,2
995,48	-3,31
995,681	-4,68
995,882	-2,67
996,083	-3,88
996,284	-7,64
996,485	-8,75
996,686	-9,66
996,887	-11,46
997,088	-14,93
997,289	-16,12
997,49	-15,24
997,691	-14,48
997,892	-13,72
998,092	-8,26
998,293	-8,06
998,494	-9,96
998,695	-10,53
998,896	-7,91
999,096	-9,15
999,297	-8,86
999,498	-9,67
999,698	-11,49
999,899	-13,91
1000,1	-15,9
1000,3	-14,24
1000,501	-14,79
1000,701	-16,6
1000,902	-17,13
1001,102	-17,12
1001,303	-14,98
1001,503	-18,24
1001,704	-17,58
1001,904	-18,69
1002,105	-20,05
1002,305	-18,54
1002,505	-19,35
1002,706	-19,36
1002,906	-19,52
1003,106	-18,67
1003,306	-17,62
1003,507	-15,95
1003,707	-15,77
1003,907	-14,77
1004,107	-12,42
1004,307	-17,07
1004,507	-16,35
1004,707	-15,91
1004,907	-17,38
1005,107	-19,65
1005,308	-19,02
1005,507	-20,05
1005,707	-18,1
1005,907	-16,99
1006,107	-13,68
1006,307	-12,56
1006,507	-14,2
1006,707	-12,56
1006,907	-11,91
1007,106	-12,08
1007,306	-12,17
1007,506	-11,54
1007,706	-11,14
1007,905	-14,5
1008,105	-13,98
1008,305	-14,41
1008,504	-14,78
1008,704	-9,42
1008,903	-8,21
1009,103	-6,83
1009,303	-9,18
1009,502	-7,98
1009,702	-9,58
1009,901	-10,06
1010,1	-12,5
1010,3	-11,92
1010,499	-11,29
1010,699	-13,3
1010,898	-14,73
1011,097	-13,35
1011,296	-12,32
1011,496	-12,56
1011,695	-13,24
1011,894	-14,17
1012,093	-11,67
1012,293	-12,57
1012,492	-12,93
1012,691	-11,86
1012,89	-12,29
1013,089	-14,35
1013,288	-13,57
1013,487	-14,09
1013,686	-15,54
1013,885	-15,39
1014,084	-13,21
1014,283	-12,8
1014,482	-13,78
1014,681	-12,3
1014,88	-15,88
1015,078	-15,2
1015,277	-17,81
1015,476	-18,45
1015,675	-19,13
1015,873	-17,61
1016,072	-18,2
1016,271	-14,77
1016,47	-19,68
1016,668	-18,08
1016,867	-18,62
1017,065	-19,94
1017,264	-20,53
1017,463	-21,26
1017,661	-21,53
1017,86	-22,11
1018,058	-21,51
1018,256	-23,3
1018,455	-24,3
1018,653	-23,96
1018,852	-23,89
1019,05	-27,1
1019,248	-28,14
1019,447	-30,36
1019,645	-30,22
1019,843	-32,51
1020,041	-31,12
1020,24	-31,6
1020,438	-26,95
1020,636	-26,99
1020,834	-30,74
1021,032	-28,2
1021,23	-29,54
1021,428	-27,7
1021,626	-22,82
1021,824	-22,86
1022,022	-23,79
1022,22	-22,53
1022,418	-21,85
1022,616	-20,82
1022,814	-21,05
1023,012	-20,57
1023,21	-18,18
1023,408	-18,12
1023,606	-18,3
1023,803	-13,53
1024,001	-12,71
1024,199	-16,32
1024,397	-15
1024,594	-15,24
1024,792	-16,47
1024,99	-15,41
1025,187	-14,86
1025,385	-9,98
1025,582	-8,89
1025,78	-8,4
1025,977	-5,53
1026,175	-6,18
1026,372	-5,63
1026,57	-9,02
1026,767	-5,84
1026,965	-4,23
1027,162	-4,48
1027,359	-3,94
1027,557	-2,37
1027,754	-6,48
1027,951	-7,12
1028,148	-5,05
1028,346	-7,39
1028,543	-10,55
1028,74	-11,59
1028,937	-14,39
1029,134	-15,06
1029,331	-17,19
1029,528	-17,14
1029,725	-18,76
1029,923	-22,11
1030,12	-18,02
1030,317	-15,68
1030,513	-15,22
1030,71	-13,25
1030,907	-10,77
1031,104	-12,35
1031,301	-12,58
1031,498	-12,42
1031,695	-13,17
1031,892	-14,92
1032,088	-15,43
1032,285	-16,72
1032,482	-18,75
1032,678	-21,88
1032,875	-25,41
1033,072	-24,61
1033,268	-25,05
1033,465	-25,94
1033,662	-28,83
1033,858	-28,79
1034,055	-28,37
1034,251	-26,7
1034,448	-26,45
1034,644	-25,8
1034,84	-22,79
1035,037	-20,78
1035,233	-19,61
1035,43	-16,39
1035,626	-16,97
1035,822	-15,36
1036,019	-16,65
1036,215	-21,68
1036,411	-21,73
1036,607	-23,13
1036,803	-27,36
1037	-28,85
1037,196	-29,17
1037,392	-29,56
1037,588	-32,65
1037,784	-31,4
1037,98	-30,81
1038,176	-31,73
1038,372	-30,73
1038,568	-27,93
1038,764	-25,92
1038,96	-23,23
1039,156	-25,59
1039,352	-26,38
1039,547	-23,15
1039,743	-20,83
1039,939	-17,57
1040,135	-18,38
1040,331	-21,05
1040,526	-19,58
1040,722	-21,35
1040,918	-23,28
1041,113	-25,6
1041,309	-26,56
1041,505	-30,22
1041,7	-29,11
1041,896	-30,45
1042,091	-31,33
1042,287	-30,32
1042,482	-29,9
1042,678	-29,83
1042,873	-27,6
1043,069	-28,05
1043,264	-28
1043,459	-26,34
1043,655	-25,41
1043,85	-26,46
1044,045	-25,69
1044,24	-24,99
1044,436	-24,8
1044,631	-25,89
1044,826	-26,37
1045,021	-29,21
1045,216	-26,7
