Data from FLMT021711__11__17-06-22-635.txt Node

Date: Tue Nov 05 17:06:22 CET 2024
User: Etudiants TP
Spectrometer: FLMT02171
Trigger mode: 0
Integration Time (sec): 1.000000E-1
Scans to average: 5
Electric dark correction enabled: true
Nonlinearity correction enabled: false
Boxcar width: 15
XAxis mode: Wavelengths
Number of Pixels in Spectrum: 3648
>>>>>Begin Spectral Data<<<<<
194.658	-51.27
194.923	-50.03
195.188	-44.23
195.453	-43.31
195.717	-38.23
195.982	-36.73
196.247	-36.76
196.512	-39.65
196.777	-38.77
197.042	-36.27
197.307	-35.76
197.572	-32.58
197.837	-33.16
198.101	-32.14
198.366	-29.24
198.631	-27.67
198.896	-22.93
199.161	-16.95
199.425	-11.53
199.69	-3.54
199.955	-5.52
200.22	-8.6
200.484	-9.24
200.749	-9.32
201.014	-6.91
201.278	-8.1
201.543	-6.88
201.807	-6.85
202.072	-6.2
202.337	-7
202.601	-7.4
202.866	-7.61
203.13	-5.54
203.395	-8.03
203.659	-8.15
203.924	-10.26
204.189	-10.07
204.453	-7.35
204.717	-4.33
204.982	-2.84
205.246	-2.25
205.511	-0.4
205.775	-0.03
206.04	3.82
206.304	5.08
206.568	6.05
206.833	5.2
207.097	6.36
207.361	9.18
207.626	12.62
207.89	13.41
208.154	16
208.419	16.81
208.683	17.42
208.947	17.7
209.211	17.98
209.476	20.07
209.74	20.28
210.004	20.69
210.268	20.13
210.532	23.73
210.796	24.73
211.061	25.37
211.325	25.11
211.589	24.61
211.853	25.89
212.117	25.85
212.381	25.88
212.645	26.15
212.909	25.71
213.173	23.64
213.437	23.15
213.701	23.62
213.965	23.49
214.229	20.32
214.493	20.93
214.757	19.22
215.021	19.96
215.285	22.64
215.549	22.89
215.813	19.68
216.077	18.78
216.34	20.43
216.604	18.65
216.868	17.85
217.132	19.11
217.396	16.5
217.659	15.85
217.923	13.14
218.187	12.16
218.451	12.26
218.714	8.96
218.978	8.68
219.242	9.87
219.505	10.74
219.769	11.72
220.033	11.94
220.296	13.48
220.56	13.19
220.824	10.28
221.087	10.95
221.351	10.35
221.614	10.88
221.878	10.45
222.142	9.21
222.405	9.78
222.669	11.28
222.932	8.64
223.196	7.16
223.459	3.8
223.722	4.88
223.986	5.68
224.249	6.02
224.513	5.66
224.776	6.96
225.04	7.93
225.303	7.54
225.566	8.51
225.83	9.01
226.093	11.67
226.356	11.24
226.62	10.83
226.883	12.51
227.146	13.49
227.409	12.56
227.673	10.67
227.936	10.32
228.199	9.42
228.462	8.64
228.725	8.56
228.989	8.26
229.252	8.71
229.515	12.51
229.778	11
230.041	10.58
230.304	9.32
230.567	9.71
230.83	6.95
231.093	9.54
231.356	9.07
231.619	16.45
231.882	14.26
232.145	16.22
232.408	15.09
232.671	14.26
232.934	13.4
233.197	12.13
233.46	11.77
233.723	13.75
233.986	12.24
234.249	9.96
234.512	10.73
234.775	12.69
235.037	12.39
235.3	12.56
235.563	11.67
235.826	13.01
236.089	16.62
236.351	16.55
236.614	17.58
236.877	18.44
237.14	20.94
237.402	20.97
237.665	16.99
237.928	16.82
238.19	14.65
238.453	17.59
238.716	17.28
238.978	18.14
239.241	16.42
239.503	18.47
239.766	12.91
240.029	11.3
240.291	12.81
240.554	12.77
240.816	12.29
241.079	11.85
241.341	11.45
241.604	9.73
241.866	6.09
242.129	8.2
242.391	9.7
242.653	9.48
242.916	10.31
243.178	9.32
243.441	9.11
243.703	9.95
243.965	7.21
244.228	5.54
244.49	5.78
244.752	6.32
245.015	6.8
245.277	7.67
245.539	6.39
245.801	7.95
246.064	7.5
246.326	8
246.588	6.16
246.85	7.6
247.112	7.87
247.374	10.53
247.637	12.24
247.899	12.2
248.161	12.65
248.423	8.18
248.685	8.09
248.947	7.63
249.209	7.6
249.471	7.8
249.733	9.16
249.995	9.84
250.257	8.56
250.519	7.5
250.781	8.85
251.043	5.39
251.305	7.75
251.567	9.49
251.829	8.58
252.091	9.63
252.353	5.91
252.615	6.22
252.876	4.34
253.138	2.22
253.4	-0.69
253.662	0.49
253.924	0.84
254.185	1.81
254.447	1.61
254.709	1.62
254.971	2.69
255.232	4.04
255.494	2.27
255.756	0.69
256.017	1.93
256.279	2.24
256.541	2.3
256.802	2.58
257.064	3.97
257.326	4.01
257.587	6.3
257.849	6.71
258.11	8.06
258.372	10.49
258.633	11.16
258.895	11.21
259.156	11.77
259.418	9.69
259.679	5.56
259.941	5.41
260.202	7.11
260.464	8.94
260.725	8.72
260.987	8.58
261.248	8.27
261.509	9.69
261.771	9.09
262.032	11.97
262.293	11.82
262.555	12.65
262.816	11.54
263.077	10.39
263.338	7.74
263.6	8
263.861	7.39
264.122	5.74
264.383	7.51
264.645	9.53
264.906	8.12
265.167	8.16
265.428	8.99
265.689	8.86
265.95	7.18
266.211	8.4
266.473	6.61
266.734	3.99
266.995	1.58
267.256	3.15
267.517	6.2
267.778	9.64
268.039	10.7
268.3	9.44
268.561	8.27
268.822	10.64
269.083	9.85
269.344	9.16
269.604	6.99
269.865	6.16
270.126	1.67
270.387	2.65
270.648	2.74
270.909	3.37
271.17	1.45
271.43	-0.2
271.691	-1.66
271.952	-2.22
272.213	-0.43
272.473	-2.07
272.734	-0.53
272.995	1.26
273.256	2.15
273.516	3.63
273.777	0.87
274.038	2.89
274.298	0.72
274.559	0.58
274.82	4.82
275.08	7.31
275.341	7.52
275.601	5.97
275.862	3.54
276.122	3.18
276.383	3.11
276.643	5.13
276.904	3.11
277.164	5.92
277.425	6.63
277.685	10.65
277.946	12.21
278.206	14.34
278.467	16.77
278.727	17.54
278.987	16.63
279.248	16.26
279.508	17.03
279.768	18.67
280.029	19.78
280.289	17.16
280.549	16.99
280.81	16.15
281.07	15.42
281.33	15.35
281.59	13.87
281.851	16.78
282.111	16.27
282.371	16.03
282.631	17.01
282.891	15.4
283.151	13.37
283.412	11.19
283.672	10.62
283.932	10.88
284.192	11.93
284.452	10.18
284.712	7.58
284.972	5.77
285.232	2.51
285.492	5.1
285.752	3.58
286.012	8.66
286.272	8.93
286.532	5.77
286.792	6.03
287.052	8.26
287.312	9.41
287.571	9.02
287.831	9.64
288.091	8.19
288.351	8.07
288.611	9.91
288.871	8.98
289.13	8.88
289.39	6.48
289.65	7.82
289.91	5.84
290.17	7.63
290.429	10.22
290.689	8.18
290.949	5.71
291.208	5.79
291.468	9.76
291.728	9.71
291.987	11.35
292.247	10.99
292.506	14.34
292.766	17.11
293.026	17.91
293.285	18.82
293.545	20.72
293.804	20.94
294.064	16.44
294.323	14.13
294.583	14.31
294.842	14.47
295.102	14.46
295.361	14.62
295.621	14.57
295.88	14.69
296.139	14.06
296.399	14.96
296.658	11.25
296.917	11.13
297.177	8.95
297.436	9.53
297.695	6.86
297.955	8
298.214	5.63
298.473	6.16
298.732	7.95
298.992	11.1
299.251	11.83
299.51	8.54
299.769	9.9
300.028	8.81
300.287	8.45
300.547	8.2
300.806	7.01
301.065	9.26
301.324	12.31
301.583	9.4
301.842	4.75
302.101	3
302.36	5.06
302.619	4.68
302.878	4.98
303.137	2.48
303.396	2.91
303.655	5.31
303.914	2.95
304.173	4.04
304.432	4.06
304.691	7.54
304.95	6.39
305.208	10.38
305.467	11.28
305.726	11.65
305.985	13.88
306.244	17.14
306.503	16.09
306.761	14.51
307.02	11.59
307.279	12.02
307.537	12.48
307.796	9.66
308.055	7.89
308.314	10.15
308.572	7.9
308.831	7.73
309.09	7.38
309.348	7.44
309.607	6.57
309.865	11.24
310.124	12.03
310.382	12.65
310.641	13.5
310.9	11.39
311.158	12.22
311.417	13.03
311.675	12.68
311.933	12.12
312.192	12.37
312.45	12.15
312.709	11.65
312.967	12
313.226	9.91
313.484	9.54
313.742	9.16
314.001	7.59
314.259	4.56
314.517	5.6
314.776	8.33
315.034	11.17
315.292	10.31
315.55	8.53
315.809	8.19
316.067	10.02
316.325	5.99
316.583	7.46
316.841	6.94
317.1	5.48
317.358	1.71
317.616	1
317.874	0.41
318.132	-0.18
318.39	-0.59
318.648	-1.84
318.906	-1.84
319.164	-2.78
319.422	-4.23
319.68	-4.71
319.938	-3.52
320.196	-3.35
320.454	-1.58
320.712	-2.16
320.97	-3.43
321.228	-3.11
321.486	-1.74
321.744	-0.91
322.002	-1.22
322.26	-1.27
322.517	-1.81
322.775	-4.77
323.033	-6.62
323.291	-6.61
323.549	-5.31
323.806	-2.99
324.064	-4.18
324.322	-1.29
324.58	-2.24
324.837	-0.42
325.095	-0.95
325.353	2.08
325.61	3.91
325.868	3.09
326.126	5.33
326.383	4.31
326.641	3.1
326.898	5.07
327.156	5.91
327.413	6.22
327.671	6.43
327.928	8.95
328.186	8.45
328.443	6.26
328.701	10.09
328.958	12.14
329.216	12.29
329.473	10.61
329.731	10.07
329.988	10.77
330.245	12.95
330.503	14.13
330.76	14.36
331.017	15.9
331.275	14.37
331.532	14.53
331.789	12.11
332.047	13.35
332.304	10.27
332.561	10.36
332.818	10.3
333.076	11.89
333.333	10.71
333.59	10.82
333.847	11.77
334.104	10.77
334.361	10.68
334.618	10.74
334.876	8.24
335.133	8.23
335.39	6.86
335.647	7.61
335.904	3.8
336.161	2.78
336.418	5.02
336.675	0.85
336.932	1.09
337.189	-0.38
337.446	0.75
337.703	0.55
337.96	-2.48
338.216	-3.41
338.473	-5.94
338.73	-6.2
338.987	-5.68
339.244	-2.12
339.501	-4.34
339.757	-1.77
340.014	-1.41
340.271	0.86
340.528	1.62
340.785	3.69
341.041	3.71
341.298	3.39
341.555	4.1
341.811	4.02
342.068	1.52
342.325	1.54
342.581	4.08
342.838	4.7
343.094	5
343.351	5.95
343.608	3.96
343.864	7.15
344.121	7.89
344.377	6.06
344.634	5.16
344.89	4.08
345.147	5.33
345.403	4.04
345.66	4.31
345.916	5.13
346.172	3.33
346.429	2.22
346.685	1.32
346.942	0.7
347.198	-3.07
347.454	-0.48
347.711	-1.8
347.967	-5.15
348.223	-5.74
348.48	-5.77
348.736	-2.75
348.992	-3.08
349.248	-1.52
349.504	-2.46
349.761	-3.19
350.017	-2.41
350.273	-2.79
350.529	-3.93
350.785	-3.1
351.041	-3.71
351.297	-3
351.554	-4.99
351.81	-7.78
352.066	-9.07
352.322	-9.52
352.578	-7.52
352.834	-7.58
353.09	-7.44
353.346	-8.15
353.602	-9.27
353.858	-9.19
354.114	-9.57
354.369	-7.82
354.625	-6.18
354.881	-6.75
355.137	-3.72
355.393	-4.2
355.649	-2.74
355.905	-1.84
356.16	-1.43
356.416	-1.13
356.672	-7.44
356.928	-7.21
357.183	-8.94
357.439	-8.79
357.695	-9.23
357.951	-5.65
358.206	-5.36
358.462	-5.6
358.718	-7.65
358.973	-6.88
359.229	-6.25
359.484	-4.45
359.74	-0.89
359.996	0.19
360.251	3.02
360.507	2.04
360.762	2.05
361.018	2.58
361.273	0.59
361.529	0.74
361.784	0.93
362.04	3.63
362.295	2.87
362.55	2.87
362.806	5.19
363.061	4.59
363.316	4.66
363.572	4.53
363.827	7.58
364.082	5.66
364.338	5.2
364.593	6.03
364.848	5.02
365.104	3.44
365.359	4.53
365.614	4.34
365.869	2.16
366.124	2.15
366.38	1.57
366.635	4.05
366.89	5.08
367.145	3.79
367.4	5.51
367.655	4.34
367.91	4.8
368.165	3.52
368.42	1.48
368.675	2.82
368.93	3.18
369.185	1.7
369.44	3.27
369.695	4.42
369.95	2.09
370.205	1.38
370.46	1.46
370.715	-1.73
370.97	-1.11
371.225	-0.6
371.48	-0.07
371.734	-1.64
371.989	-0.57
372.244	-2.01
372.499	-0.66
372.754	-0.69
373.008	-2.08
373.263	-4.89
373.518	-2.31
373.773	-4.45
374.027	-4.82
374.282	-3.51
374.537	-3.2
374.791	-2.47
375.046	-3.72
375.301	-4.56
375.555	-6.45
375.81	-5.75
376.064	-5.28
376.319	-1.35
376.573	-3.09
376.828	-5.28
377.082	0.54
377.337	-1.74
377.591	-3.64
377.846	-2.48
378.1	0.14
378.355	-0.11
378.609	0.64
378.863	-1.57
379.118	-1.2
379.372	-2.81
379.627	-3.61
379.881	-4.67
380.135	-3.25
380.389	-3.32
380.644	-3.03
380.898	-1.32
381.152	0.28
381.407	0.14
381.661	2.57
381.915	4.46
382.169	4.55
382.423	3.07
382.677	-0.02
382.932	1.65
383.186	2.6
383.44	4.05
383.694	4.58
383.948	2.77
384.202	0.64
384.456	2.83
384.71	3.56
384.964	1.74
385.218	2.84
385.472	3.55
385.726	2.76
385.98	2.23
386.234	3.15
386.488	0.76
386.742	1.75
386.996	-0.85
387.249	-0.1
387.503	1.9
387.757	3.9
388.011	4.7
388.265	4.42
388.518	4.81
388.772	5.77
389.026	6.08
389.28	3.1
389.533	1.99
389.787	3.21
390.041	2.19
390.295	2.73
390.548	2.72
390.802	4.21
391.055	3.71
391.309	2.32
391.563	1.6
391.816	3.02
392.07	1.99
392.323	2
392.577	3.37
392.83	3.32
393.084	8.96
393.337	10.94
393.591	13.2
393.844	13.15
394.098	16.15
394.351	21.18
394.604	22.5
394.858	24.51
395.111	24.27
395.364	22.27
395.618	22.8
395.871	20.75
396.124	19.83
396.378	19.22
396.631	19.1
396.884	16.54
397.137	16.18
397.391	16.32
397.644	12.72
397.897	13.07
398.15	13.76
398.403	17.2
398.657	16.04
398.91	14.96
399.163	15.94
399.416	15.78
399.669	14.9
399.922	14.87
400.175	14.01
400.428	13.51
400.681	15.3
400.934	11.4
401.187	10.75
401.44	9.55
401.693	8.83
401.946	6.01
402.199	0.49
402.452	-0.09
402.704	-2.19
402.957	-2.32
403.21	-0.62
403.463	-0.97
403.716	-1.07
403.969	0.19
404.221	0.18
404.474	1.48
404.727	5.5
404.98	9.12
405.232	9.89
405.485	12.06
405.738	14.57
405.99	16.09
406.243	15.22
406.496	17.19
406.748	16.82
407.001	15.47
407.253	17.41
407.506	17.38
407.759	17.38
408.011	15.4
408.264	15.86
408.516	15.96
408.769	13.71
409.021	14.79
409.274	15.53
409.526	16.26
409.778	14.67
410.031	17.62
410.283	17.06
410.536	21.96
410.788	20.52
411.04	20.26
411.293	21.64
411.545	23.73
411.797	22.38
412.049	21.77
412.302	22.76
412.554	22.71
412.806	20.54
413.058	19.75
413.311	19.78
413.563	17.5
413.815	15.74
414.067	14.53
414.319	12.56
414.571	13.96
414.823	12.95
415.075	9.8
415.328	10.49
415.58	13.75
415.832	15.52
416.084	14.83
416.336	13.12
416.588	17.22
416.84	16.85
417.091	19.71
417.343	16.56
417.595	18.67
417.847	19.66
418.099	22.22
418.351	20.28
418.603	23.59
418.855	23.71
419.106	23.27
419.358	23.58
419.61	24.36
419.862	26.66
420.114	24.76
420.365	24.76
420.617	26.03
420.869	24.89
421.12	24.86
421.372	25.51
421.624	26.06
421.875	27.45
422.127	26.17
422.379	26.53
422.63	28.73
422.882	28.84
423.133	29.49
423.385	29.75
423.636	30.7
423.888	33.8
424.139	36.39
424.391	33.48
424.642	32.4
424.894	30.87
425.145	33.2
425.396	31.68
425.648	35.83
425.899	33.54
426.151	35.01
426.402	34.86
426.653	36.32
426.905	36.26
427.156	34.51
427.407	36.12
427.658	35.24
427.91	35.56
428.161	35.14
428.412	36.38
428.663	39.01
428.914	40.11
429.166	42.73
429.417	43.54
429.668	42.56
429.919	42.39
430.17	42.61
430.421	44.21
430.672	48.88
430.923	50.09
431.174	48.79
431.425	49.95
431.676	49.46
431.927	47.8
432.178	51.17
432.429	51.87
432.68	51.34
432.931	55.2
433.182	59.95
433.433	57.59
433.683	60.25
433.934	60.45
434.185	60.01
434.436	59.67
434.687	61.72
434.937	65.48
435.188	64.22
435.439	64.75
435.69	67.63
435.94	69.15
436.191	71.17
436.442	71.8
436.692	73.29
436.943	73.32
437.194	73.96
437.444	78.39
437.695	83.49
437.945	85.38
438.196	85.49
438.447	85.32
438.697	87.01
438.948	89.6
439.198	88.1
439.449	87.13
439.699	90.23
439.949	91.56
440.2	93.24
440.45	96.62
440.701	96.95
440.951	98.29
441.201	101.59
441.452	102.45
441.702	105.13
441.952	108.87
442.203	112.75
442.453	114.15
442.703	117.33
442.953	120.51
443.204	124.46
443.454	123.42
443.704	125.71
443.954	125.85
444.204	130.15
444.455	132.54
444.705	135.74
444.955	138.67
445.205	139.52
445.455	139.8
445.705	142.96
445.955	146.27
446.205	147.95
446.455	150.09
446.705	152.36
446.955	156.44
447.205	161.59
447.455	165.51
447.705	166.33
447.955	167.66
448.205	171.4
448.454	173.8
448.704	176.48
448.954	176.92
449.204	179.59
449.454	182.23
449.704	182.66
449.953	183.45
450.203	187.97
450.453	186.89
450.703	190.92
450.952	192.19
451.202	197.57
451.452	199.4
451.701	203.13
451.951	207.49
452.201	209.89
452.45	209.81
452.7	212.51
452.949	214.06
453.199	214.49
453.448	216.79
453.698	218.62
453.947	219.94
454.197	220.66
454.446	219.33
454.696	222.25
454.945	221.07
455.195	219.09
455.444	219.86
455.693	223.35
455.943	220.51
456.192	220.57
456.442	218.71
456.691	217.7
456.94	216.98
457.189	213.77
457.439	213.28
457.688	213.28
457.937	208.55
458.186	207.14
458.436	205.21
458.685	204.29
458.934	200.31
459.183	197.73
459.432	197.47
459.681	193.37
459.93	190.08
460.179	187.83
460.429	182.65
460.678	183.45
460.927	183.38
461.176	179.83
461.425	176.71
461.674	175.37
461.923	172.26
462.172	169.48
462.42	165.4
462.669	165.04
462.918	163.36
463.167	161.34
463.416	157.48
463.665	157.37
463.914	154.49
464.162	151.67
464.411	150.56
464.66	149.96
464.909	147.15
465.158	147.11
465.406	145.45
465.655	145.94
465.904	147.44
466.152	145.24
466.401	143.58
466.65	143.22
466.898	140.4
467.147	136.1
467.395	133.8
467.644	134.73
467.893	133.89
468.141	133.57
468.39	128.67
468.638	126.74
468.887	124.97
469.135	123.33
469.384	121.62
469.632	120.83
469.88	120.31
470.129	120.53
470.377	115.5
470.626	116.2
470.874	115.47
471.122	114.48
471.371	110.27
471.619	109.9
471.867	111.02
472.115	110.52
472.364	107.02
472.612	107.67
472.86	103.99
473.108	103.23
473.356	102.37
473.605	99.54
473.853	97.31
474.101	95.91
474.349	93.81
474.597	95.48
474.845	92.94
475.093	91.05
475.341	86.51
475.589	84.91
475.837	84.56
476.085	85.02
476.333	82.66
476.581	82.24
476.829	81.36
477.077	83.7
477.325	83.15
477.573	83.85
477.821	81.57
478.069	83.6
478.317	81.03
478.564	82.75
478.812	80.25
479.06	79.43
479.308	76.39
479.555	75.72
479.803	73.95
480.051	74.62
480.299	74.43
480.546	75.43
480.794	72.48
481.042	72.46
481.289	71.85
481.537	72.22
481.784	72.14
482.032	75.15
482.28	73.77
482.527	73.92
482.775	74.53
483.022	76.27
483.27	77.96
483.517	79.66
483.765	78.48
484.012	79
484.259	77.22
484.507	79.28
484.754	78.37
485.002	77.5
485.249	76.65
485.496	79.11
485.744	76.68
485.991	76.55
486.238	74.54
486.486	77.76
486.733	78.75
486.98	81.15
487.227	78.71
487.474	78.76
487.722	81.87
487.969	80.06
488.216	78.97
488.463	78.41
488.71	74.61
488.957	73.12
489.204	72.05
489.451	70.98
489.699	70.16
489.946	68.09
490.193	67.64
490.44	67.07
490.687	67.24
490.934	64.7
491.18	62.03
491.427	63.27
491.674	65.43
491.921	66
492.168	63.71
492.415	61.83
492.662	62.1
492.909	64.13
493.155	62.65
493.402	62.98
493.649	62.79
493.896	62.85
494.142	59.95
494.389	58.88
494.636	57.71
494.883	57.93
495.129	57.85
495.376	55.2
495.623	57.77
495.869	59.33
496.116	59.56
496.362	62.01
496.609	65.02
496.855	69.52
497.102	69.99
497.348	68.9
497.595	70.69
497.841	74.26
498.088	72.63
498.334	71.05
498.581	69.91
498.827	70.13
499.074	70.3
499.32	70.66
499.566	73.57
499.813	74.57
500.059	72.2
500.305	72.19
500.552	70.67
500.798	69.89
501.044	73.19
501.29	70.71
501.537	69.72
501.783	71.73
502.029	75.1
502.275	73.22
502.521	71.69
502.767	71.85
503.013	73.51
503.26	70.4
503.506	68
503.752	70.82
503.998	70.25
504.244	70.78
504.49	67.91
504.736	69.14
504.982	68.64
505.228	69.28
505.474	69.62
505.72	70.61
505.966	70.6
506.211	73.71
506.457	74
506.703	70.52
506.949	68.97
507.195	67.77
507.441	64.89
507.686	68.29
507.932	68.71
508.178	70.16
508.424	68.17
508.669	65.7
508.915	66.72
509.161	67.11
509.406	67
509.652	65.7
509.898	67.82
510.143	68.08
510.389	66.8
510.634	63.27
510.88	65.79
511.125	67.6
511.371	67.12
511.616	66.38
511.862	62.34
512.107	61.19
512.353	61.73
512.598	61.31
512.844	57.71
513.089	53.96
513.335	54.58
513.58	54.09
513.825	53.61
514.071	51.7
514.316	53.23
514.561	53.48
514.806	51.01
515.052	53.42
515.297	52.63
515.542	53.15
515.787	52.86
516.033	54.34
516.278	54.37
516.523	53.7
516.768	54.86
517.013	52.22
517.258	51.91
517.503	51.65
517.748	52.93
517.993	53.11
518.238	53.2
518.483	52.05
518.728	51.03
518.973	48.5
519.218	48.56
519.463	50.71
519.708	49.57
519.953	47.72
520.198	48.13
520.443	52.31
520.688	55.76
520.933	55.11
521.177	54.4
521.422	51.44
521.667	54.15
521.912	53.28
522.157	50.63
522.401	52.96
522.646	52.1
522.891	51.83
523.135	52.39
523.38	52.1
523.625	51.19
523.869	53.39
524.114	54.77
524.358	51.44
524.603	52.01
524.848	49.18
525.092	46.94
525.337	46.54
525.581	48.75
525.826	50.9
526.07	51.4
526.315	51.84
526.559	52.32
526.803	51.54
527.048	54.4
527.292	54.4
527.537	54.4
527.781	52.32
528.025	49.82
528.269	49.93
528.514	50.76
528.758	50.36
529.002	50.69
529.247	53.38
529.491	52.71
529.735	55.95
529.979	55.63
530.223	57.28
530.467	54.51
530.712	51.56
530.956	49.68
531.2	51.4
531.444	48.05
531.688	49.01
531.932	49.06
532.176	48.91
532.42	50.31
532.664	52.74
532.908	52.57
533.152	50.45
533.396	48.97
533.64	46.71
533.884	45.11
534.128	44.77
534.371	45.19
534.615	45.63
534.859	45.36
535.103	44.37
535.347	45.14
535.59	45.68
535.834	42.77
536.078	43.16
536.322	43.48
536.565	46.28
536.809	44.23
537.053	46.23
537.296	43.63
537.54	42.17
537.784	41.21
538.027	43.09
538.271	42.99
538.514	42.8
538.758	41.98
539.001	40.97
539.245	39.2
539.488	41
539.732	43.01
539.975	42.55
540.219	42.96
540.462	43.07
540.706	43.54
540.949	43.05
541.192	45.18
541.436	49.31
541.679	53.35
541.922	53.91
542.166	49.16
542.409	48.95
542.652	49.03
542.895	50.81
543.139	51.45
543.382	55
543.625	52.68
543.868	53.25
544.111	52.1
544.354	50.1
544.598	49.03
544.841	50.25
545.084	50.36
545.327	49.57
545.57	49.58
545.813	51.36
546.056	51.03
546.299	50.36
546.542	52.65
546.785	56.13
547.028	56.36
547.271	56.42
547.514	56.5
547.756	54.69
547.999	53.85
548.242	54.21
548.485	53.49
548.728	53.17
548.971	48.79
549.213	48.29
549.456	48.44
549.699	49.12
549.942	49.22
550.184	49.03
550.427	47.84
550.67	47.03
550.912	42.59
551.155	44.91
551.398	45.33
551.64	45.14
551.883	46.2
552.125	45.98
552.368	45.27
552.61	43.46
552.853	44.33
553.095	43.94
553.338	43.01
553.58	43.33
553.823	42.85
554.065	43.68
554.308	39.13
554.55	35.79
554.792	31.19
555.035	30.35
555.277	29.02
555.519	30.27
555.762	28.17
556.004	28.44
556.246	25.39
556.488	28.15
556.731	25.64
556.973	26.15
557.215	25.02
557.457	26.06
557.699	28.6
557.941	26.35
558.183	26.49
558.426	27.61
558.668	25.13
558.91	25.69
559.152	25.48
559.394	25.2
559.636	25.67
559.878	27.66
560.12	27.1
560.362	28.16
560.604	26.98
560.845	26.31
561.087	25.85
561.329	28.67
561.571	27.04
561.813	28.23
562.055	27.91
562.297	30.07
562.538	31.3
562.78	34.4
563.022	31.77
563.264	33.77
563.505	33.98
563.747	34.32
563.989	31.51
564.23	30.22
564.472	27.48
564.714	28.89
564.955	28.89
565.197	25.25
565.438	26.98
565.68	28.82
565.921	27.62
566.163	27.73
566.404	25.97
566.646	27.99
566.887	29.19
567.129	29.36
567.37	27.92
567.612	29.36
567.853	27.43
568.094	28.6
568.336	28.39
568.577	30.21
568.818	29.58
569.06	27.61
569.301	25.81
569.542	26.96
569.783	28.18
570.025	27.03
570.266	27.48
570.507	29.1
570.748	28.75
570.989	29.36
571.23	32.02
571.472	33.37
571.713	32.98
571.954	35.59
572.195	34.74
572.436	36.85
572.677	39.59
572.918	41.66
573.159	41.03
573.4	40.97
573.641	41.35
573.882	41.67
574.123	40.15
574.364	36.57
574.604	36.98
574.845	35.28
575.086	37.04
575.327	37.3
575.568	35.88
575.809	35.46
576.049	32.3
576.29	29.54
576.531	34.45
576.771	37.19
577.012	38.62
577.253	38.98
577.494	39.62
577.734	38.25
577.975	38.58
578.215	37.03
578.456	35.39
578.697	34.77
578.937	35.03
579.178	34.46
579.418	32.14
579.659	32.56
579.899	29.19
580.14	28.69
580.38	27.19
580.62	26.09
580.861	28.74
581.101	28.23
581.342	28.59
581.582	24.41
581.822	26.11
582.063	24.88
582.303	25.02
582.543	24.02
582.783	24.89
583.024	27.69
583.264	30.5
583.504	29.98
583.744	32.63
583.984	30.21
584.224	29.51
584.465	27.94
584.705	27.98
584.945	28.18
585.185	28.23
585.425	28.47
585.665	29.67
585.905	28.82
586.145	28.52
586.385	27.96
586.625	29.89
586.865	29.37
587.105	28.35
587.345	29.29
587.585	27.98
587.824	26.63
588.064	27.24
588.304	25.06
588.544	25.34
588.784	23.21
589.024	25.98
589.263	24.54
589.503	24.47
589.743	27.18
589.982	26.34
590.222	26.63
590.462	23.75
590.701	21.75
590.941	24.94
591.181	23.57
591.42	22.7
591.66	25.28
591.899	27.86
592.139	26.32
592.378	26.11
592.618	26.34
592.857	25.91
593.097	25.15
593.336	25.34
593.576	24.68
593.815	24.31
594.055	24.19
594.294	25.55
594.533	25.5
594.773	24.54
595.012	26.6
595.251	27.54
595.491	28.49
595.73	30.3
595.969	30.63
596.208	31.69
596.447	34.9
596.687	35
596.926	34.18
597.165	30.55
597.404	32.37
597.643	30.83
597.882	30.51
598.121	31.35
598.36	32.22
598.599	33.05
598.838	32.9
599.077	29.68
599.316	30.92
599.555	29.82
599.794	31.39
600.033	31.52
600.272	31.79
600.511	30.7
600.75	31.88
600.989	33.33
601.228	32.77
601.466	31.75
601.705	32.4
601.944	32.28
602.183	34.5
602.422	33.06
602.66	31.94
602.899	31.53
603.138	31.25
603.376	31.9
603.615	33.22
603.854	32.08
604.092	34.37
604.331	37.5
604.569	39.95
604.808	39.29
605.047	41.46
605.285	41.32
605.524	40.65
605.762	38.45
606	39.91
606.239	40.4
606.477	40.23
606.716	36.44
606.954	36.87
607.193	34.87
607.431	31.79
607.669	31.24
607.908	31.67
608.146	33.34
608.384	33.14
608.622	33.23
608.861	33.99
609.099	33.69
609.337	33.26
609.575	32.12
609.813	33.61
610.052	34.17
610.29	29.9
610.528	28.29
610.766	26.33
611.004	26.83
611.242	25.55
611.48	24.9
611.718	21.33
611.956	20.42
612.194	17.96
612.432	16.73
612.67	16.13
612.908	16.8
613.146	15.43
613.384	13.89
613.621	13.18
613.859	15.17
614.097	13.92
614.335	14.8
614.573	14.64
614.811	17.2
615.048	15.48
615.286	15.81
615.524	14.61
615.761	12.49
615.999	13.83
616.237	13.84
616.474	14.97
616.712	16.58
616.95	15.74
617.187	13.85
617.425	14.38
617.662	16.44
617.9	14.62
618.137	13.66
618.375	11.63
618.612	10.42
618.85	11.78
619.087	14.51
619.325	14.34
619.562	14.19
619.799	12.06
620.037	11.57
620.274	10.99
620.511	12.29
620.749	10.59
620.986	8.79
621.223	5.5
621.461	6.39
621.698	7.29
621.935	6.92
622.172	5.22
622.409	9.64
622.647	9.09
622.884	7.46
623.121	9.45
623.358	6.71
623.595	6.74
623.832	6.47
624.069	4.58
624.306	5.33
624.543	8.2
624.78	8.69
625.017	9.29
625.254	12.73
625.491	15.12
625.728	17.3
625.965	16.5
626.202	14.49
626.438	11.62
626.675	11.31
626.912	13.58
627.149	15.29
627.386	16.24
627.622	14.83
627.859	14.96
628.096	15.56
628.333	17.4
628.569	18.66
628.806	20.28
629.043	19.73
629.279	22.32
629.516	23.76
629.752	18.8
629.989	19.12
630.225	18.11
630.462	18.27
630.699	18.91
630.935	17.57
631.171	14.28
631.408	15.12
631.644	14.11
631.881	10.4
632.117	9.12
632.354	8.72
632.59	7.17
632.826	6.31
633.063	4.41
633.299	7.3
633.535	6.29
633.771	7.56
634.008	9.32
634.244	8.41
634.48	7.34
634.716	9.18
634.953	8.93
635.189	9.55
635.425	10.77
635.661	12.85
635.897	11.52
636.133	10.74
636.369	8.92
636.605	4.8
636.841	4.45
637.077	7.33
637.313	6.91
637.549	7.52
637.785	5.82
638.021	7.66
638.257	7.31
638.493	10
638.729	7.41
638.965	10.6
639.2	13.01
639.436	11.11
639.672	12.15
639.908	10.39
640.144	14.04
640.379	16.88
640.615	14.32
640.851	16
641.086	17.82
641.322	16.27
641.558	16.8
641.793	16.98
642.029	13.84
642.264	13.09
642.5	11.72
642.736	8.41
642.971	9.81
643.207	10.19
643.442	8.44
643.678	9.79
643.913	11.67
644.148	10.45
644.384	11.24
644.619	11.99
644.855	12.97
645.09	13.84
645.325	12.29
645.561	12.62
645.796	11.42
646.031	15.52
646.266	11.88
646.502	9.54
646.737	12.2
646.972	12.34
647.207	12.76
647.442	10.47
647.678	7.94
647.913	8.97
648.148	10.38
648.383	7.33
648.618	7.87
648.853	9.56
649.088	12.32
649.323	16.03
649.558	18.14
649.793	18.83
650.028	20.2
650.263	17.37
650.498	19.09
650.733	19.01
650.968	17.89
651.202	19.77
651.437	19.12
651.672	15.53
651.907	15.72
652.142	16.65
652.376	17.4
652.611	19.78
652.846	21.88
653.081	21.79
653.315	19.97
653.55	20.69
653.785	20.57
654.019	21.73
654.254	19.75
654.488	20.86
654.723	17.46
654.958	16.41
655.192	16.08
655.427	12.93
655.661	15.21
655.896	17.61
656.13	17.89
656.364	14.15
656.599	10.51
656.833	12.59
657.068	14.58
657.302	14.31
657.536	11.7
657.771	12.36
658.005	14.47
658.239	16.51
658.474	13.03
658.708	14.08
658.942	15.44
659.176	13.45
659.41	11.29
659.645	10.17
659.879	8.7
660.113	5.85
660.347	5.39
660.581	4.45
660.815	4.33
661.049	3.82
661.283	0.98
661.517	-1.45
661.751	-2.49
661.985	-2.36
662.219	-1.48
662.453	-2.59
662.687	-0.57
662.921	-2.74
663.155	-5.19
663.389	-10.5
663.622	-11.8
663.856	-10
664.09	-12.28
664.324	-13.35
664.558	-12.82
664.791	-13.36
665.025	-14.9
665.259	-15.27
665.492	-16.99
665.726	-13.52
665.96	-13.54
666.193	-15.06
666.427	-14.97
666.661	-15.73
666.894	-17.28
667.128	-18.09
667.361	-17.45
667.595	-18.26
667.828	-18.99
668.062	-19.39
668.295	-18.36
668.529	-18.25
668.762	-16.16
668.995	-15.91
669.229	-11.83
669.462	-10.84
669.695	-10.5
669.929	-13.02
670.162	-12.47
670.395	-12.2
670.629	-9.75
670.862	-6.37
671.095	-8.46
671.328	-8.28
671.561	-10.31
671.795	-9.69
672.028	-8.29
672.261	-7.23
672.494	-6.21
672.727	-7.56
672.96	-7.15
673.193	-7.32
673.426	-2.85
673.659	-1.83
673.892	-0.51
674.125	-0.5
674.358	0.11
674.591	0.33
674.824	-0.1
675.057	-0.68
675.29	-1.14
675.523	-0.42
675.755	0.27
675.988	0.25
676.221	2.32
676.454	-0.08
676.687	0.44
676.919	1.23
677.152	1.58
677.385	1.44
677.617	0.52
677.85	1.11
678.083	-0.43
678.315	1.5
678.548	0.8
678.78	0.08
679.013	-1.14
679.246	0.8
679.478	1.66
679.711	-0.26
679.943	2.74
680.175	1.14
680.408	4.42
680.64	-0.06
680.873	1.3
681.105	1.22
681.338	4.11
681.57	2.33
681.802	3.58
682.034	3.43
682.267	6.79
682.499	7.43
682.731	5.59
682.964	5.28
683.196	4.41
683.428	2.19
683.66	1.34
683.892	2.67
684.124	3.5
684.356	5.13
684.589	5.19
684.821	4.76
685.053	3.89
685.285	5.17
685.517	7.05
685.749	7.42
685.981	8.11
686.213	10.52
686.445	9.4
686.676	7.29
686.908	7.84
687.14	5.78
687.372	4.49
687.604	0.59
687.836	1.7
688.068	0.72
688.299	1.06
688.531	-0.71
688.763	4.66
688.995	2.48
689.226	5.93
689.458	4.1
689.69	3.62
689.921	2.5
690.153	2.17
690.384	3.7
690.616	3.47
690.848	4.08
691.079	1.71
691.311	-0.27
691.542	-1.29
691.774	-1.67
692.005	0.16
692.237	3.04
692.468	1.06
692.699	0.05
692.931	0.2
693.162	-0.18
693.393	-1.93
693.625	-2.65
693.856	-2.12
694.087	-1.45
694.319	-1.06
694.55	-0.94
694.781	-0.77
695.012	0.52
695.243	-0.64
695.475	-0.57
695.706	0.37
695.937	-1.15
696.168	-1.35
696.399	-3.8
696.63	-2.9
696.861	-3.78
697.092	0.15
697.323	1.95
697.554	1.6
697.785	2.21
698.016	3.67
698.247	3.59
698.478	5.43
698.709	6.01
698.94	6.77
699.171	8.26
699.401	4.54
699.632	6.23
699.863	3.41
700.094	3.5
700.325	5.67
700.555	7.25
700.786	9.73
701.017	9.59
701.247	8.73
701.478	9.98
701.709	10.76
701.939	8.89
702.17	9.5
702.401	12
702.631	12.83
702.862	11.71
703.092	8.07
703.323	10.85
703.553	11.95
703.784	10.3
704.014	10.77
704.244	7.59
704.475	7.66
704.705	8.53
704.936	9.16
705.166	8.63
705.396	9.02
705.627	8.14
705.857	8.85
706.087	9.8
706.317	6.45
706.548	6.62
706.778	5.43
707.008	6.69
707.238	7.14
707.468	5.65
707.698	2.23
707.928	0.77
708.158	-0.06
708.389	0.52
708.619	-0.86
708.849	-2.01
709.079	0.25
709.309	-1.49
709.539	-3.85
709.768	-4.97
709.998	-4.12
710.228	-3.11
710.458	-4.48
710.688	-6.2
710.918	-4.98
711.148	-5.07
711.378	-4.98
711.607	-6.06
711.837	-5.33
712.067	-6.04
712.297	-6.21
712.526	-4.98
712.756	-4.4
712.986	-7.38
713.215	-9.7
713.445	-8.89
713.674	-9.45
713.904	-8.89
714.134	-6.44
714.363	-7.25
714.593	-8.41
714.822	-8.03
715.052	-8.61
715.281	-8.3
715.511	-9.55
715.74	-9.42
715.969	-11.36
716.199	-13.59
716.428	-12.93
716.657	-12.03
716.887	-10.16
717.116	-11.89
717.345	-10.21
717.575	-9.12
717.804	-9.28
718.033	-9.73
718.262	-10.68
718.492	-9.78
718.721	-9.44
718.95	-10.77
719.179	-12.38
719.408	-11.24
719.637	-16.43
719.866	-17.11
720.095	-15.63
720.324	-14.28
720.553	-17.14
720.782	-17.98
721.011	-17.84
721.24	-19.66
721.469	-20.54
721.698	-20.32
721.927	-19.46
722.156	-20.94
722.385	-21.43
722.613	-19.38
722.842	-18.56
723.071	-13.72
723.3	-8.99
723.529	-10.38
723.757	-9.54
723.986	-11.33
724.215	-10.9
724.443	-9.91
724.672	-8.56
724.901	-7.09
725.129	-7.03
725.358	-3.61
725.586	-5.82
725.815	-6.46
726.043	-7.44
726.272	-7.76
726.5	-8.95
726.729	-6.7
726.957	-9.67
727.186	-11.26
727.414	-12.28
727.642	-11.68
727.871	-8.53
728.099	-8.44
728.327	-9.54
728.556	-7.97
728.784	-6.78
729.012	-7.73
729.241	-4.83
729.469	-4.77
729.697	-7.09
729.925	-6.91
730.153	-8.49
730.381	-10.19
730.61	-9.3
730.838	-12.53
731.066	-11.56
731.294	-11.57
731.522	-15.24
731.75	-18.11
731.978	-18.53
732.206	-17.82
732.434	-19.23
732.662	-17.22
732.89	-18.33
733.118	-19.32
733.346	-18.6
733.573	-17.75
733.801	-16.75
734.029	-10.04
734.257	-8.78
734.485	-6.09
734.712	-3.07
734.94	-5.8
735.168	-4.18
735.396	-3.86
735.623	-5.68
735.851	-4.05
736.078	-2.22
736.306	-1.58
736.534	-0.28
736.761	0.05
736.989	-2.24
737.216	-2.73
737.444	-6.04
737.671	-5.03
737.899	-0.34
738.126	-1.5
738.354	-1.19
738.581	-0.43
738.809	0.01
739.036	-0.95
739.263	-1.47
739.491	-2.7
739.718	-2.25
739.945	2.6
740.173	5.79
740.4	4.15
740.627	2.53
740.854	1.88
741.081	-0.86
741.309	-0.03
741.536	-3.28
741.763	-4.88
741.99	-2.91
742.217	-3.29
742.444	-3.16
742.671	-1.43
742.898	-2.33
743.125	-4.34
743.352	-7.23
743.579	-8.9
743.806	-8.79
744.033	-5.7
744.26	-5.71
744.487	-4.67
744.714	-4.93
744.941	-5.56
745.167	-2.13
745.394	-4.51
745.621	-4.47
745.848	-4.81
746.075	-3.71
746.301	-0.34
746.528	2.48
746.755	0.18
746.981	-1.87
747.208	-1.95
747.435	1.39
747.661	1.61
747.888	2.62
748.114	0.7
748.341	1.18
748.567	2.9
748.794	0.79
749.02	-0.52
749.247	-3.07
749.473	-2.3
749.7	-3.29
749.926	-3.34
750.152	0.09
750.379	0.84
750.605	1.32
750.831	2.08
751.058	0.93
751.284	0.34
751.51	2.09
751.737	2.27
751.963	0.81
752.189	-0.5
752.415	1.61
752.641	1.65
752.867	1.78
753.094	0.86
753.32	-0.94
753.546	-1.1
753.772	1.98
753.998	-0.01
754.224	-0.52
754.45	-0.79
754.676	-1.74
754.902	-1.93
755.128	-1.22
755.354	-1.43
755.579	-0.46
755.805	1.5
756.031	0.78
756.257	1.11
756.483	1
756.709	1.47
756.934	0.33
757.16	-2.35
757.386	-2.53
757.612	-4.45
757.837	-6.22
758.063	-5.15
758.289	-2.87
758.514	-2.41
758.74	-3.53
758.965	-5.15
759.191	-4.25
759.416	-4.89
759.642	-4.64
759.868	-5.3
760.093	-3.68
760.318	-5.26
760.544	-5.83
760.769	-6.36
760.995	-6.34
761.22	-7.35
761.445	-5.88
761.671	-2.44
761.896	-0.34
762.121	-1.21
762.347	-0.85
762.572	-4.45
762.797	-4.04
763.022	-3.51
763.248	0.5
763.473	-0.2
763.698	-1.95
763.923	-1.27
764.148	-0.36
764.373	-1.03
764.598	1.4
764.823	3.32
765.048	1.61
765.273	-0.88
765.498	-2.85
765.723	-4.5
765.948	-3.24
766.173	-4.37
766.398	-3.13
766.623	-4.42
766.848	-4.94
767.073	-5.66
767.298	-5.68
767.522	-5.61
767.747	-4.38
767.972	-3.85
768.197	-1.29
768.421	-3.3
768.646	-8.36
768.871	-12.16
769.095	-11.44
769.32	-11.99
769.545	-11.35
769.769	-10.34
769.994	-8.6
770.218	-11.55
770.443	-9.93
770.667	-8.52
770.892	-7.98
771.116	-9.33
771.341	-7.4
771.565	-7.76
771.79	-7.85
772.014	-9.3
772.238	-10.32
772.463	-7.94
772.687	-6.58
772.911	-8.07
773.136	-10.42
773.36	-9.82
773.584	-8.62
773.808	-9.64
774.033	-10.45
774.257	-11.02
774.481	-11.64
774.705	-13.8
774.929	-13.7
775.153	-15.53
775.377	-13.81
775.602	-11.54
775.826	-8.95
776.05	-7.85
776.274	-7.85
776.498	-5.95
776.722	-6.38
776.945	-6.73
777.169	-7.5
777.393	-9.38
777.617	-10.1
777.841	-9.21
778.065	-7.85
778.289	-8.9
778.512	-10.61
778.736	-10.43
778.96	-9.88
779.184	-8.45
779.407	-9.78
779.631	-9.13
779.855	-9.66
780.078	-7.77
780.302	-10.34
780.526	-12.24
780.749	-11.55
780.973	-9.64
781.196	-7.25
781.42	-9.03
781.643	-7.55
781.867	-7.22
782.09	-9.01
782.314	-11.25
782.537	-12.03
782.76	-14.05
782.984	-12.79
783.207	-13.11
783.431	-13.18
783.654	-15.47
783.877	-17.71
784.1	-18.62
784.324	-19.13
784.547	-19.54
784.77	-23.56
784.993	-24.57
785.216	-25.46
785.44	-24.72
785.663	-25.76
785.886	-22.69
786.109	-22.79
786.332	-21.68
786.555	-22.06
786.778	-20.46
787.001	-20.85
787.224	-17.54
787.447	-16.04
787.67	-14.29
787.893	-14.24
788.116	-15.22
788.339	-15.23
788.561	-16.75
788.784	-18.52
789.007	-17.99
789.23	-17.41
789.453	-17.07
789.675	-17.48
789.898	-19.73
790.121	-21.5
790.344	-21.95
790.566	-19.01
790.789	-18.35
791.012	-17.27
791.234	-14.44
791.457	-10.57
791.679	-9.47
791.902	-9.69
792.124	-9.97
792.347	-11.39
792.569	-11.19
792.792	-14.26
793.014	-12.02
793.237	-11.81
793.459	-11.47
793.681	-11.19
793.904	-12.32
794.126	-14.73
794.348	-15.35
794.571	-13.51
794.793	-14.82
795.015	-13.65
795.237	-12.58
795.46	-11.05
795.682	-10.13
795.904	-9.27
796.126	-10.6
796.348	-11.6
796.57	-8.78
796.792	-6.98
797.014	-4.05
797.237	-2.91
797.459	-3.1
797.681	-1.02
797.903	-1.95
798.124	-0.93
798.346	8.52
798.568	9.57
798.79	13.33
799.012	14.95
799.234	16.1
799.456	16.29
799.678	17.98
799.899	16.7
800.121	13.66
800.343	13.92
800.565	14.8
800.786	15.7
801.008	17.53
801.23	17.82
801.451	17.49
801.673	15.31
801.895	14.32
802.116	15.48
802.338	15.23
802.559	14.34
802.781	13.1
803.002	14.65
803.224	17.22
803.445	13.41
803.667	13.09
803.888	10.83
804.109	11
804.331	11.17
804.552	11.44
804.773	12.22
804.995	8.78
805.216	-4.87
805.437	-5.87
805.658	-8.96
805.88	-9.87
806.101	-9.35
806.322	-8.14
806.543	-9.76
806.764	-11.88
806.985	-9.36
807.207	-9.23
807.428	-9.3
807.649	-12.93
807.87	-14.53
808.091	-14.01
808.312	-15.39
808.533	-10.53
808.754	-9.89
808.975	-12.11
809.195	-11.53
809.416	-10.49
809.637	-10.24
809.858	-11.81
810.079	-13.67
810.3	-10.25
810.52	-10.62
810.741	-10.31
810.962	-12.69
811.183	-13.8
811.403	-14.37
811.624	-14.2
811.845	-12.12
812.065	-10.32
812.286	-9.52
812.506	-9.52
812.727	-10.13
812.948	-9.61
813.168	-9.62
813.389	-10.27
813.609	-9.29
813.83	-9.54
814.05	-9.56
814.27	-10.02
814.491	-4.41
814.711	-5.79
814.931	-7.54
815.152	-7.6
815.372	-10.25
815.592	-10.61
815.813	-10.28
816.033	-10.23
816.253	-10.23
816.473	-11.34
816.694	-10.5
816.914	-9.02
817.134	-10.17
817.354	-11.76
817.574	-10.91
817.794	-10.99
818.014	-11.52
818.234	-11.79
818.454	-12.8
818.674	-15.23
818.894	-17.22
819.114	-15.55
819.334	-16
819.554	-13.8
819.774	-10.62
819.994	-11.64
820.214	-11.48
820.433	-11.35
820.653	-11.9
820.873	-10.83
821.093	-10.87
821.312	-13.74
821.532	-10.87
821.752	-9.57
821.972	-10.91
822.191	-9.75
822.411	-10.12
822.63	-9.72
822.85	-10.12
823.07	-11.3
823.289	-8.93
823.509	-9.56
823.728	-8.93
823.948	-10.27
824.167	-9.65
824.387	-11.46
824.606	-10.16
824.825	-11.07
825.045	-11.34
825.264	-11.71
825.483	-10.3
825.703	-9.29
825.922	-11.01
826.141	-10.71
826.361	-11.67
826.58	-16.22
826.799	-18.09
827.018	-17.51
827.237	-17.3
827.456	-15.36
827.676	-15.72
827.895	-15
828.114	-14.49
828.333	-15.34
828.552	-15.92
828.771	-14.71
828.99	-16.96
829.209	-15.74
829.428	-14.63
829.647	-14.55
829.866	-13.31
830.084	-14.3
830.303	-14.47
830.522	-13.03
830.741	-11.76
830.96	-11.52
831.179	-10.9
831.397	-11.25
831.616	-10.28
831.835	-10.86
832.053	-9.91
832.272	-9.1
832.491	-8.83
832.709	-10.05
832.928	-10.27
833.147	-9.46
833.365	-7.83
833.584	-5.34
833.802	-3.15
834.021	-2.75
834.239	-3.19
834.458	-4.34
834.676	-8.51
834.894	-8.6
835.113	-9.73
835.331	-8.75
835.55	-9.39
835.768	-7.92
835.986	-8.53
836.204	-10.43
836.423	-10.43
836.641	-11.25
836.859	-12.91
837.077	-12.31
837.296	-14.81
837.514	-16.1
837.732	-17.25
837.95	-17.75
838.168	-17.05
838.386	-18
838.604	-16.33
838.822	-15.89
839.04	-18.7
839.258	-17.44
839.476	-14.44
839.694	-14.97
839.912	-16.1
840.13	-16.18
840.348	-13.86
840.566	-17.07
840.783	-15.91
841.001	-16.28
841.219	-14.27
841.437	-12.64
841.655	-12.11
841.872	-12.07
842.09	-12.33
842.308	-11.55
842.525	-11.34
842.743	-10.28
842.961	-9.88
843.178	-11.33
843.396	-8.5
843.613	-7.17
843.831	-6.05
844.048	-6.01
844.266	-6.26
844.483	-6.1
844.701	-7.8
844.918	-7.98
845.136	-8.68
845.353	-9.58
845.57	-8.29
845.788	-4.65
846.005	-6.87
846.222	-8.96
846.439	-6.22
846.657	-6.12
846.874	-5.91
847.091	-7.65
847.308	-6
847.526	-8.1
847.743	-8.81
847.96	-12.22
848.177	-10.67
848.394	-11.29
848.611	-11.87
848.828	-12
849.045	-11.56
849.262	-12.66
849.479	-13.52
849.696	-14.92
849.913	-16.62
850.13	-20.24
850.347	-18.25
850.564	-19.38
850.78	-21.19
850.997	-22.15
851.214	-21.88
851.431	-19.72
851.647	-21.24
851.864	-19.92
852.081	-18.78
852.298	-21.51
852.514	-23.35
852.731	-21.83
852.948	-21.23
853.164	-22
853.381	-23.08
853.597	-23.52
853.814	-25.17
854.03	-27.91
854.247	-25.02
854.463	-25.3
854.68	-25.31
854.896	-25.63
855.113	-24.68
855.329	-23.48
855.545	-20.99
855.762	-22.88
855.978	-24.48
856.194	-26.71
856.411	-23.96
856.627	-21.07
856.843	-19.55
857.059	-16.91
857.275	-16.79
857.492	-15.12
857.708	-11.45
857.924	-9.97
858.14	-8.73
858.356	-8.85
858.572	-9.19
858.788	-11.11
859.004	-10.28
859.22	-9.98
859.436	-9.47
859.652	-9.52
859.868	-10.3
860.084	-10.99
860.3	-11.94
860.516	-12.13
860.731	-11.09
860.947	-13.43
861.163	-12.55
861.379	-10.78
861.595	-9.28
861.81	-10.07
862.026	-9.18
862.242	-10.35
862.457	-9.98
862.673	-8.37
862.889	-7.43
863.104	-6.37
863.32	-7.22
863.535	-6.96
863.751	-11.56
863.966	-9.54
864.182	-8.49
864.397	-10.08
864.613	-12.23
864.828	-12.71
865.044	-11.53
865.259	-8.97
865.474	-9.03
865.69	-7.25
865.905	-7.67
866.12	-9.93
866.336	-10.68
866.551	-9.41
866.766	-8.25
866.981	-7.85
867.196	-7.52
867.412	-6.04
867.627	-4.94
867.842	-5.34
868.057	-6.89
868.272	-7
868.487	-7.63
868.702	-10.32
868.917	-11.25
869.132	-9.64
869.347	-8.79
869.562	-10.02
869.777	-10.9
869.992	-12.12
870.207	-13.33
870.422	-14.61
870.636	-16.68
870.851	-19.16
871.066	-19.96
871.281	-20.02
871.495	-20.55
871.71	-18.57
871.925	-21.16
872.14	-21.59
872.354	-25.23
872.569	-25.59
872.783	-22.97
872.998	-22.96
873.213	-23.48
873.427	-21.61
873.642	-22
873.856	-21.89
874.071	-22.43
874.285	-24.99
874.5	-26.57
874.714	-27.41
874.928	-28.27
875.143	-28.46
875.357	-28.38
875.571	-29.82
875.786	-29.98
876	-27.18
876.214	-25.91
876.429	-28.67
876.643	-27.02
876.857	-25.6
877.071	-23.49
877.285	-24.31
877.499	-25.4
877.714	-24.33
877.928	-21.02
878.142	-22.64
878.356	-24.91
878.57	-24.11
878.784	-23.05
878.998	-21.88
879.212	-20.5
879.426	-21.81
879.639	-20.47
879.853	-20.91
880.067	-21.59
880.281	-21.7
880.495	-19.85
880.709	-18.02
880.922	-16.71
881.136	-13.93
881.35	-11.08
881.564	-11.13
881.777	-11.94
881.991	-11.09
882.205	-6.98
882.418	-7.66
882.632	-9.78
882.845	-9.52
883.059	-7.57
883.273	-8.3
883.486	-9.09
883.7	-7.41
883.913	-7.4
884.126	-6.54
884.34	-7.99
884.553	-10.67
884.767	-7.95
884.98	-7.15
885.193	-7.73
885.407	-7.94
885.62	-6.06
885.833	-5.5
886.046	-4.24
886.26	-4.84
886.473	-5.58
886.686	-6.2
886.899	-3.91
887.112	-6.17
887.326	-7.93
887.539	-6.91
887.752	-7.71
887.965	-10.51
888.178	-10.22
888.391	-9.04
888.604	-8.09
888.817	-11.27
889.03	-9.3
889.243	-9.82
889.455	-12.69
889.668	-12.48
889.881	-9.95
890.094	-11.61
890.307	-13.75
890.52	-12.22
890.732	-10.86
890.945	-11.35
891.158	-11.31
891.37	-13.78
891.583	-14.15
891.796	-13.84
892.008	-15.09
892.221	-16.47
892.434	-20.58
892.646	-22.62
892.859	-23.32
893.071	-21.85
893.284	-20.26
893.496	-21.38
893.709	-20.55
893.921	-19.73
894.133	-20.94
894.346	-21.32
894.558	-21.47
894.771	-21.35
894.983	-19.74
895.195	-20.05
895.407	-19.43
895.62	-22.23
895.832	-21.69
896.044	-17.82
896.256	-19.47
896.468	-21.68
896.681	-19.43
896.893	-19.03
897.105	-18.52
897.317	-19.75
897.529	-18.47
897.741	-18.23
897.953	-14.52
898.165	-15.91
898.377	-17.61
898.589	-15.75
898.801	-16.75
899.013	-13.68
899.224	-10.26
899.436	-8.41
899.648	-10.27
899.86	-12.03
900.072	-9.76
900.283	-9.76
900.495	-8.51
900.707	-8.38
900.919	-10.33
901.13	-8.37
901.342	-11.46
901.554	-12.45
901.765	-12.2
901.977	-13.69
902.188	-14.4
902.4	-16.12
902.611	-18.44
902.823	-19.65
903.034	-21.45
903.246	-22.95
903.457	-23.09
903.669	-24.98
903.88	-24.28
904.091	-23.85
904.303	-23.26
904.514	-25.83
904.725	-24.31
904.936	-22.02
905.148	-21.79
905.359	-19.04
905.57	-19.36
905.781	-21.98
905.992	-22.46
906.204	-21.2
906.415	-21.64
906.626	-24.21
906.837	-22.56
907.048	-23.04
907.259	-22.64
907.47	-23.86
907.681	-24.73
907.892	-21.1
908.103	-21.89
908.314	-23.41
908.525	-21.46
908.735	-20.32
908.946	-21.35
909.157	-21.84
909.368	-18.26
909.579	-15.31
909.789	-16.81
910	-17.59
910.211	-14.69
910.421	-15.68
910.632	-15.24
910.843	-17.67
911.053	-14.79
911.264	-12.72
911.475	-13.88
911.685	-14.57
911.896	-15.07
912.106	-15.34
912.317	-16.51
912.527	-14.47
912.737	-15.06
912.948	-14.32
913.158	-13.29
913.369	-14.69
913.579	-13.25
913.789	-13.19
914	-9.65
914.21	-9.79
914.42	-10.31
914.63	-10.68
914.841	-9.62
915.051	-9.13
915.261	-7.86
915.471	-5.19
915.681	-4.01
915.891	-4.93
916.101	-6.74
916.311	-6.34
916.521	-6.21
916.731	-7.67
916.941	-3.91
917.151	-4.59
917.361	-0.66
917.571	-4.25
917.781	-5.58
917.991	-8.1
918.201	-8.51
918.411	-11.31
918.621	-10.21
918.83	-8.61
919.04	-11.31
919.25	-8.51
919.46	-6.58
919.669	-9.65
919.879	-9.8
920.089	-12.24
920.298	-13.12
920.508	-14.12
920.717	-12.94
920.927	-14.7
921.136	-14.35
921.346	-14.7
921.555	-17.55
921.765	-17.94
921.974	-20.31
922.184	-22.44
922.393	-23.26
922.603	-23.95
922.812	-20.97
923.021	-21.41
923.23	-21.78
923.44	-24.78
923.649	-24.79
923.858	-26.19
924.067	-25.16
924.277	-26.72
924.486	-24.43
924.695	-25.38
924.904	-23.31
925.113	-24.22
925.322	-24.02
925.531	-24.57
925.74	-28.52
925.949	-28.04
926.158	-25.74
926.367	-24.9
926.576	-23.93
926.785	-25.24
926.994	-26.08
927.203	-25.17
927.412	-24.61
927.621	-25.42
927.83	-23.21
928.038	-22.83
928.247	-23.04
928.456	-21.92
928.665	-19.97
928.873	-18.47
929.082	-17.21
929.291	-17.06
929.499	-14.54
929.708	-16.49
929.916	-15.9
930.125	-16.46
930.333	-17.73
930.542	-15.27
930.75	-13.35
930.959	-11.57
931.167	-10.93
931.376	-11.78
931.584	-10.87
931.793	-10.19
932.001	-9.36
932.209	-10.58
932.418	-14.34
932.626	-16.09
932.834	-19.32
933.042	-21.12
933.251	-20.86
933.459	-19.65
933.667	-20.31
933.875	-20.3
934.083	-17.97
934.291	-17.55
934.499	-16
934.707	-16.67
934.915	-16.28
935.123	-15.68
935.331	-15.46
935.539	-17.75
935.747	-19.79
935.955	-21.25
936.163	-19.95
936.371	-20.39
936.579	-19.72
936.787	-18.5
936.995	-20.69
937.202	-22.33
937.41	-23.62
937.618	-24
937.826	-23.77
938.033	-26.79
938.241	-29.23
938.449	-27.37
938.656	-24.94
938.864	-24.31
939.071	-23.16
939.279	-19.62
939.486	-17.75
939.694	-17.66
939.901	-18.94
940.109	-19.16
940.316	-18.87
940.524	-20.2
940.731	-23.52
940.939	-21.41
941.146	-21.25
941.353	-22.3
941.561	-22.56
941.768	-24.03
941.975	-21.34
942.182	-21.4
942.39	-20.52
942.597	-17.91
942.804	-17.77
943.011	-17.57
943.218	-16.85
943.425	-17.28
943.632	-17.23
943.839	-18
944.046	-18.02
944.253	-17.91
944.46	-17.8
944.667	-14.83
944.874	-16.43
945.081	-14.1
945.288	-13.14
945.495	-11.94
945.702	-12.67
945.909	-15.22
946.115	-13.34
946.322	-13.45
946.529	-15.03
946.736	-15.18
946.942	-14.7
947.149	-14.32
947.356	-16.28
947.562	-17.9
947.769	-17.48
947.976	-17.55
948.182	-15.13
948.389	-16.6
948.595	-15.47
948.802	-15.76
949.008	-17.03
949.215	-15.99
949.421	-16.07
949.628	-17.94
949.834	-17.16
950.04	-17.38
950.247	-13.41
950.453	-12.1
950.659	-12.89
950.865	-10.7
951.072	-13.33
951.278	-11.11
951.484	-13.54
951.69	-16.1
951.896	-15.93
952.103	-16.02
952.309	-14.28
952.515	-15.2
952.721	-13.62
952.927	-11.28
953.133	-12.23
953.339	-12.46
953.545	-11.76
953.751	-12.34
953.957	-9.39
954.163	-11.04
954.369	-10.53
954.574	-13.68
954.78	-13.58
954.986	-12.86
955.192	-11.63
955.398	-12.58
955.603	-14.17
955.809	-12.54
956.015	-10.79
956.22	-11.81
956.426	-9.65
956.632	-13.85
956.837	-15.32
957.043	-15.23
957.248	-14.45
957.454	-14.08
957.66	-15.96
957.865	-15.91
958.07	-14.15
958.276	-15.92
958.481	-17.24
958.687	-18.6
958.892	-18.52
959.097	-18.47
959.303	-18.36
959.508	-18.88
959.713	-19.96
959.919	-20.26
960.124	-19.28
960.329	-19.65
960.534	-16.89
960.739	-16.24
960.945	-14.69
961.15	-14.04
961.355	-15.74
961.56	-19.14
961.765	-20.34
961.97	-20.15
962.175	-19.35
962.38	-23.17
962.585	-21.18
962.79	-24.04
962.995	-23.09
963.2	-22.74
963.404	-22.19
963.609	-25.42
963.814	-25.73
964.019	-28.39
964.224	-29.45
964.428	-27.94
964.633	-26.88
964.838	-26.32
965.042	-26.01
965.247	-26.72
965.452	-27.31
965.656	-27.98
965.861	-27.23
966.066	-26.55
966.27	-24.28
966.475	-22.26
966.679	-25.11
966.884	-25.13
967.088	-27.63
967.292	-28.08
967.497	-26.41
967.701	-28.12
967.906	-26.49
968.11	-23.3
968.314	-20.74
968.518	-22.35
968.723	-18.77
968.927	-18.8
969.131	-16.86
969.335	-14.84
969.539	-15.01
969.744	-13.88
969.948	-11.19
970.152	-10.13
970.356	-9.32
970.56	-8.28
970.764	-9.62
970.968	-8.29
971.172	-6.23
971.376	-6.18
971.58	-4.75
971.784	-4.48
971.988	-5.27
972.192	-1.7
972.395	-3.05
972.599	-6.22
972.803	-7.12
973.007	-5.42
973.21	-5.22
973.414	-5.61
973.618	-5.5
973.822	-7.87
974.025	-6.43
974.229	-6.25
974.432	-9.39
974.636	-10.56
974.84	-8.49
975.043	-8.92
975.247	-9.91
975.45	-11.56
975.654	-12.02
975.857	-10.53
976.06	-11.63
976.264	-12.9
976.467	-12.48
976.671	-11.3
976.874	-11.26
977.077	-11.85
977.28	-11.65
977.484	-15.41
977.687	-14.84
977.89	-13.98
978.093	-13.65
978.297	-12.81
978.5	-16.62
978.703	-15.35
978.906	-15.29
979.109	-15.98
979.312	-16.17
979.515	-16.89
979.718	-17.31
979.921	-18.25
980.124	-18.48
980.327	-19.37
980.53	-19.52
980.733	-18.23
980.936	-15.78
981.138	-17.7
981.341	-17.58
981.544	-17.75
981.747	-16.97
981.949	-18.13
982.152	-17.04
982.355	-17.98
982.558	-15.15
982.76	-17.66
982.963	-18.58
983.165	-19.57
983.368	-20.03
983.571	-21.23
983.773	-17.71
983.976	-17.53
984.178	-17.41
984.381	-18.36
984.583	-20.51
984.785	-20.08
984.988	-17.84
985.19	-15.92
985.392	-17.56
985.595	-20.09
985.797	-18.92
985.999	-15.87
986.202	-13.34
986.404	-13.95
986.606	-10.05
986.808	-11
987.01	-8.67
987.212	-11.63
987.415	-13.89
987.617	-13.83
987.819	-14.3
988.021	-14.95
988.223	-16.9
988.425	-19.39
988.627	-19.01
988.829	-23
989.031	-19.74
989.232	-20.58
989.434	-18.41
989.636	-18.36
989.838	-18.53
990.04	-18.87
990.242	-17.94
990.443	-20.84
990.645	-19.03
990.847	-16.27
991.048	-14.91
991.25	-17.49
991.452	-16.77
991.653	-17.59
991.855	-16.17
992.057	-18.32
992.258	-17.75
992.46	-17.33
992.661	-16.28
992.863	-18.63
993.064	-17.02
993.265	-19.1
993.467	-20.66
993.668	-18.13
993.87	-17.62
994.071	-17.5
994.272	-16.9
994.473	-14.44
994.675	-12.72
994.876	-11.48
995.077	-10.96
995.278	-11.89
995.48	-11.21
995.681	-13.14
995.882	-10.58
996.083	-11.61
996.284	-14.46
996.485	-16.13
996.686	-15.67
996.887	-16.79
997.088	-20.13
997.289	-22.73
997.49	-22.39
997.691	-24.48
997.892	-24.73
998.092	-20.4
998.293	-20.86
998.494	-22.06
998.695	-24.13
998.896	-23.1
999.096	-22.95
999.297	-22.27
999.498	-22.83
999.698	-23.71
999.899	-25.92
1000.1	-27.64
1000.3	-27.1
1000.501	-26.88
1000.701	-27.04
1000.902	-27.47
1001.102	-27.2
1001.303	-25.24
1001.503	-26.79
1001.704	-25.76
1001.904	-26.34
1002.105	-26.97
1002.305	-25.86
1002.505	-25.99
1002.706	-25.15
1002.906	-24.41
1003.106	-24.86
1003.306	-23.75
1003.507	-20.49
1003.707	-20.07
1003.907	-17.5
1004.107	-14.61
1004.307	-17.33
1004.507	-15.46
1004.707	-15.21
1004.907	-15.93
1005.107	-16.97
1005.308	-16.7
1005.507	-18.66
1005.707	-17.31
1005.907	-15.76
1006.107	-13.78
1006.307	-12.94
1006.507	-14.79
1006.707	-13.8
1006.907	-13.28
1007.106	-14.39
1007.306	-14.96
1007.506	-15.56
1007.706	-15.6
1007.905	-17.75
1008.105	-17.31
1008.305	-18.25
1008.504	-17.21
1008.704	-13.54
1008.903	-13.49
1009.103	-13.08
1009.303	-15.31
1009.502	-14.9
1009.702	-15.94
1009.901	-15.48
1010.1	-16.85
1010.3	-17.15
1010.499	-17.83
1010.699	-18.59
1010.898	-21.37
1011.097	-20.76
1011.296	-20.76
1011.496	-21.9
1011.695	-20.99
1011.894	-22.65
1012.093	-20.5
1012.293	-21.23
1012.492	-21.57
1012.691	-20.58
1012.89	-20.56
1013.089	-23.47
1013.288	-21.23
1013.487	-19.87
1013.686	-18.88
1013.885	-20.28
1014.084	-19.23
1014.283	-19.08
1014.482	-19.81
1014.681	-20.28
1014.88	-24.02
1015.078	-23.41
1015.277	-25.46
1015.476	-23.83
1015.675	-23.55
1015.873	-23.69
1016.072	-25.08
1016.271	-23.58
1016.47	-26.55
1016.668	-25.57
1016.867	-26.17
1017.065	-26.72
1017.264	-26.77
1017.463	-25.67
1017.661	-25.37
1017.86	-26.43
1018.058	-24.73
1018.256	-27.08
1018.455	-27.19
1018.653	-26.48
1018.852	-25.77
1019.05	-28.98
1019.248	-28.81
1019.447	-30.88
1019.645	-33.48
1019.843	-35.66
1020.041	-32.91
1020.24	-32.46
1020.438	-29.19
1020.636	-28.9
1020.834	-30.93
1021.032	-26.95
1021.23	-27.45
1021.428	-25.53
1021.626	-24.18
1021.824	-24.74
1022.022	-25.9
1022.22	-25.11
1022.418	-24.69
1022.616	-23.74
1022.814	-23.65
1023.012	-23.82
1023.21	-22.27
1023.408	-23.27
1023.606	-24.18
1023.803	-19.96
1024.001	-18.79
1024.199	-22.23
1024.397	-20.29
1024.594	-20.76
1024.792	-23.05
1024.99	-22
1025.187	-21.59
1025.385	-18.84
1025.582	-19.02
1025.78	-19.16
1025.977	-17.06
1026.175	-17.67
1026.372	-18.4
1026.57	-20.85
1026.767	-18.71
1026.965	-16.97
1027.162	-18.71
1027.359	-21
1027.557	-20.35
1027.754	-23.38
1027.951	-22.73
1028.148	-20.76
1028.346	-22.87
1028.543	-24.79
1028.74	-25.39
1028.937	-27.69
1029.134	-28.59
1029.331	-28.2
1029.528	-27.2
1029.725	-28.12
1029.923	-31.43
1030.12	-29.17
1030.317	-27.36
1030.513	-27.45
1030.71	-24.94
1030.907	-22.54
1031.104	-24.54
1031.301	-24.38
1031.498	-24.12
1031.695	-23.5
1031.892	-22.33
1032.088	-22.78
1032.285	-25.05
1032.482	-25.49
1032.678	-26.84
1032.875	-28.43
1033.072	-29.64
1033.268	-28.34
1033.465	-26.69
1033.662	-28.59
1033.858	-27.95
1034.055	-26.89
1034.251	-24.63
1034.448	-24.09
1034.644	-22.81
1034.84	-20.33
1035.037	-18.27
1035.233	-17.19
1035.43	-15.7
1035.626	-16.79
1035.822	-15.87
1036.019	-17.23
1036.215	-20.39
1036.411	-21.43
1036.607	-21.5
1036.803	-24.98
1037	-25.82
1037.196	-26.48
1037.392	-27.49
1037.588	-28.85
1037.784	-28.39
1037.98	-29.62
1038.176	-30.66
1038.372	-28.86
1038.568	-26.51
1038.764	-24.89
1038.96	-22.52
1039.156	-23.02
1039.352	-25.56
1039.547	-24.67
1039.743	-23.28
1039.939	-19.75
1040.135	-21.49
1040.331	-23.94
1040.526	-22.19
1040.722	-25.16
1040.918	-27.99
1041.113	-30.4
1041.309	-30.02
1041.505	-32.03
1041.7	-31.24
1041.896	-30.4
1042.091	-28.89
1042.287	-27.91
1042.482	-26.49
1042.678	-27.65
1042.873	-26.68
1043.069	-26.94
1043.264	-25.79
1043.459	-23.37
1043.655	-23.3
1043.85	-24.02
1044.045	-22.07
1044.24	-21.48
1044.436	-20.76
1044.631	-22.21
1044.826	-23.36
1045.021	-27.42
1045.216	-26.31
