Data from FLMT021711__23__17-07-28-737.txt Node

Date: Tue Nov 05 17:07:28 CET 2024
User: Etudiants TP
Spectrometer: FLMT02171
Trigger mode: 0
Integration Time (sec): 1,000000E-1
Scans to average: 5
Electric dark correction enabled: true
Nonlinearity correction enabled: false
Boxcar width: 15
XAxis mode: Wavelengths
Number of Pixels in Spectrum: 3648
>>>>>Begin Spectral Data<<<<<
194,658	-57,6
194,923	-57,42
195,188	-51,94
195,453	-51,17
195,717	-45,96
195,982	-44,5
196,247	-41,91
196,512	-42,93
196,777	-40,32
197,042	-38,21
197,307	-37,8
197,572	-34,17
197,837	-35,04
198,101	-32,19
198,366	-29,91
198,631	-27,85
198,896	-22,41
199,161	-15,56
199,425	-7,38
199,69	-0,09
199,955	-0,51
200,22	-3,86
200,484	-4,05
200,749	-4,83
201,014	-3,89
201,278	-4,02
201,543	-2,98
201,807	-4,09
202,072	-3,79
202,337	-4,1
202,601	-4,33
202,866	-5,18
203,13	-2,24
203,395	-3,89
203,659	-3,75
203,924	-5,27
204,189	-4,35
204,453	-4,88
204,717	-2,65
204,982	-1,77
205,246	-1,13
205,511	1,32
205,775	1,19
206,04	6,81
206,304	6,75
206,568	7,95
206,833	8,55
207,097	10,93
207,361	13,38
207,626	15,88
207,89	16,85
208,154	17,38
208,419	19,24
208,683	19,3
208,947	22,1
209,211	22,7
209,476	21,68
209,74	21,76
210,004	21,37
210,268	20,78
210,532	23,41
210,796	22,98
211,061	23,51
211,325	22,38
211,589	21,47
211,853	22,37
212,117	23,5
212,381	22,59
212,645	23,39
212,909	24,05
213,173	20,94
213,437	20,96
213,701	21,32
213,965	21
214,229	16,52
214,493	16,38
214,757	15,16
215,021	14,01
215,285	17,1
215,549	18
215,813	14,66
216,077	13,42
216,34	14,74
216,604	14,06
216,868	15,12
217,132	14,8
217,396	14,39
217,659	15,91
217,923	13,98
218,187	14,53
218,451	14,85
218,714	12,31
218,978	14,15
219,242	15,35
219,505	16,94
219,769	18,22
220,033	18,01
220,296	18,29
220,56	20,06
220,824	18,91
221,087	18,62
221,351	18,92
221,614	19,04
221,878	18,53
222,142	17,95
222,405	18,17
222,669	19,43
222,932	16,61
223,196	16,04
223,459	12,46
223,722	13,79
223,986	12,86
224,249	12,22
224,513	13,16
224,776	13,83
225,04	12,82
225,303	13,03
225,566	12,87
225,83	14,59
226,093	15,99
226,356	14,1
226,62	12,2
226,883	14,39
227,146	13,98
227,409	14,04
227,673	12,39
227,936	11,31
228,199	12,69
228,462	10,77
228,725	8,17
228,989	8,7
229,252	8,47
229,515	13,24
229,778	12,72
230,041	12,58
230,304	10,69
230,567	11,56
230,83	9,96
231,093	12,26
231,356	10,89
231,619	16,74
231,882	14,37
232,145	16,89
232,408	16,98
232,671	15,79
232,934	15,4
233,197	14,71
233,46	13,44
233,723	14,52
233,986	13,03
234,249	10,97
234,512	12,21
234,775	15,34
235,037	14,3
235,3	15,1
235,563	15,66
235,826	15,23
236,089	17,63
236,351	16,17
236,614	17,59
236,877	19,84
237,14	20,91
237,402	21,71
237,665	16,19
237,928	14,81
238,19	12,47
238,453	14,83
238,716	14,97
238,978	14,03
239,241	12,98
239,503	15,85
239,766	12,05
240,029	10,67
240,291	12,8
240,554	12,16
240,816	11,21
241,079	12,32
241,341	13
241,604	12,23
241,866	9,84
242,129	11,18
242,391	14,57
242,653	15,62
242,916	15,5
243,178	16,19
243,441	15,16
243,703	13,85
243,965	12,6
244,228	12,46
244,49	11,55
244,752	12,5
245,015	14,58
245,277	15,71
245,539	14,16
245,801	15,69
246,064	16,14
246,326	15,69
246,588	16,05
246,85	16,73
247,112	17,62
247,374	19,36
247,637	21
247,899	21,22
248,161	22,22
248,423	18,33
248,685	19,36
248,947	20,84
249,209	19,93
249,471	19
249,733	20,27
249,995	19,39
250,257	17,74
250,519	14,84
250,781	17,28
251,043	15,56
251,305	16,93
251,567	18,52
251,829	19,04
252,091	20,3
252,353	17,46
252,615	19,13
252,876	17,62
253,138	14,56
253,4	10,45
253,662	10,82
253,924	11,88
254,185	13,18
254,447	14,62
254,709	13,56
254,971	14,09
255,232	15,22
255,494	14,27
255,756	11,75
256,017	11,97
256,279	12,16
256,541	11,99
256,802	11,56
257,064	11,14
257,326	10,46
257,587	12,98
257,849	13,99
258,11	16,48
258,372	18,27
258,633	20,27
258,895	17,03
259,156	16
259,418	13,15
259,679	9,62
259,941	7,35
260,202	8,45
260,464	10,52
260,725	9,99
260,987	9,3
261,248	8,7
261,509	10,76
261,771	10,45
262,032	11,71
262,293	10,97
262,555	10,58
262,816	10,4
263,077	9,19
263,338	7,99
263,6	8,11
263,861	7,7
264,122	6,37
264,383	8,28
264,645	8,9
264,906	7,92
265,167	7,86
265,428	7,4
265,689	7,16
265,95	4,43
266,211	5,15
266,473	3,53
266,734	0,84
266,995	-1,02
267,256	0,19
267,517	2
267,778	5,49
268,039	6,88
268,3	6,13
268,561	3,47
268,822	6,23
269,083	5,02
269,344	3,63
269,604	3,35
269,865	3,71
270,126	1,76
270,387	1,28
270,648	1,83
270,909	0,61
271,17	-0,63
271,43	-2,49
271,691	-4,1
271,952	-4,8
272,213	-4,26
272,473	-6,3
272,734	-4,07
272,995	-3,64
273,256	-3,3
273,516	-1,2
273,777	-2,33
274,038	-0,23
274,298	-2,37
274,559	-1,52
274,82	2,18
275,08	3,86
275,341	6,36
275,601	5,96
275,862	3,96
276,122	3,66
276,383	3,95
276,643	5,85
276,904	3,89
277,164	7,18
277,425	8,22
277,685	11,37
277,946	12,82
278,206	13,28
278,467	16,05
278,727	16,53
278,987	16,9
279,248	16,89
279,508	17,82
279,768	18,29
280,029	20,32
280,289	18,14
280,549	16,72
280,81	16,42
281,07	17,59
281,33	19,79
281,59	17,56
281,851	18,79
282,111	19,81
282,371	19,21
282,631	20,78
282,891	18,61
283,151	17,75
283,412	15,09
283,672	15,35
283,932	15,59
284,192	17,1
284,452	16,26
284,712	15,53
284,972	13,47
285,232	10,35
285,492	11,9
285,752	9,82
286,012	13,52
286,272	15,54
286,532	12,72
286,792	12,5
287,052	13,87
287,312	13,94
287,571	13,72
287,831	14,54
288,091	12,25
288,351	12,05
288,611	15,81
288,871	14,96
289,13	14,44
289,39	10,89
289,65	12,47
289,91	10,73
290,17	10,01
290,429	13,33
290,689	10,37
290,949	7,48
291,208	10,09
291,468	12,58
291,728	13,66
291,987	14,83
292,247	13,02
292,506	14,85
292,766	16,89
293,026	17,53
293,285	18,52
293,545	21,07
293,804	20,34
294,064	17,8
294,323	15,08
294,583	15,61
294,842	14,64
295,102	14,18
295,361	15,49
295,621	15,74
295,88	16,39
296,139	16,46
296,399	17,97
296,658	13,97
296,917	14,18
297,177	11,13
297,436	12,84
297,695	11,86
297,955	12,26
298,214	10,85
298,473	10,74
298,732	13,88
298,992	18,7
299,251	17,69
299,51	15,48
299,769	15,13
300,028	14,46
300,287	14,76
300,547	14,48
300,806	12,3
301,065	15,16
301,324	17,47
301,583	13,68
301,842	10,76
302,101	7,49
302,36	7,73
302,619	7,27
302,878	9,54
303,137	7,34
303,396	6,97
303,655	7,59
303,914	4,92
304,173	4,59
304,432	3,28
304,691	5,98
304,95	3,82
305,208	8,33
305,467	8,07
305,726	8,25
305,985	8,98
306,244	11,88
306,503	11,22
306,761	9,12
307,02	5,98
307,279	5,37
307,537	3,53
307,796	0,58
308,055	-0,28
308,314	1,41
308,572	0,23
308,831	1,25
309,09	0,75
309,348	1,14
309,607	0,24
309,865	4,38
310,124	5,88
310,382	7,98
310,641	8,84
310,9	6,96
311,158	8,52
311,417	9,62
311,675	11,19
311,933	12,74
312,192	14,57
312,45	15,31
312,709	15
312,967	15,61
313,226	15,06
313,484	14,9
313,742	11,89
314,001	10,84
314,259	8,48
314,517	9,72
314,776	11,31
315,034	13,08
315,292	11,8
315,55	11,79
315,809	10,23
316,067	9,92
316,325	8,68
316,583	10,36
316,841	9,13
317,1	6,81
317,358	4,02
317,616	4,25
317,874	2,7
318,132	2,61
318,39	1,93
318,648	2,68
318,906	3,47
319,164	3,23
319,422	1,49
319,68	-0,09
319,938	-0,7
320,196	-1,39
320,454	0,24
320,712	-0,89
320,97	-1,94
321,228	-4,11
321,486	-3,34
321,744	-0,31
322,002	0,95
322,26	0,35
322,517	0,17
322,775	-1,56
323,033	-2,85
323,291	-1,74
323,549	-0,57
323,806	2,7
324,064	3,1
324,322	4,65
324,58	1,93
324,837	3,62
325,095	2,4
325,353	3,51
325,61	4,29
325,868	4,3
326,126	6,09
326,383	5,11
326,641	2,43
326,898	2,66
327,156	3,11
327,413	4,15
327,671	3,71
327,928	6,26
328,186	6,48
328,443	5,06
328,701	9,28
328,958	10,86
329,216	12,75
329,473	11,54
329,731	11,37
329,988	11,02
330,245	13
330,503	12,71
330,76	12,9
331,017	14,59
331,275	13,21
331,532	13,66
331,789	11,87
332,047	11,29
332,304	7,4
332,561	8,21
332,818	7,17
333,076	9,36
333,333	10,84
333,59	11,89
333,847	13,07
334,104	10,77
334,361	10,11
334,618	10,86
334,876	8,75
335,133	8,11
335,39	6,43
335,647	7,81
335,904	4,14
336,161	3,4
336,418	2,95
336,675	-1,22
336,932	0,04
337,189	-1,77
337,446	-0,18
337,703	0,03
337,96	-2,74
338,216	-2,97
338,473	-4,7
338,73	-5,48
338,987	-6,37
339,244	-3,73
339,501	-5,83
339,757	-4,63
340,014	-3,51
340,271	-1,7
340,528	-0,43
340,785	3,03
341,041	2,7
341,298	-0,36
341,555	-0,16
341,811	-0,68
342,068	-2,92
342,325	-3,02
342,581	-1,34
342,838	-1,34
343,094	-1,6
343,351	-0,95
343,608	-2,89
343,864	0,62
344,121	1,28
344,377	1,82
344,634	1,42
344,89	0,23
345,147	0,54
345,403	-2,3
345,66	-3,68
345,916	-1,11
346,172	-2,54
346,429	-2,73
346,685	-3,15
346,942	-2,41
347,198	-5,76
347,454	-3,76
347,711	-3,68
347,967	-5,97
348,223	-5,76
348,48	-6,91
348,736	-3,72
348,992	-2,89
349,248	-1,25
349,504	-1,82
349,761	-2,9
350,017	-1,42
350,273	0,2
350,529	-0
350,785	1,24
351,041	0,25
351,297	1,72
351,554	0,26
351,81	-2,01
352,066	-4,63
352,322	-4,36
352,578	-3,67
352,834	-4,24
353,09	-4,04
353,346	-2,41
353,602	-3,42
353,858	-5
354,114	-5,78
354,369	-5,14
354,625	-3,27
354,881	-5,64
355,137	-3,38
355,393	-3,58
355,649	-3,08
355,905	-2,69
356,16	-2,75
356,416	-3,42
356,672	-8,14
356,928	-8,41
357,183	-8,76
357,439	-8,68
357,695	-8,69
357,951	-5,53
358,206	-7,03
358,462	-8,32
358,718	-10,33
358,973	-8,37
359,229	-8,44
359,484	-8,01
359,74	-6,26
359,996	-4,29
360,251	-1,86
360,507	-2,22
360,762	-2,9
361,018	-1
361,273	-3,56
361,529	-2,72
361,784	-1,77
362,04	0,33
362,295	-1,65
362,55	-0,67
362,806	2,97
363,061	3,13
363,316	3,57
363,572	3,42
363,827	5,58
364,082	3,57
364,338	5,58
364,593	4,19
364,848	4,3
365,104	3,37
365,359	6,34
365,614	7,22
365,869	5,31
366,124	6,34
366,38	6,11
366,635	8,68
366,89	8,89
367,145	8,43
367,4	12,09
367,655	11,82
367,91	12,18
368,165	10,16
368,42	8,43
368,675	10,3
368,93	9,93
369,185	9,05
369,44	10,42
369,695	11,91
369,95	10,05
370,205	11,52
370,46	9,79
370,715	8,24
370,97	9,4
371,225	9,11
371,48	10,48
371,734	12,05
371,989	13,59
372,244	12,68
372,499	12,3
372,754	11,38
373,008	9,45
373,263	4,55
373,518	5,96
373,773	4,34
374,027	1,64
374,282	2,96
374,537	4,24
374,791	6,88
375,046	6,49
375,301	5,11
375,555	3,22
375,81	3,98
376,064	3,81
376,319	6,57
376,573	5,2
376,828	3,22
377,082	7,18
377,337	4,47
377,591	1,75
377,846	2,94
378,1	4,94
378,355	5,02
378,609	5,08
378,863	1,85
379,118	2,94
379,372	1,83
379,627	-2,17
379,881	-3,28
380,135	-4,64
380,389	-3,98
380,644	-2,64
380,898	-0,93
381,152	0,79
381,407	0,73
381,661	2,92
381,915	6,12
382,169	6,19
382,423	3,88
382,677	-0,49
382,932	-0,88
383,186	-0,26
383,44	1,67
383,694	3,36
383,948	2,65
384,202	1,92
384,456	4,25
384,71	4,9
384,964	2,78
385,218	5,51
385,472	6,35
385,726	5,12
385,98	3,59
386,234	4,21
386,488	1,57
386,742	3,4
386,996	1,64
387,249	2,45
387,503	4,34
387,757	6,75
388,011	7,94
388,265	10,49
388,518	10,52
388,772	12,34
389,026	12,9
389,28	10,63
389,533	9,16
389,787	9,79
390,041	8,64
390,295	9,07
390,548	8,84
390,802	11,74
391,055	10,71
391,309	9,34
391,563	7,18
391,816	7,65
392,07	6,66
392,323	6,91
392,577	7,74
392,83	8,61
393,084	11,92
393,337	15,15
393,591	16,9
393,844	16,56
394,098	19,05
394,351	22,63
394,604	23,83
394,858	25,17
395,111	24,6
395,364	22,63
395,618	23,02
395,871	21,8
396,124	18,72
396,378	18,54
396,631	17,22
396,884	15,02
397,137	14,23
397,391	15,23
397,644	11,45
397,897	11,53
398,15	12,23
398,403	15,76
398,657	14,07
398,91	12,47
399,163	13,46
399,416	13,25
399,669	12,6
399,922	11,75
400,175	10,51
400,428	9,68
400,681	10,67
400,934	6,46
401,187	4,94
401,44	4,3
401,693	4,48
401,946	1,35
402,199	-3,26
402,452	-3,51
402,704	-7,97
402,957	-8,05
403,21	-4,65
403,463	-5,48
403,716	-4,32
403,969	-2,51
404,221	-2,67
404,474	-0,86
404,727	3,12
404,98	6,83
405,232	6,35
405,485	9,75
405,738	12,05
405,99	11,82
406,243	11,89
406,496	11,57
406,748	12,08
407,001	11,9
407,253	13,26
407,506	12,57
407,759	13,45
408,011	11,66
408,264	12,22
408,516	12,78
408,769	11,86
409,021	13,34
409,274	13,94
409,526	15,21
409,778	14,67
410,031	18,18
410,283	17,34
410,536	23,14
410,788	21,29
411,04	19,95
411,293	21,22
411,545	21,82
411,797	20,23
412,049	18,7
412,302	20,09
412,554	19,01
412,806	16,77
413,058	15,93
413,311	16,38
413,563	14,46
413,815	13,03
414,067	10,11
414,319	10,52
414,571	12,29
414,823	10,56
415,075	8
415,328	9,97
415,58	13,01
415,832	13,37
416,084	14,56
416,336	12,6
416,588	16,71
416,84	14,71
417,091	17,22
417,343	14,44
417,595	17,02
417,847	16,9
418,099	18,75
418,351	18,35
418,603	20,69
418,855	22,73
419,106	23
419,358	23,32
419,61	23,36
419,862	24,97
420,114	22,32
420,365	23,1
420,617	22,47
420,869	20,66
421,12	19,51
421,372	21,34
421,624	21,78
421,875	23,91
422,127	22,18
422,379	21,25
422,63	23,91
422,882	23,62
423,133	24,04
423,385	23,18
423,636	25,46
423,888	26,42
424,139	28,33
424,391	25,49
424,642	23,33
424,894	20,76
425,145	21,03
425,396	18,93
425,648	21,12
425,899	19,37
426,151	19,05
426,402	18,37
426,653	17,5
426,905	16,42
427,156	14,91
427,407	15,39
427,658	14,49
427,91	13,3
428,161	12,28
428,412	14,18
428,663	15,77
428,914	15,35
429,166	15,65
429,417	17,07
429,668	16,16
429,919	14,55
430,17	14,21
430,421	13,06
430,672	15,51
430,923	14,21
431,174	13,29
431,425	13,67
431,676	12,65
431,927	10,48
432,178	12,72
432,429	13,96
432,68	14,06
432,931	16,5
433,182	19
433,433	16,85
433,683	17,4
433,934	15,96
434,185	14,65
434,436	13,7
434,687	14,67
434,937	16,45
435,188	16,68
435,439	16,22
435,69	17,76
435,94	17
436,191	17,67
436,442	18,52
436,692	18,1
436,943	15,54
437,194	14,95
437,444	16
437,695	20,2
437,945	21,87
438,196	20,93
438,447	20,67
438,697	21,54
438,948	21,24
439,198	17,89
439,449	14,04
439,699	16,1
439,949	15,23
440,2	15,69
440,45	17,58
440,701	17,08
440,951	15,91
441,201	17,66
441,452	18,03
441,702	19,61
441,952	21,65
442,203	21,88
442,453	20,63
442,703	20,6
442,953	21,58
443,204	21,97
443,454	20,53
443,704	21,44
443,954	19,54
444,204	19,64
444,455	22,08
444,705	25,2
444,955	24,28
445,205	23,23
445,455	21,02
445,705	21,39
445,955	22,97
446,205	22,75
446,455	23,62
446,705	24,57
446,955	25,92
447,205	29,71
447,455	30,66
447,705	28,68
447,955	27,62
448,205	28,1
448,454	29,12
448,704	30,07
448,954	28,5
449,204	28,48
449,454	27,9
449,704	27,58
449,953	28,06
450,203	29,47
450,453	29,02
450,703	31,54
450,952	32,15
451,202	34,44
451,452	33,67
451,701	36,66
451,951	39,58
452,201	39,5
452,45	37,62
452,7	40,06
452,949	40,86
453,199	40,61
453,448	42,27
453,698	42,12
453,947	42,7
454,197	41,43
454,446	41,25
454,696	45,23
454,945	44,54
455,195	43,33
455,444	46,14
455,693	50,23
455,943	48,49
456,192	49,68
456,442	49,22
456,691	50,12
456,94	49,14
457,189	48,93
457,439	49,93
457,688	51,73
457,937	52,41
458,186	52,43
458,436	50,59
458,685	51,92
458,934	50,64
459,183	50,65
459,432	51,95
459,681	51,56
459,93	50,35
460,179	51,72
460,429	49,9
460,678	52,67
460,927	55,45
461,176	53,74
461,425	53,5
461,674	54,58
461,923	54,61
462,172	53,48
462,42	49,97
462,669	51,16
462,918	49,71
463,167	48,11
463,416	44,28
463,665	44,71
463,914	42,72
464,162	42,18
464,411	42,51
464,66	44,36
464,909	42,11
465,158	42,54
465,406	40,75
465,655	41,23
465,904	42,52
466,152	42,16
466,401	41,87
466,65	42,46
466,898	41,15
467,147	37,65
467,395	36,95
467,644	37,89
467,893	35,5
468,141	35,48
468,39	32,7
468,638	30,21
468,887	29,02
469,135	29,04
469,384	28,61
469,632	29,74
469,88	29,05
470,129	31,14
470,377	28,12
470,626	31,77
470,874	33,1
471,122	34,23
471,371	32,37
471,619	31,98
471,867	34,21
472,115	33,35
472,364	31,2
472,612	34,96
472,86	33,35
473,108	34,97
473,356	34,41
473,605	32,84
473,853	31,77
474,101	29,97
474,349	29,08
474,597	31,5
474,845	29,19
475,093	28,98
475,341	27,33
475,589	28,33
475,837	29,31
476,085	30,11
476,333	29,36
476,581	30,24
476,829	28,78
477,077	29,76
477,325	30,12
477,573	30,91
477,821	27,63
478,069	29,22
478,317	27,87
478,564	28,87
478,812	28,35
479,06	27,83
479,308	26,47
479,555	25,33
479,803	24,12
480,051	25,4
480,299	24,42
480,546	24,85
480,794	21,3
481,042	22,64
481,289	22,96
481,537	22,97
481,784	22,94
482,032	25,15
482,28	23,78
482,527	24,8
482,775	23,53
483,022	24,27
483,27	25,54
483,517	27,63
483,765	26,63
484,012	26,58
484,259	24,69
484,507	28,51
484,754	30,06
485,002	27,79
485,249	26,55
485,496	30,07
485,744	28,76
485,991	28,09
486,238	26,51
486,486	28,08
486,733	28,51
486,98	30,16
487,227	28,4
487,474	29,93
487,722	32,03
487,969	30,56
488,216	29,51
488,463	30,34
488,71	27,04
488,957	25,33
489,204	25,52
489,451	27,53
489,699	26,46
489,946	24,22
490,193	23,11
490,44	23,7
490,687	24,57
490,934	22,18
491,18	18,29
491,427	20,1
491,674	23,01
491,921	22,44
492,168	21,59
492,415	17,02
492,662	19,31
492,909	22,4
493,155	21,16
493,402	20,34
493,649	18,33
493,896	20,03
494,142	15,97
494,389	16,04
494,636	16,3
494,883	15,39
495,129	13,93
495,376	11,65
495,623	13,32
495,869	15,87
496,116	17,17
496,362	19,41
496,609	22,68
496,855	25,89
497,102	24,54
497,348	24,88
497,595	26,81
497,841	31,58
498,088	29,56
498,334	28,48
498,581	26,83
498,827	27,29
499,074	27,71
499,32	27,98
499,566	33,3
499,813	32,28
500,059	32,24
500,305	32,12
500,552	31,43
500,798	31,54
501,044	35,55
501,29	34,9
501,537	32,89
501,783	37,31
502,029	40,22
502,275	38,3
502,521	36,88
502,767	37,28
503,013	40,38
503,26	38,43
503,506	35,2
503,752	36,7
503,998	35,02
504,244	35,44
504,49	33,82
504,736	35,56
504,982	34,98
505,228	38,46
505,474	38,26
505,72	40,9
505,966	39,8
506,211	43,5
506,457	43,72
506,703	40,64
506,949	38,88
507,195	36,4
507,441	34,65
507,686	37,08
507,932	36,06
508,178	37,44
508,424	35,47
508,669	33,6
508,915	35,51
509,161	36,36
509,406	36,19
509,652	33,58
509,898	36,05
510,143	37,44
510,389	37,85
510,634	34,38
510,88	37,74
511,125	40,57
511,371	40,14
511,616	40,93
511,862	38,22
512,107	35,22
512,353	34,82
512,598	34,6
512,844	31,41
513,089	28,24
513,335	29,43
513,58	29,95
513,825	29,7
514,071	29,73
514,316	29,79
514,561	30,71
514,806	29,33
515,052	30,37
515,297	29,38
515,542	32,08
515,787	32,77
516,033	35,48
516,278	35,66
516,523	34,33
516,768	33,47
517,013	32,3
517,258	34,04
517,503	34,06
517,748	35,63
517,993	35,11
518,238	36,14
518,483	34,81
518,728	33,47
518,973	32,29
519,218	31,79
519,463	32,7
519,708	33,64
519,953	32,65
520,198	33,39
520,443	34,21
520,688	37,06
520,933	34,51
521,177	35,31
521,422	33,74
521,667	36,3
521,912	36,31
522,157	33,89
522,401	36,61
522,646	37,43
522,891	39,36
523,135	38,86
523,38	36,96
523,625	36,08
523,869	38,48
524,114	40,66
524,358	40,92
524,603	39,08
524,848	36,9
525,092	35,64
525,337	36,24
525,581	38,74
525,826	39,96
526,07	40,11
526,315	42,04
526,559	40,3
526,803	39,54
527,048	43,05
527,292	44,36
527,537	45,21
527,781	45,06
528,025	44,13
528,269	44,66
528,514	46,07
528,758	44,62
529,002	44,88
529,247	47,42
529,491	48,04
529,735	52,6
529,979	51,25
530,223	52,38
530,467	49,58
530,712	48,42
530,956	48,27
531,2	48,62
531,444	46,17
531,688	46,38
531,932	45,02
532,176	47,42
532,42	49,28
532,664	50,12
532,908	48,92
533,152	46,92
533,396	45,96
533,64	43,94
533,884	40,91
534,128	42,05
534,371	43,84
534,615	44,31
534,859	42,33
535,103	41,83
535,347	42,13
535,59	43,21
535,834	40,14
536,078	41,87
536,322	43,14
536,565	46,46
536,809	44,4
537,053	46,07
537,296	42,42
537,54	43,41
537,784	41,98
538,027	44,01
538,271	41,82
538,514	41,91
538,758	41,04
539,001	39,61
539,245	39,12
539,488	40,89
539,732	41,66
539,975	41,6
540,219	44,23
540,462	45,31
540,706	45,83
540,949	44,86
541,192	45,82
541,436	50,76
541,679	54,03
541,922	54,41
542,166	50,53
542,409	50,17
542,652	48,9
542,895	49,83
543,139	49,59
543,382	54,24
543,625	52,11
543,868	53,35
544,111	51,73
544,354	49,26
544,598	47,53
544,841	49,78
545,084	48,36
545,327	48,02
545,57	48,38
545,813	50,94
546,056	50,31
546,299	50,97
546,542	53,47
546,785	56,57
547,028	57,49
547,271	56,14
547,514	56,85
547,756	53,7
547,999	52,93
548,242	54,61
548,485	53,18
548,728	54,89
548,971	50,97
549,213	51,54
549,456	50,56
549,699	50,9
549,942	51,47
550,184	52,46
550,427	50,65
550,67	52,52
550,912	47,8
551,155	50,65
551,398	49,28
551,64	47,5
551,883	48,16
552,125	48,2
552,368	48,5
552,61	47,44
552,853	49,4
553,095	47,61
553,338	47,35
553,58	47,92
553,823	46,26
554,065	47,99
554,308	44,61
554,55	42,43
554,792	40,22
555,035	38,52
555,277	37,91
555,519	37,87
555,762	35,27
556,004	36,61
556,246	33,27
556,488	34,07
556,731	30,65
556,973	32,29
557,215	31,55
557,457	32,69
557,699	34,12
557,941	32,89
558,183	31,1
558,426	33,76
558,668	28,77
558,91	30,14
559,152	31,97
559,394	32,49
559,636	33,86
559,878	34,39
560,12	33,72
560,362	34,7
560,604	34,08
560,845	33
561,087	32,41
561,329	35,5
561,571	33,52
561,813	33,91
562,055	33,08
562,297	35,68
562,538	36,31
562,78	39,45
563,022	38,57
563,264	39,59
563,505	39,36
563,747	39,41
563,989	38,05
564,23	37,9
564,472	36,13
564,714	38,99
564,955	39,55
565,197	37,73
565,438	39,32
565,68	41,53
565,921	39,86
566,163	41,66
566,404	39,38
566,646	40,09
566,887	40,88
567,129	41,87
567,37	39,86
567,612	42,59
567,853	39,97
568,094	43,42
568,336	43,83
568,577	43,34
568,818	43,05
569,06	40,56
569,301	39,27
569,542	40,17
569,783	41,1
570,025	40,62
570,266	40,4
570,507	42,15
570,748	42,54
570,989	43,97
571,23	46,58
571,472	47,25
571,713	47,01
571,954	48,32
572,195	46,43
572,436	48,21
572,677	49,52
572,918	52,43
573,159	50,95
573,4	49,76
573,641	49,52
573,882	51,31
574,123	50,78
574,364	47,61
574,604	47,33
574,845	46,75
575,086	46,01
575,327	47,23
575,568	45,71
575,809	45,13
576,049	45,04
576,29	43,17
576,531	48,89
576,771	51,35
577,012	53,65
577,253	54
577,494	54,18
577,734	53,84
577,975	53,05
578,215	53,66
578,456	51,63
578,697	52,43
578,937	53
579,178	52,78
579,418	50,97
579,659	50,91
579,899	48,23
580,14	48,48
580,38	46,12
580,62	45,39
580,861	48,39
581,101	48,66
581,342	48,13
581,582	43,98
581,822	47,24
582,063	46,13
582,303	46,44
582,543	45,92
582,783	47,37
583,024	49,44
583,264	52,87
583,504	52,06
583,744	53,32
583,984	50,35
584,224	50,14
584,465	48,66
584,705	47,59
584,945	48,46
585,185	48,5
585,425	49,91
585,665	48,37
585,905	48,99
586,145	48,66
586,385	48,33
586,625	51,76
586,865	51,13
587,105	51,45
587,345	51,66
587,585	49,93
587,824	49,54
588,064	50,65
588,304	48,56
588,544	48,96
588,784	47,12
589,024	49,13
589,263	47,09
589,503	45,66
589,743	47,96
589,982	48,14
590,222	47,34
590,462	43,98
590,701	40,91
590,941	43,07
591,181	42,7
591,42	42,69
591,66	44,46
591,899	46,39
592,139	46,96
592,378	46,77
592,618	44,8
592,857	43,66
593,097	44,14
593,336	44,1
593,576	42,09
593,815	41,85
594,055	40,27
594,294	41,08
594,533	39,51
594,773	38,4
595,012	39,96
595,251	41,77
595,491	44
595,73	46,76
595,969	47,5
596,208	49,17
596,447	53,99
596,687	55,21
596,926	55,44
597,165	51,33
597,404	53,46
597,643	51,72
597,882	50,97
598,121	52,33
598,36	54,29
598,599	55,11
598,838	54,01
599,077	51,11
599,316	51,73
599,555	50,26
599,794	50,46
600,033	52,29
600,272	53,99
600,511	52,74
600,75	54,08
600,989	56,34
601,228	56,38
601,466	55,62
601,705	55,87
601,944	57,1
602,183	59,84
602,422	58,52
602,66	56,57
602,899	55,12
603,138	54,41
603,376	53,8
603,615	54,72
603,854	51,9
604,092	50,71
604,331	52,72
604,569	55,44
604,808	54,5
605,047	56,32
605,285	57,31
605,524	56,33
605,762	53,83
606	55,34
606,239	57,06
606,477	57,69
606,716	54,05
606,954	54,52
607,193	53,14
607,431	51,14
607,669	49,36
607,908	48,97
608,146	49,85
608,384	47,99
608,622	47,34
608,861	47,17
609,099	47,42
609,337	47,18
609,575	46,87
609,813	48,92
610,052	47,56
610,29	42,96
610,528	41,34
610,766	40,4
611,004	39,34
611,242	38,46
611,48	39,95
611,718	37,99
611,956	36,71
612,194	35,65
612,432	34,11
612,67	32,9
612,908	34,2
613,146	32,99
613,384	31,74
613,621	30,89
613,859	30,85
614,097	30,57
614,335	30,82
614,573	32,1
614,811	33,82
615,048	33,2
615,286	33,77
615,524	33,18
615,761	31,55
615,999	32,47
616,237	32,46
616,474	33,76
616,712	34,63
616,95	32,15
617,187	32,28
617,425	34,32
617,662	37,22
617,9	36,82
618,137	35,81
618,375	35,25
618,612	33,6
618,85	35,78
619,087	38,42
619,325	39,26
619,562	36,44
619,799	37,66
620,037	37,86
620,274	36,04
620,511	38,46
620,749	35,7
620,986	34,37
621,223	32,06
621,461	32,32
621,698	33,44
621,935	32,49
622,172	30,43
622,409	32,97
622,647	32,73
622,884	29,77
623,121	32
623,358	31,33
623,595	31,31
623,832	30,81
624,069	28,85
624,306	29,72
624,543	29,04
624,78	29,96
625,017	30,05
625,254	31,03
625,491	32,94
625,728	34,32
625,965	35,35
626,202	33,51
626,438	31,5
626,675	29,38
626,912	32,37
627,149	31,35
627,386	30,89
627,622	30,88
627,859	28,85
628,096	29,67
628,333	30,45
628,569	32,21
628,806	35,02
629,043	34,12
629,279	34,39
629,516	36,42
629,752	32,08
629,989	33,23
630,225	33,72
630,462	34,13
630,699	32,97
630,935	32,34
631,171	29,24
631,408	30,3
631,644	29,62
631,881	28,71
632,117	25,39
632,354	25,46
632,59	24,89
632,826	23,84
633,063	22,22
633,299	23,7
633,535	21,96
633,771	21,18
634,008	24,57
634,244	23,83
634,48	21,79
634,716	24,06
634,953	23,67
635,189	23,37
635,425	25,07
635,661	26,3
635,897	24,62
636,133	23,48
636,369	23,26
636,605	20,53
636,841	19,29
637,077	22,28
637,313	21,71
637,549	22,01
637,785	20,87
638,021	22,7
638,257	22,98
638,493	26,11
638,729	24,47
638,965	27,16
639,2	28,28
639,436	27,83
639,672	28,41
639,908	28,35
640,144	31,96
640,379	35,38
640,615	33,15
640,851	34,85
641,086	36,49
641,322	35,23
641,558	35,87
641,793	38,11
642,029	35,83
642,264	35,12
642,5	35,7
642,736	32,62
642,971	33
643,207	33,1
643,442	30,38
643,678	29,69
643,913	31,45
644,148	30,36
644,384	31,08
644,619	31,18
644,855	31,85
645,09	32,23
645,325	32,15
645,561	32,03
645,796	29,97
646,031	34,26
646,266	31,58
646,502	30,85
646,737	34,02
646,972	32,67
647,207	30,77
647,442	28,18
647,678	25,41
647,913	26,87
648,148	28,47
648,383	27,04
648,618	26,76
648,853	27,72
649,088	29,11
649,323	31,94
649,558	33,31
649,793	35,18
650,028	36,22
650,263	33,09
650,498	33,91
650,733	34,56
650,968	34,09
651,202	36,44
651,437	36,33
651,672	33,21
651,907	32,34
652,142	33,15
652,376	33,35
652,611	34,43
652,846	35,22
653,081	35,28
653,315	32,2
653,55	33,18
653,785	32,6
654,019	34,13
654,254	33,31
654,488	35,56
654,723	33,23
654,958	31,06
655,192	29,88
655,427	24,8
655,661	26,3
655,896	28,36
656,13	29,65
656,364	27,3
656,599	23,95
656,833	30,13
657,068	30,57
657,302	29,46
657,536	28,35
657,771	28,62
658,005	28,81
658,239	29,93
658,474	27,11
658,708	27,78
658,942	28,19
659,176	27,36
659,41	25,43
659,645	25,26
659,879	24,22
660,113	20,5
660,347	19,9
660,581	17,83
660,815	15,92
661,049	15,44
661,283	11,49
661,517	10,26
661,751	9,42
661,985	8,86
662,219	10,52
662,453	10,05
662,687	13,1
662,921	10,26
663,155	9,08
663,389	4
663,622	3
663,856	4,05
664,09	-2,99
664,324	-3,63
664,558	-1,72
664,791	-2,6
665,025	-0,93
665,259	-0,56
665,492	-2,64
665,726	-0,79
665,96	-0,02
666,193	-0,53
666,427	1,57
666,661	0,85
666,894	-1,66
667,128	-2,33
667,361	1,45
667,595	0,75
667,828	0,59
668,062	1,04
668,295	0,7
668,529	2,11
668,762	2,97
668,995	2,71
669,229	5,12
669,462	5,83
669,695	7,03
669,929	5,1
670,162	5,16
670,395	3,82
670,629	5,45
670,862	7,39
671,095	5,63
671,328	6,23
671,561	2,62
671,795	2,08
672,028	3,68
672,261	2,99
672,494	4,09
672,727	3,78
672,96	3,7
673,193	2,41
673,426	5,33
673,659	4,59
673,892	6,02
674,125	6,6
674,358	5,96
674,591	3,61
674,824	3,66
675,057	3,68
675,29	3,48
675,523	4,19
675,755	3,1
675,988	3,55
676,221	5,08
676,454	4,59
676,687	6,95
676,919	4,94
677,152	4,99
677,385	6,17
677,617	7,23
677,85	6,79
678,083	5,18
678,315	7,65
678,548	7,51
678,78	7,85
679,013	7,31
679,246	8,41
679,478	8,64
679,711	6,54
679,943	8,05
680,175	5,85
680,408	8,37
680,64	5,78
680,873	6,34
681,105	6,78
681,338	10,11
681,57	9,81
681,802	10,89
682,034	11,39
682,267	14,93
682,499	15,66
682,731	14,95
682,964	14,28
683,196	12,94
683,428	11,29
683,66	9,6
683,892	10,53
684,124	12,32
684,356	15,61
684,589	13,63
684,821	11,78
685,053	12,44
685,285	13,12
685,517	13,81
685,749	12,49
685,981	13,46
686,213	14,23
686,445	14,03
686,676	11,58
686,908	12,43
687,14	11,04
687,372	12,6
687,604	9,75
687,836	10,13
688,068	9,15
688,299	7,93
688,531	4,77
688,763	8,44
688,995	6,83
689,226	9,14
689,458	6,77
689,69	6,12
689,921	4,06
690,153	4,13
690,384	4,43
690,616	2,84
690,848	4,17
691,079	0,42
691,311	-0,25
691,542	-5,28
691,774	-4,79
692,005	-1,58
692,237	1,35
692,468	-0,62
692,699	-1,49
692,931	-0,88
693,162	-2,2
693,393	-1,99
693,625	-3,1
693,856	-1,25
694,087	-1,27
694,319	0,87
694,55	-0,51
694,781	-1,52
695,012	-0,52
695,243	-1,4
695,475	-1,43
695,706	0,3
695,937	-0,1
696,168	0,27
696,399	-1,25
696,63	-1,1
696,861	-1,91
697,092	2,93
697,323	5,76
697,554	7,84
697,785	8,36
698,016	9,62
698,247	9,46
698,478	9,83
698,709	12,91
698,94	14,54
699,171	13,61
699,401	9,19
699,632	12,22
699,863	9,51
700,094	8,82
700,325	11,43
700,555	11,28
700,786	12,17
701,017	11,95
701,247	11,64
701,478	11,43
701,709	12,32
701,939	11,79
702,17	12,54
702,401	15,22
702,631	15,83
702,862	13,45
703,092	10,75
703,323	14,3
703,553	15,6
703,784	14,53
704,014	15,75
704,244	11,01
704,475	10,95
704,705	11,36
704,936	12,03
705,166	10,8
705,396	11,32
705,627	11,8
705,857	12,57
706,087	12,3
706,317	11,08
706,548	10,67
706,778	8,85
707,008	9,48
707,238	10,1
707,468	8,32
707,698	7,06
707,928	7,06
708,158	4,93
708,389	4,95
708,619	3,34
708,849	2,93
709,079	4,67
709,309	2,11
709,539	-0,58
709,768	-0,49
709,998	2,21
710,228	1,06
710,458	-1,36
710,688	-3,97
710,918	-3,68
711,148	-4,61
711,378	-3,32
711,607	-5,01
711,837	-4,91
712,067	-5,32
712,297	-4,22
712,526	-4,66
712,756	-4,49
712,986	-7,65
713,215	-8,22
713,445	-7,5
713,674	-6,47
713,904	-6,99
714,134	-2,99
714,363	-1,53
714,593	-1,71
714,822	-1,08
715,052	-1,78
715,281	0,7
715,511	-0,09
715,74	0,8
715,969	0,2
716,199	-0,11
716,428	1,25
716,657	1,32
716,887	3,28
717,116	0,41
717,345	2,43
717,575	2,05
717,804	2,26
718,033	1,13
718,262	0,62
718,492	1,75
718,721	2,57
718,95	1,21
719,179	0,2
719,408	-0,77
719,637	-2,74
719,866	-4,07
720,095	-2,68
720,324	-4,32
720,553	-8,51
720,782	-10,24
721,011	-10,35
721,24	-13,61
721,469	-15,92
721,698	-15,84
721,927	-16,46
722,156	-17,49
722,385	-17,89
722,613	-15,43
722,842	-14,52
723,071	-12,33
723,3	-10,83
723,529	-12,04
723,757	-11,45
723,986	-15,92
724,215	-15,34
724,443	-14,73
724,672	-12,81
724,901	-11,39
725,129	-9,01
725,358	-5,35
725,586	-7,89
725,815	-8,38
726,043	-9,64
726,272	-11,36
726,5	-12,25
726,729	-11,18
726,957	-13,25
727,186	-15,07
727,414	-13,47
727,642	-11,18
727,871	-9,51
728,099	-8,87
728,327	-9,12
728,556	-5,86
728,784	-5,08
729,012	-6,62
729,241	-4,33
729,469	-5,17
729,697	-7,26
729,925	-7,38
730,153	-8,63
730,381	-9,82
730,61	-9,52
730,838	-11,93
731,066	-8,98
731,294	-8,8
731,522	-10,53
731,75	-12,98
731,978	-14,91
732,206	-14,94
732,434	-17,21
732,662	-15,12
732,89	-16,85
733,118	-17,26
733,346	-15,49
733,573	-14,92
733,801	-15,39
734,029	-10,23
734,257	-8,8
734,485	-4,38
734,712	-1,77
734,94	-4,28
735,168	-2,23
735,396	-1,87
735,623	-4,21
735,851	-2,72
736,078	0,26
736,306	1,36
736,534	0,18
736,761	0,93
736,989	-2,84
737,216	-3,6
737,444	-5,44
737,671	-4,58
737,899	0,09
738,126	-1,3
738,354	-0,95
738,581	0,55
738,809	0,23
739,036	-0,41
739,263	-0,07
739,491	-1,49
739,718	-1,75
739,945	2,59
740,173	4,42
740,4	5,14
740,627	4,69
740,854	5,97
741,081	3,77
741,309	2,45
741,536	-2,21
741,763	-4,12
741,99	-0,73
742,217	-0,53
742,444	-0,09
742,671	0,67
742,898	0,01
743,125	-3,04
743,352	-7,26
743,579	-7,15
743,806	-8,1
744,033	-3,86
744,26	-3,35
744,487	-2,59
744,714	-3,06
744,941	-4,05
745,167	-1,52
745,394	-3,19
745,621	-5,13
745,848	-4,16
746,075	-0,97
746,301	0,69
746,528	4
746,755	3,21
746,981	2,08
747,208	4,74
747,435	6,84
747,661	8,44
747,888	8,65
748,114	6,52
748,341	8,89
748,567	9,64
748,794	7,44
749,02	5,97
749,247	3,31
749,473	2,49
749,7	3,37
749,926	1,73
750,152	4,84
750,379	6,44
750,605	6,81
750,831	6,89
751,058	4,4
751,284	2,88
751,51	4,17
751,737	5,46
751,963	4,55
752,189	3,91
752,415	4,03
752,641	4,42
752,867	5,08
753,094	1,97
753,32	1,28
753,546	0,11
753,772	0,85
753,998	-0,89
754,224	-3,53
754,45	-5,53
754,676	-7,16
754,902	-8,52
755,128	-7,46
755,354	-6,93
755,579	-5,34
755,805	-3,21
756,031	-3,99
756,257	-4,12
756,483	-3,95
756,709	-6,14
756,934	-5,16
757,16	-5,54
757,386	-4,53
757,612	-6,52
757,837	-7,11
758,063	-4,88
758,289	-1,42
758,514	-2,33
758,74	-4,59
758,965	-6,35
759,191	-4,97
759,416	-4,13
759,642	-2,77
759,868	-3,08
760,093	0,08
760,318	-2,6
760,544	-2,67
760,769	-2,67
760,995	-3,62
761,22	-4,11
761,445	-2,35
761,671	-0,92
761,896	2,16
762,121	2,31
762,347	1,11
762,572	-1,01
762,797	-0,94
763,022	-0,27
763,248	4,86
763,473	5,44
763,698	4,68
763,923	4,92
764,148	2,35
764,373	1,36
764,598	3,52
764,823	5,45
765,048	3,18
765,273	-0,05
765,498	-0,31
765,723	0,9
765,948	1,8
766,173	-0,23
766,398	0,49
766,623	-2,15
766,848	-1,96
767,073	-4,42
767,298	-3,26
767,522	-3,43
767,747	-1,68
767,972	-0,67
768,197	0,84
768,421	-0,74
768,646	-3,27
768,871	-6,16
769,095	-4,89
769,32	-4,58
769,545	-5,35
769,769	-4,31
769,994	-3,8
770,218	-6,88
770,443	-6,11
770,667	-4,41
770,892	-5,43
771,116	-4,26
771,341	-1,72
771,565	-1,95
771,79	-2,85
772,014	-2,46
772,238	-2,93
772,463	-0,67
772,687	-1,29
772,911	-1,74
773,136	-3,15
773,36	-2,24
773,584	-0,62
773,808	-3,63
774,033	-2,24
774,257	-2,82
774,481	-4,87
774,705	-6,88
774,929	-7,31
775,153	-7,9
775,377	-6,5
775,602	-7
775,826	-4,76
776,05	-3,81
776,274	-4,74
776,498	-4,31
776,722	-4,74
776,945	-2,54
777,169	-4,28
777,393	-7,51
777,617	-7,99
777,841	-6,56
778,065	-6,22
778,289	-9,06
778,512	-9,78
778,736	-9,55
778,96	-9,9
779,184	-7,39
779,407	-8,8
779,631	-8,7
779,855	-8,44
780,078	-7,23
780,302	-8,7
780,526	-10,61
780,749	-9,32
780,973	-8,19
781,196	-7,21
781,42	-7,32
781,643	-7,32
781,867	-6,59
782,09	-8,44
782,314	-10,05
782,537	-9,97
782,76	-12,3
782,984	-13,23
783,207	-13,35
783,431	-12,8
783,654	-15,13
783,877	-19,02
784,1	-19,17
784,324	-18,43
784,547	-18,61
784,77	-21,77
784,993	-22,86
785,216	-23,32
785,44	-23,52
785,663	-24,82
785,886	-24,3
786,109	-25,28
786,332	-25,68
786,555	-25,32
786,778	-25,35
787,001	-25,25
787,224	-23,17
787,447	-21,88
787,67	-21,16
787,893	-22,47
788,116	-22,36
788,339	-21,33
788,561	-20,63
788,784	-23,72
789,007	-24,15
789,23	-24,75
789,453	-25,29
789,675	-26,58
789,898	-27,02
790,121	-27,87
790,344	-28,58
790,566	-25,81
790,789	-24,78
791,012	-23,53
791,234	-19,7
791,457	-17,19
791,679	-15,87
791,902	-15,22
792,124	-14,25
792,347	-13,11
792,569	-13,25
792,792	-13,54
793,014	-12,23
793,237	-10,52
793,459	-10,23
793,681	-10,51
793,904	-10,7
794,126	-12,93
794,348	-13,04
794,571	-11,68
794,793	-12,58
795,015	-12,75
795,237	-12,47
795,46	-12,83
795,682	-10,73
795,904	-8,97
796,126	-9,29
796,348	-8,31
796,57	-4,8
796,792	-4,29
797,014	-1,64
797,237	-0,1
797,459	0,67
797,681	0,58
797,903	-1,62
798,124	-2,78
798,346	6,22
798,568	7,27
798,79	9,74
799,012	10,5
799,234	10,45
799,456	11,75
799,678	12,56
799,899	11,11
800,121	8,22
800,343	7,89
800,565	8,64
800,786	8,21
801,008	8,76
801,23	9,27
801,451	8,82
801,673	8,13
801,895	8,3
802,116	9,93
802,338	10,8
802,559	10,76
802,781	8,79
803,002	10,79
803,224	12,94
803,445	10,92
803,667	12,58
803,888	11,1
804,109	10,97
804,331	9,42
804,552	10,42
804,773	12,28
804,995	10,33
805,216	-1,58
805,437	-2,75
805,658	-5,02
805,88	-6,79
806,101	-7,2
806,322	-6,1
806,543	-6,63
806,764	-8,24
806,985	-6,73
807,207	-6,19
807,428	-5,61
807,649	-7,76
807,87	-9,28
808,091	-9,37
808,312	-9,58
808,533	-5,74
808,754	-5,07
808,975	-7,65
809,195	-5,3
809,416	-4,76
809,637	-3,51
809,858	-5,24
810,079	-7,76
810,3	-6,55
810,52	-8,33
810,741	-9,65
810,962	-11,88
811,183	-12,83
811,403	-12,91
811,624	-13,45
811,845	-12,3
812,065	-10,07
812,286	-10,69
812,506	-10,32
812,727	-8,89
812,948	-7,05
813,168	-6,09
813,389	-6,81
813,609	-4,85
813,83	-4,69
814,05	-4,01
814,27	-3,53
814,491	-0,03
814,711	-0,48
814,931	-2,63
815,152	-1,99
815,372	-3,87
815,592	-4,16
815,813	-4,53
816,033	-7,37
816,253	-6,6
816,473	-6,81
816,694	-5,61
816,914	-3,58
817,134	-2,89
817,354	-5,07
817,574	-3,72
817,794	-3,32
818,014	-3,84
818,234	-4,45
818,454	-6,24
818,674	-8,2
818,894	-11,01
819,114	-7,76
819,334	-6,63
819,554	-6,33
819,774	-4,88
819,994	-6,83
820,214	-7,73
820,433	-7,25
820,653	-7,68
820,873	-8,26
821,093	-8,19
821,312	-9,95
821,532	-7,69
821,752	-6,43
821,972	-7,42
822,191	-5,51
822,411	-6,36
822,63	-5,74
822,85	-5,07
823,07	-8,59
823,289	-8,72
823,509	-9,9
823,728	-9,38
823,948	-11,04
824,167	-10,73
824,387	-12,21
824,606	-10,77
824,825	-12,23
825,045	-11,1
825,264	-9,7
825,483	-8,42
825,703	-6,97
825,922	-8,96
826,141	-9,52
826,361	-10,31
826,58	-14,25
826,799	-15,03
827,018	-14,23
827,237	-14,68
827,456	-12,67
827,676	-12,08
827,895	-11,79
828,114	-10,65
828,333	-10
828,552	-8,18
828,771	-7,2
828,99	-10,73
829,209	-10,94
829,428	-9,02
829,647	-9,3
829,866	-7,41
830,084	-6,4
830,303	-7,54
830,522	-7,51
830,741	-6,68
830,96	-6,16
831,179	-6,16
831,397	-7,74
831,616	-6,09
831,835	-6,77
832,053	-7,03
832,272	-6,1
832,491	-4,97
832,709	-6,2
832,928	-6,29
833,147	-6,62
833,365	-4,84
833,584	-2,85
833,802	0,49
834,021	-0,31
834,239	-0,02
834,458	-1,26
834,676	-4,58
834,894	-5,84
835,113	-6,08
835,331	-7,9
835,55	-8,93
835,768	-8,07
835,986	-6,85
836,204	-8,45
836,423	-8,43
836,641	-9,54
836,859	-12,04
837,077	-11,13
837,296	-11,52
837,514	-13,06
837,732	-12,83
837,95	-12,48
838,168	-9,4
838,386	-9,63
838,604	-8,41
838,822	-7,74
839,04	-9,45
839,258	-9,06
839,476	-7,05
839,694	-7,19
839,912	-8,07
840,13	-9,12
840,348	-7,74
840,566	-11,06
840,783	-8,46
841,001	-10,53
841,219	-9,09
841,437	-8,66
841,655	-7,56
841,872	-8,17
842,09	-8,1
842,308	-6,69
842,525	-5,87
842,743	-4,91
842,961	-6,11
843,178	-7,9
843,396	-2,37
843,613	-0,91
843,831	1,14
844,048	1,84
844,266	2,56
844,483	0,78
844,701	-0,37
844,918	-0,95
845,136	-1,11
845,353	-2,14
845,57	-2,37
845,788	1,56
846,005	-0,76
846,222	-2,4
846,439	-1,79
846,657	-0,48
846,874	0,7
847,091	-1,11
847,308	1,54
847,526	0,17
847,743	0,07
847,96	-2,01
848,177	-2,11
848,394	-2,66
848,611	-2,85
848,828	-3,14
849,045	-4,4
849,262	-4,58
849,479	-5,85
849,696	-6,87
849,913	-7,97
850,13	-12,91
850,347	-11,09
850,564	-12,21
850,78	-15,35
850,997	-16,66
851,214	-14,47
851,431	-13,62
851,647	-16,17
851,864	-14,52
852,081	-13,5
852,298	-15,95
852,514	-17,73
852,731	-16,33
852,948	-14,26
853,164	-13,4
853,381	-12,96
853,597	-14,42
853,814	-16,69
854,03	-20,46
854,247	-19,02
854,463	-19,47
854,68	-19,8
854,896	-17,93
855,113	-17,24
855,329	-15,68
855,545	-14,83
855,762	-14,63
855,978	-16,58
856,194	-18,28
856,411	-13,8
856,627	-11,42
856,843	-12,13
857,059	-9,46
857,275	-9,49
857,492	-6,76
857,708	-3,32
857,924	-2,2
858,14	0,01
858,356	0,03
858,572	-0,84
858,788	-2,33
859,004	0,79
859,22	-1,14
859,436	-2,09
859,652	-3,59
859,868	-5,5
860,084	-5,85
860,3	-6,26
860,516	-4,93
860,731	-4,3
860,947	-6,72
861,163	-6,11
861,379	-5,1
861,595	-3,95
861,81	-3,43
862,026	-5,19
862,242	-4,5
862,457	-5,43
862,673	-4,35
862,889	-4,24
863,104	-4,29
863,32	-4,72
863,535	-2,63
863,751	-5,64
863,966	-4,41
864,182	-4,05
864,397	-6,7
864,613	-10,12
864,828	-10,78
865,044	-9,9
865,259	-10,01
865,474	-9,84
865,69	-9,05
865,905	-8,38
866,12	-10,41
866,336	-10,18
866,551	-8,33
866,766	-8,25
866,981	-7,76
867,196	-9,32
867,412	-8,42
867,627	-8,65
867,842	-8,35
868,057	-7,65
868,272	-9,14
868,487	-10,09
868,702	-11,5
868,917	-11,96
869,132	-10,87
869,347	-10,6
869,562	-11,34
869,777	-13,19
869,992	-13,99
870,207	-15,16
870,422	-16,63
870,636	-18,27
870,851	-19,59
871,066	-20,79
871,281	-19,78
871,495	-21,86
871,71	-19,72
871,925	-20,36
872,14	-21,02
872,354	-24,47
872,569	-24,52
872,783	-21,78
872,998	-22,26
873,213	-24
873,427	-22,78
873,642	-22,15
873,856	-21,09
874,071	-22,52
874,285	-23,87
874,5	-24,53
874,714	-26,45
874,928	-26,4
875,143	-26,76
875,357	-26,23
875,571	-27,31
875,786	-26,45
876	-23,15
876,214	-22,04
876,429	-22,75
876,643	-22,2
876,857	-21,22
877,071	-20,92
877,285	-21,53
877,499	-23,4
877,714	-20,6
877,928	-17,44
878,142	-17,21
878,356	-19,78
878,57	-18,94
878,784	-18,15
878,998	-17,62
879,212	-16,42
879,426	-17,57
879,639	-15
879,853	-14,6
880,067	-14,7
880,281	-16,38
880,495	-14,01
880,709	-11,06
880,922	-9,88
881,136	-9,82
881,35	-8,14
881,564	-9,17
881,777	-11,1
881,991	-10,12
882,205	-7,11
882,418	-8,52
882,632	-10,69
882,845	-9,93
883,059	-9,64
883,273	-9,84
883,486	-10,09
883,7	-7,51
883,913	-8,17
884,126	-6,74
884,34	-9,64
884,553	-12,58
884,767	-10,35
884,98	-9,49
885,193	-11,15
885,407	-10,9
885,62	-9,01
885,833	-9,15
886,046	-7,86
886,26	-9,98
886,473	-11,61
886,686	-11,77
886,899	-9,36
887,112	-12,25
887,326	-15,09
887,539	-13,84
887,752	-13,31
887,965	-15,12
888,178	-13,86
888,391	-13,93
888,604	-13,95
888,817	-16,24
889,03	-14,54
889,243	-17,03
889,455	-19,94
889,668	-19,26
889,881	-15,52
890,094	-17,01
890,307	-19,17
890,52	-17,71
890,732	-16,6
890,945	-15,85
891,158	-15,82
891,37	-17,04
891,583	-17,22
891,796	-14,46
892,008	-16,4
892,221	-17,87
892,434	-21,52
892,646	-23,3
892,859	-25,02
893,071	-22,45
893,284	-20,23
893,496	-21,71
893,709	-20,81
893,921	-19,04
894,133	-20,39
894,346	-19,73
894,558	-19,82
894,771	-20,3
894,983	-17,16
895,195	-17,02
895,407	-16,8
895,62	-19,19
895,832	-17,06
896,044	-13,19
896,256	-15,03
896,468	-17,75
896,681	-15,55
896,893	-15,55
897,105	-15,31
897,317	-16,73
897,529	-16,33
897,741	-15,94
897,953	-14,42
898,165	-15,45
898,377	-18,19
898,589	-17,04
898,801	-16,54
899,013	-12,85
899,224	-9,21
899,436	-6,35
899,648	-7,72
899,86	-10,29
900,072	-7,31
900,283	-6,56
900,495	-5,51
900,707	-3,87
900,919	-6,98
901,13	-5,91
901,342	-6,55
901,554	-8,25
901,765	-7,55
901,977	-7,79
902,188	-8,22
902,4	-10,4
902,611	-11,18
902,823	-11,19
903,034	-13,13
903,246	-15,42
903,457	-16,7
903,669	-18,43
903,88	-17,96
904,091	-17,27
904,303	-16,03
904,514	-16,07
904,725	-13,78
904,936	-12,57
905,148	-11,98
905,359	-10,42
905,57	-10,61
905,781	-13,83
905,992	-14,75
906,204	-13,61
906,415	-13,92
906,626	-15,89
906,837	-13,85
907,048	-14,99
907,259	-16,49
907,47	-16,68
907,681	-17,58
907,892	-14,78
908,103	-14,78
908,314	-16,93
908,525	-15,74
908,735	-15,4
908,946	-14,77
909,157	-16,02
909,368	-13,95
909,579	-11,55
909,789	-12,06
910	-11,68
910,211	-9,84
910,421	-10,91
910,632	-10,84
910,843	-13,13
911,053	-11,76
911,264	-10,78
911,475	-11,97
911,685	-12,61
911,896	-11,99
912,106	-11,64
912,317	-12,36
912,527	-11,36
912,737	-12,62
912,948	-12,37
913,158	-11,22
913,369	-13,58
913,579	-11,02
913,789	-10,34
914	-6,67
914,21	-6,37
914,42	-6,21
914,63	-6,97
914,841	-5,5
915,051	-4,63
915,261	-4,11
915,471	-1,51
915,681	-1,27
915,891	-0,73
916,101	-2,75
916,311	-2,26
916,521	-1
916,731	-0,07
916,941	2,77
917,151	2,43
917,361	4,72
917,571	1,29
917,781	-0,15
917,991	-1,18
918,201	-0,84
918,411	-3,25
918,621	-4,69
918,83	-3,69
919,04	-5,54
919,25	-3,69
919,46	-1,92
919,669	-4,47
919,879	-5,5
920,089	-7,54
920,298	-7,74
920,508	-8,19
920,717	-6,85
920,927	-9,86
921,136	-9,38
921,346	-12,29
921,555	-14,89
921,765	-13,76
921,974	-16,57
922,184	-18,24
922,393	-18,39
922,603	-18,92
922,812	-17,48
923,021	-18,09
923,23	-19,09
923,44	-22,32
923,649	-22,34
923,858	-22,75
924,067	-22,05
924,277	-24,15
924,486	-22,35
924,695	-22,35
924,904	-21,86
925,113	-21,62
925,322	-18,28
925,531	-17,15
925,74	-20,14
925,949	-21,63
926,158	-18,83
926,367	-18,78
926,576	-18,82
926,785	-20,02
926,994	-21,72
927,203	-21,17
927,412	-20,77
927,621	-21,01
927,83	-18,28
928,038	-18,23
928,247	-19,05
928,456	-19,02
928,665	-18,82
928,873	-18,36
929,082	-15,54
929,291	-15,02
929,499	-14,4
929,708	-16,15
929,916	-15,18
930,125	-16,19
930,333	-16,72
930,542	-14,56
930,75	-12,07
930,959	-11,49
931,167	-12,13
931,376	-13,17
931,584	-10,78
931,793	-13,16
932,001	-13,35
932,209	-13,65
932,418	-16,59
932,626	-18,26
932,834	-19,01
933,042	-21,52
933,251	-21,19
933,459	-19,71
933,667	-20,92
933,875	-21,92
934,083	-21,67
934,291	-20,88
934,499	-20,25
934,707	-21,22
934,915	-21,09
935,123	-19,21
935,331	-22,44
935,539	-24,35
935,747	-25,8
935,955	-25,25
936,163	-24,61
936,371	-23,63
936,579	-21,85
936,787	-22,54
936,995	-24,44
937,202	-25,83
937,41	-25,4
937,618	-24,59
937,826	-24,06
938,033	-28,34
938,241	-29,01
938,449	-27,21
938,656	-24,71
938,864	-23,34
939,071	-23,47
939,279	-20,81
939,486	-19,44
939,694	-18,59
939,901	-19,18
940,109	-19,29
940,316	-18,57
940,524	-18,67
940,731	-19,19
940,939	-17,66
941,146	-17,11
941,353	-17,47
941,561	-18
941,768	-16,89
941,975	-16,41
942,182	-17,79
942,39	-18,81
942,597	-15,85
942,804	-16,68
943,011	-17,38
943,218	-15,8
943,425	-15,89
943,632	-14,91
943,839	-15,8
944,046	-16,54
944,253	-15,82
944,46	-16,12
944,667	-12,72
944,874	-13,09
945,081	-12,76
945,288	-10,43
945,495	-9,34
945,702	-10,04
945,909	-10,49
946,115	-10,6
946,322	-13,08
946,529	-13,79
946,736	-14,01
946,942	-11,88
947,149	-13,53
947,356	-15,58
947,562	-16,83
947,769	-15,46
947,976	-16,01
948,182	-14,38
948,389	-15,85
948,595	-12,77
948,802	-13,14
949,008	-15
949,215	-13,61
949,421	-14,23
949,628	-15,3
949,834	-14,47
950,04	-15,49
950,247	-12,27
950,453	-11,84
950,659	-13,02
950,865	-10,98
951,072	-15,51
951,278	-14,64
951,484	-15,6
951,69	-18,74
951,896	-19,17
952,103	-19,57
952,309	-17,19
952,515	-16,08
952,721	-13,07
952,927	-11,27
953,133	-12,23
953,339	-13,16
953,545	-12,61
953,751	-10,92
953,957	-7,63
954,163	-8,54
954,369	-7,93
954,574	-10,27
954,78	-9,92
954,986	-9,84
955,192	-7,19
955,398	-7,91
955,603	-10,43
955,809	-7,94
956,015	-9,12
956,22	-9,32
956,426	-8,14
956,632	-12,04
956,837	-12,27
957,043	-11,97
957,248	-11,16
957,454	-10,68
957,66	-12,59
957,865	-11,67
958,07	-10,33
958,276	-12,96
958,481	-13,94
958,687	-17,02
958,892	-17,28
959,097	-18,5
959,303	-19,81
959,508	-18,94
959,713	-19,21
959,919	-18,75
960,124	-20,06
960,329	-20,53
960,534	-19,08
960,739	-18,61
960,945	-15,66
961,15	-15,08
961,355	-16,83
961,56	-20,28
961,765	-20,36
961,97	-20,47
962,175	-19,39
962,38	-21,91
962,585	-20,82
962,79	-22,46
962,995	-21,77
963,2	-22,67
963,404	-23,14
963,609	-25,75
963,814	-25,91
964,019	-28,11
964,224	-31,73
964,428	-31,15
964,633	-28,88
964,838	-27,51
965,042	-27
965,247	-28,16
965,452	-27,64
965,656	-25,91
965,861	-25,42
966,066	-25,76
966,27	-23,48
966,475	-20,69
966,679	-24,45
966,884	-24,21
967,088	-25,71
967,292	-28,17
967,497	-27,3
967,701	-27,33
967,906	-25,88
968,11	-23,25
968,314	-19,97
968,518	-22,27
968,723	-18,5
968,927	-17,83
969,131	-16,55
969,335	-13,99
969,539	-12,83
969,744	-11,47
969,948	-9,15
970,152	-7,71
970,356	-6,01
970,56	-4,61
970,764	-4,5
970,968	-2,3
971,172	-1,91
971,376	0,11
971,58	0,52
971,784	1,18
971,988	-0,57
972,192	0,86
972,395	-0,3
972,599	-2,89
972,803	-4,97
973,007	-3,1
973,21	-3,95
973,414	-3,58
973,618	-3,33
973,822	-3,87
974,025	-4,15
974,229	-4,16
974,432	-7,97
974,636	-9,26
974,84	-9,14
975,043	-9,24
975,247	-11,2
975,45	-12,07
975,654	-12,14
975,857	-11,19
976,06	-12,02
976,264	-13,15
976,467	-12,3
976,671	-12,05
976,874	-10,49
977,077	-11,11
977,28	-13,22
977,484	-15,49
977,687	-15,76
977,89	-13,94
978,093	-14,22
978,297	-12,7
978,5	-13,53
978,703	-12,01
978,906	-11,37
979,109	-11,02
979,312	-10,6
979,515	-10,36
979,718	-9,92
979,921	-8,89
980,124	-10,31
980,327	-9,51
980,53	-9,69
980,733	-7,45
980,936	-4,9
981,138	-6,79
981,341	-6,38
981,544	-5,86
981,747	-6,13
981,949	-7,86
982,152	-8,33
982,355	-7,57
982,558	-5,19
982,76	-8,46
982,963	-9,81
983,165	-10,01
983,368	-10,25
983,571	-11,1
983,773	-7,77
983,976	-7,4
984,178	-8,03
984,381	-9,55
984,583	-11,88
984,785	-12,22
984,988	-10,51
985,19	-9,03
985,392	-10,12
985,595	-11,87
985,797	-10,83
985,999	-9,8
986,202	-8,63
986,404	-8,78
986,606	-6,42
986,808	-7,97
987,01	-6,82
987,212	-8,81
987,415	-8,54
987,617	-8,61
987,819	-9,74
988,021	-10,15
988,223	-12,16
988,425	-12,14
988,627	-12,4
988,829	-16,61
989,031	-14,34
989,232	-15,04
989,434	-14,17
989,636	-14,29
989,838	-13,84
990,04	-13,57
990,242	-15,66
990,443	-16,87
990,645	-14,56
990,847	-11,97
991,048	-10,64
991,25	-12,83
991,452	-13,35
991,653	-13,25
991,855	-12,51
992,057	-15,38
992,258	-14,74
992,46	-15,81
992,661	-14,74
992,863	-17,48
993,064	-16,07
993,265	-17,45
993,467	-17,48
993,668	-15,61
993,87	-15,35
994,071	-14,79
994,272	-13,45
994,473	-12,94
994,675	-12,49
994,876	-11,64
995,077	-8,97
995,278	-8,79
995,48	-7,72
995,681	-9,66
995,882	-8,23
996,083	-8,6
996,284	-12,46
996,485	-12,7
996,686	-13,41
996,887	-13,8
997,088	-17,66
997,289	-19,88
997,49	-19,94
997,691	-20,5
997,892	-21,37
998,092	-18
998,293	-17,15
998,494	-18,41
998,695	-18,06
998,896	-15,41
999,096	-14,37
999,297	-14,86
999,498	-16,47
999,698	-19,21
999,899	-21,23
1000,1	-22,58
1000,3	-22,51
1000,501	-23,55
1000,701	-22,22
1000,902	-22,95
1001,102	-23,6
1001,303	-22,63
1001,503	-24,26
1001,704	-23,73
1001,904	-23,09
1002,105	-23,65
1002,305	-22,62
1002,505	-23,2
1002,706	-22,66
1002,906	-22,35
1003,106	-21,95
1003,306	-21,71
1003,507	-19,48
1003,707	-18,08
1003,907	-15,87
1004,107	-14,7
1004,307	-16,52
1004,507	-13,61
1004,707	-13,08
1004,907	-14,46
1005,107	-15,85
1005,308	-16,63
1005,507	-17,09
1005,707	-14,22
1005,907	-14,74
1006,107	-12,31
1006,307	-10,79
1006,507	-11,87
1006,707	-10,92
1006,907	-9,44
1007,106	-10,36
1007,306	-10,81
1007,506	-11,69
1007,706	-11,76
1007,905	-13,65
1008,105	-14,04
1008,305	-14,95
1008,504	-15,41
1008,704	-11,15
1008,903	-10,31
1009,103	-8,46
1009,303	-11,21
1009,502	-8,66
1009,702	-9,67
1009,901	-10,78
1010,1	-13,36
1010,3	-11,04
1010,499	-11,39
1010,699	-14,46
1010,898	-16,26
1011,097	-15,71
1011,296	-16,01
1011,496	-17,76
1011,695	-18,09
1011,894	-19,76
1012,093	-16
1012,293	-16,72
1012,492	-17,89
1012,691	-17,93
1012,89	-17,19
1013,089	-19,54
1013,288	-17,05
1013,487	-16,78
1013,686	-16,78
1013,885	-16,46
1014,084	-15
1014,283	-15,31
1014,482	-15,15
1014,681	-14,82
1014,88	-17,87
1015,078	-16,61
1015,277	-18,78
1015,476	-18,65
1015,675	-18,92
1015,873	-19,37
1016,072	-19,62
1016,271	-17,43
1016,47	-21,53
1016,668	-21,05
1016,867	-21,32
1017,065	-23,04
1017,264	-24,26
1017,463	-23,86
1017,661	-23,27
1017,86	-23,48
1018,058	-23,16
1018,256	-25,33
1018,455	-26,68
1018,653	-26,1
1018,852	-23,95
1019,05	-26,51
1019,248	-27,85
1019,447	-29,01
1019,645	-28,84
1019,843	-29,8
1020,041	-28,93
1020,24	-28,71
1020,438	-25,47
1020,636	-26,47
1020,834	-28,42
1021,032	-26,53
1021,23	-28,34
1021,428	-27,9
1021,626	-24,61
1021,824	-23,74
1022,022	-22,54
1022,22	-21,88
1022,418	-22,01
1022,616	-21,58
1022,814	-21,41
1023,012	-21,96
1023,21	-18,73
1023,408	-18,42
1023,606	-19,2
1023,803	-14,08
1024,001	-14,52
1024,199	-15,91
1024,397	-14,82
1024,594	-14,13
1024,792	-15,39
1024,99	-15,81
1025,187	-14,6
1025,385	-10,56
1025,582	-10,87
1025,78	-11,67
1025,977	-10,99
1026,175	-11,81
1026,372	-12,71
1026,57	-15,05
1026,767	-11,2
1026,965	-10,12
1027,162	-9,4
1027,359	-8,86
1027,557	-8,52
1027,754	-11,3
1027,951	-13,88
1028,148	-12,81
1028,346	-14,82
1028,543	-16,66
1028,74	-16,76
1028,937	-19,65
1029,134	-18,16
1029,331	-19,71
1029,528	-19,24
1029,725	-20,16
1029,923	-23,52
1030,12	-17,56
1030,317	-16,26
1030,513	-16
1030,71	-14,61
1030,907	-11,77
1031,104	-12,55
1031,301	-13,8
1031,498	-15,3
1031,695	-17,22
1031,892	-16,7
1032,088	-16,71
1032,285	-17,93
1032,482	-18,04
1032,678	-19,71
1032,875	-23,06
1033,072	-22,34
1033,268	-22,15
1033,465	-23,04
1033,662	-24,01
1033,858	-22,9
1034,055	-21,16
1034,251	-19,87
1034,448	-19,93
1034,644	-19,91
1034,84	-17,88
1035,037	-14,19
1035,233	-14,53
1035,43	-12,79
1035,626	-13,69
1035,822	-12,66
1036,019	-12,97
1036,215	-18,02
1036,411	-19,33
1036,607	-19,87
1036,803	-23,3
1037	-25,48
1037,196	-26,11
1037,392	-26,49
1037,588	-27,46
1037,784	-25,31
1037,98	-25,51
1038,176	-25,45
1038,372	-25,65
1038,568	-24,02
1038,764	-21,61
1038,96	-19,56
1039,156	-21,08
1039,352	-23,01
1039,547	-20,83
1039,743	-20,2
1039,939	-18,82
1040,135	-19,55
1040,331	-21,67
1040,526	-19,6
1040,722	-20,66
1040,918	-21,46
1041,113	-26,01
1041,309	-26,42
1041,505	-28,73
1041,7	-27,87
1041,896	-27,38
1042,091	-27,04
1042,287	-25,64
1042,482	-24,5
1042,678	-24,7
1042,873	-22,78
1043,069	-22,63
1043,264	-22,32
1043,459	-20,6
1043,655	-19,95
1043,85	-20,38
1044,045	-19,5
1044,24	-19,48
1044,436	-16,76
1044,631	-17,61
1044,826	-19,52
1045,021	-21,58
1045,216	-19,82
