Data from FLMT021711__13__17-06-34-513.txt Node

Date: Tue Nov 05 17:06:34 CET 2024
User: Etudiants TP
Spectrometer: FLMT02171
Trigger mode: 0
Integration Time (sec): 1.000000E-1
Scans to average: 5
Electric dark correction enabled: true
Nonlinearity correction enabled: false
Boxcar width: 15
XAxis mode: Wavelengths
Number of Pixels in Spectrum: 3648
>>>>>Begin Spectral Data<<<<<
194.658	-53.81
194.923	-53.6
195.188	-48.1
195.453	-48.16
195.717	-44.38
195.982	-42.95
196.247	-42.14
196.512	-44.36
196.777	-42.75
197.042	-41.27
197.307	-40.68
197.572	-36.82
197.837	-37.04
198.101	-34.87
198.366	-32.22
198.631	-30.19
198.896	-24.9
199.161	-18.55
199.425	-12.09
199.69	-4.29
199.955	-4.92
200.22	-9.04
200.484	-8.96
200.749	-9.27
201.014	-7.74
201.278	-8
201.543	-7.5
201.807	-9.06
202.072	-8.6
202.337	-8.42
202.601	-7.18
202.866	-8.84
203.13	-7.15
203.395	-9.13
203.659	-8.55
203.924	-9.93
204.189	-9.16
204.453	-7.87
204.717	-5.52
204.982	-5.33
205.246	-3.55
205.511	-2
205.775	-3.02
206.04	2.78
206.304	2.52
206.568	4.28
206.833	3.77
207.097	5.24
207.361	7.45
207.626	11.1
207.89	11.06
208.154	12.73
208.419	15.5
208.683	16.21
208.947	18.38
209.211	17.92
209.476	18
209.74	19.73
210.004	19.22
210.268	20.73
210.532	24.08
210.796	24.52
211.061	25.82
211.325	26.19
211.589	26.27
211.853	26.82
212.117	27.31
212.381	27.08
212.645	27.82
212.909	27.31
213.173	27.13
213.437	27.27
213.701	26.97
213.965	28.43
214.229	23.82
214.493	22.99
214.757	21.76
215.021	20.86
215.285	24.69
215.549	24.69
215.813	21.8
216.077	22.75
216.34	24.71
216.604	23.13
216.868	22.29
217.132	22.17
217.396	21.37
217.659	21.63
217.923	17.66
218.187	18.48
218.451	17.16
218.714	14.03
218.978	14.04
219.242	15.15
219.505	16.07
219.769	17.48
220.033	17.46
220.296	19.08
220.56	19.53
220.824	17.3
221.087	18.76
221.351	17.35
221.614	16.58
221.878	18.43
222.142	15.82
222.405	15.6
222.669	19.29
222.932	15.65
223.196	15.67
223.459	11.68
223.722	13.94
223.986	13.69
224.249	12.12
224.513	9.99
224.776	9.71
225.04	9.32
225.303	7.54
225.566	7.45
225.83	7.99
226.093	11.11
226.356	8.79
226.62	8.42
226.883	10.07
227.146	10.58
227.409	9.51
227.673	6.82
227.936	4.85
228.199	5.79
228.462	4.01
228.725	2.95
228.989	2.92
229.252	3.7
229.515	8.05
229.778	6.96
230.041	5.9
230.304	6.24
230.567	6.77
230.83	4.49
231.093	7.5
231.356	7.56
231.619	13.37
231.882	11.45
232.145	12.21
232.408	12.49
232.671	12.54
232.934	13.65
233.197	13.87
233.46	14.2
233.723	15
233.986	14.12
234.249	11.35
234.512	13.62
234.775	16.79
235.037	16.06
235.3	14.73
235.563	15.29
235.826	17.13
236.089	19.55
236.351	18.75
236.614	21.34
236.877	21.68
237.14	23.96
237.402	23.59
237.665	19
237.928	18.27
238.19	16.68
238.453	17.67
238.716	17.89
238.978	17.56
239.241	15.22
239.503	15.55
239.766	10.23
240.029	9.46
240.291	11.95
240.554	11.02
240.816	11.07
241.079	10.77
241.341	10.33
241.604	9.92
241.866	7.56
242.129	8.44
242.391	10.66
242.653	10.09
242.916	9.74
243.178	9.72
243.441	11.39
243.703	10.74
243.965	9.56
244.228	8.36
244.49	8.51
244.752	7.67
245.015	9.77
245.277	11.01
245.539	8.08
245.801	8.63
246.064	9.21
246.326	7.97
246.588	7.56
246.85	9.03
247.112	10.35
247.374	13.97
247.637	15.91
247.899	17.12
248.161	16.87
248.423	13.31
248.685	13.88
248.947	13.7
249.209	13.16
249.471	14.53
249.733	14.37
249.995	13.26
250.257	13.82
250.519	13.2
250.781	15.3
251.043	12.34
251.305	12.81
251.567	14.55
251.829	14.13
252.091	13.1
252.353	10.9
252.615	10.55
252.876	9.86
253.138	7.39
253.4	3.92
253.662	7.02
253.924	10.23
254.185	11.29
254.447	11.27
254.709	11.13
254.971	12.05
255.232	11.76
255.494	9.54
255.756	8.93
256.017	9.22
256.279	8.95
256.541	9.55
256.802	8.03
257.064	8.29
257.326	7.22
257.587	7.51
257.849	8.6
258.11	12.07
258.372	13.43
258.633	13.45
258.895	12.22
259.156	12.97
259.418	11.76
259.679	7.75
259.941	6.47
260.202	9.48
260.464	11.65
260.725	11.69
260.987	10.78
261.248	10.29
261.509	10.91
261.771	9.64
262.032	10.36
262.293	9.99
262.555	11.35
262.816	10.86
263.077	8.78
263.338	8.26
263.6	8.88
263.861	7.64
264.122	6.76
264.383	9.2
264.645	9.45
264.906	10.17
265.167	12.15
265.428	12.3
265.689	11.63
265.95	9.67
266.211	10.85
266.473	9.63
266.734	7.25
266.995	4.67
267.256	5.31
267.517	7.3
267.778	11.03
268.039	12.66
268.3	10.94
268.561	9.21
268.822	11.26
269.083	10.22
269.344	10.33
269.604	8.86
269.865	8.95
270.126	5.43
270.387	5.45
270.648	5.75
270.909	5.9
271.17	4.03
271.43	0.28
271.691	-2.48
271.952	-3.6
272.213	-2.59
272.473	-3.85
272.734	-1.88
272.995	-1.54
273.256	-2.33
273.516	0.05
273.777	-1.02
274.038	0.43
274.298	-2.91
274.559	-4.03
274.82	1.22
275.08	3.66
275.341	4.78
275.601	4.46
275.862	2.18
276.122	3
276.383	3.93
276.643	5.42
276.904	4.05
277.164	5.81
277.425	4.28
277.685	9.89
277.946	11.16
278.206	12.12
278.467	14.62
278.727	14.7
278.987	14.32
279.248	15.09
279.508	17.9
279.768	19.51
280.029	20.97
280.289	19.28
280.549	17
280.81	16
281.07	15.77
281.33	17.58
281.59	17.67
281.851	20.17
282.111	20.47
282.371	20.82
282.631	22.53
282.891	19.44
283.151	18.7
283.412	15.66
283.672	15.81
283.932	14.77
284.192	15.34
284.452	13.68
284.712	11.46
284.972	10.93
285.232	9.65
285.492	13.78
285.752	9.72
286.012	13.01
286.272	13.99
286.532	10.96
286.792	11.09
287.052	12.4
287.312	13.08
287.571	11.21
287.831	11.46
288.091	10.25
288.351	9.51
288.611	13.39
288.871	13.02
289.13	12.82
289.39	8.88
289.65	8.1
289.91	5.43
290.17	6.93
290.429	9.57
290.689	7.51
290.949	5.41
291.208	6.35
291.468	8.93
291.728	9.92
291.987	12.18
292.247	10.57
292.506	10.89
292.766	13.08
293.026	11.82
293.285	13.23
293.545	13.63
293.804	14.23
294.064	11.51
294.323	10.75
294.583	12.01
294.842	12.1
295.102	11.72
295.361	11.58
295.621	13.02
295.88	14.81
296.139	13.28
296.399	15.16
296.658	9.93
296.917	10.08
297.177	7.48
297.436	9.31
297.695	8.77
297.955	8.93
298.214	7.75
298.473	8.35
298.732	9.15
298.992	11.42
299.251	11.01
299.51	8.54
299.769	8.24
300.028	8.91
300.287	8.38
300.547	9.89
300.806	8.71
301.065	11.34
301.324	11.9
301.583	9.4
301.842	6.76
302.101	5.69
302.36	5.08
302.619	4.54
302.878	4.7
303.137	3.09
303.396	3.8
303.655	5.21
303.914	1.97
304.173	3.63
304.432	2.92
304.691	6.99
304.95	4.74
305.208	9.12
305.467	9.15
305.726	9.17
305.985	11.27
306.244	12.83
306.503	11.3
306.761	11.06
307.02	8.76
307.279	8.84
307.537	9.67
307.796	7.14
308.055	5.34
308.314	7.31
308.572	5.5
308.831	7.45
309.09	8.34
309.348	8.95
309.607	8.61
309.865	11.35
310.124	9.98
310.382	11.68
310.641	11.11
310.9	8.94
311.158	10.06
311.417	10.29
311.675	10.86
311.933	11.55
312.192	13.32
312.45	12.84
312.709	12.72
312.967	12.9
313.226	13.31
313.484	12.46
313.742	10.69
314.001	9.65
314.259	8.16
314.517	9.26
314.776	10.29
315.034	13.39
315.292	11.55
315.55	10.16
315.809	9.88
316.067	10.08
316.325	8.27
316.583	10.16
316.841	8.36
317.1	6.44
317.358	2.56
317.616	3.1
317.874	3.24
318.132	3.99
318.39	3.25
318.648	3
318.906	3.99
319.164	3.04
319.422	2.03
319.68	-0.96
319.938	-0.68
320.196	-1.48
320.454	-0.29
320.712	-1.15
320.97	-1.55
321.228	-4.4
321.486	-3.17
321.744	-1.47
322.002	-0.12
322.26	-2.68
322.517	-1.88
322.775	-3.48
323.033	-6.13
323.291	-3.13
323.549	-0.24
323.806	2.09
324.064	2.37
324.322	3.79
324.58	2.22
324.837	3.42
325.095	1.45
325.353	4.14
325.61	5.49
325.868	4.03
326.126	5.47
326.383	3.64
326.641	2.31
326.898	3.68
327.156	4.35
327.413	5.17
327.671	6.88
327.928	8.11
328.186	7.69
328.443	6.91
328.701	9.77
328.958	11.89
329.216	12.23
329.473	11.33
329.731	11.38
329.988	11.63
330.245	14.83
330.503	14.25
330.76	14.54
331.017	16.52
331.275	13.41
331.532	12.15
331.789	9.49
332.047	8.29
332.304	5.45
332.561	6.11
332.818	4.89
333.076	6.85
333.333	8.14
333.59	8
333.847	9.29
334.104	8.45
334.361	9.19
334.618	9.27
334.876	7.74
335.133	8.06
335.39	6.17
335.647	7.75
335.904	5.57
336.161	4.7
336.418	4.49
336.675	0.74
336.932	1.99
337.189	2.71
337.446	2.59
337.703	1.34
337.96	-1.92
338.216	-1.66
338.473	-3.81
338.73	-3.63
338.987	-3.22
339.244	-0.35
339.501	-2.42
339.757	-0.5
340.014	0.87
340.271	1.97
340.528	2.71
340.785	6.72
341.041	7.31
341.298	4.27
341.555	3.08
341.811	3.19
342.068	1
342.325	1.05
342.581	3.75
342.838	3.85
343.094	2.38
343.351	2.72
343.608	-0.03
343.864	2.15
344.121	2.98
344.377	2.95
344.634	3.28
344.89	1.43
345.147	1.42
345.403	0.83
345.66	1.52
345.916	2.4
346.172	0.31
346.429	-0.8
346.685	-1.24
346.942	-1.74
347.198	-4.55
347.454	-2.31
347.711	-3.74
347.967	-6.41
348.223	-5.37
348.48	-5.7
348.736	-3.47
348.992	-5.03
349.248	-2.41
349.504	-1.31
349.761	-1.8
350.017	-0.7
350.273	0.2
350.529	0.35
350.785	0.97
351.041	0.58
351.297	1.61
351.554	0.31
351.81	-1.99
352.066	-2.93
352.322	-2.85
352.578	-1.55
352.834	-1.55
353.09	-1.83
353.346	-2.64
353.602	-4.85
353.858	-3.97
354.114	-4.04
354.369	-1.61
354.625	-0.02
354.881	-1.55
355.137	0.46
355.393	-1.27
355.649	1.12
355.905	1.2
356.16	1.13
356.416	0.32
356.672	-5.98
356.928	-5.31
357.183	-5.98
357.439	-7
357.695	-8.22
357.951	-4.58
358.206	-5.1
358.462	-6.65
358.718	-7.67
358.973	-4.89
359.229	-4.37
359.484	-3.9
359.74	-1.81
359.996	-1.39
360.251	1.28
360.507	-0.63
360.762	-1.78
361.018	-0.38
361.273	-1.31
361.529	0.35
361.784	-0.59
362.04	0.24
362.295	-0.94
362.55	-0.19
362.806	2.09
363.061	2.44
363.316	4.14
363.572	4.19
363.827	5.68
364.082	3.47
364.338	3.68
364.593	4.49
364.848	5.45
365.104	3.86
365.359	6.07
365.614	7.1
365.869	4.98
366.124	4.48
366.38	3.4
366.635	5.1
366.89	4.8
367.145	3.85
367.4	7.36
367.655	8.41
367.91	8.53
368.165	6.71
368.42	3.96
368.675	5.65
368.93	5.49
369.185	4.7
369.44	5.61
369.695	7.95
369.95	7.46
370.205	7.5
370.46	5.56
370.715	5.07
370.97	5.01
371.225	5.49
371.48	5.26
371.734	6.74
371.989	7.23
372.244	7.77
372.499	9.96
372.754	8.78
373.008	7.19
373.263	4.06
373.518	5.54
373.773	3.34
374.027	3.09
374.282	5.87
374.537	5.57
374.791	6.14
375.046	5.71
375.301	4.12
375.555	2.13
375.81	3.75
376.064	4.03
376.319	7.25
376.573	7.11
376.828	4.32
377.082	8.66
377.337	7.62
377.591	3.96
377.846	3.83
378.1	5.21
378.355	6.28
378.609	5.32
378.863	3.61
379.118	3.53
379.372	2.97
379.627	1.43
379.881	0.08
380.135	0.15
380.389	-0.54
380.644	0.45
380.898	1.74
381.152	3.25
381.407	2.97
381.661	5.54
381.915	6.28
382.169	6.96
382.423	6.2
382.677	3.49
382.932	3.95
383.186	4.01
383.44	3.88
383.694	4.76
383.948	2.75
384.202	2.4
384.456	4.02
384.71	5.99
384.964	3.6
385.218	4.36
385.472	5.67
385.726	5.94
385.98	6.97
386.234	6.35
386.488	4.33
386.742	5.67
386.996	4.44
387.249	5.64
387.503	7.99
387.757	9.29
388.011	9.35
388.265	8.02
388.518	8.62
388.772	10.18
389.026	9.77
389.28	7.83
389.533	6.24
389.787	8.38
390.041	5.68
390.295	6.63
390.548	7.02
390.802	9.41
391.055	8.33
391.309	8.09
391.563	6.39
391.816	7.83
392.07	7.6
392.323	8.54
392.577	8.77
392.83	9.7
393.084	13.88
393.337	17.73
393.591	18.4
393.844	17.07
394.098	20.13
394.351	23.69
394.604	24.87
394.858	26.16
395.111	25.54
395.364	22.04
395.618	23.65
395.871	21.74
396.124	20.6
396.378	20.53
396.631	20.07
396.884	18.27
397.137	17.44
397.391	18.56
397.644	15.51
397.897	15.95
398.15	15.67
398.403	17.12
398.657	17.29
398.91	17.18
399.163	18.45
399.416	18.78
399.669	18.08
399.922	17.15
400.175	13.45
400.428	14.52
400.681	15.13
400.934	12.02
401.187	9.73
401.44	9.93
401.693	9.54
401.946	6.4
402.199	1.89
402.452	0.48
402.704	-3.16
402.957	-5.05
403.21	-1.9
403.463	-3.09
403.716	-2
403.969	0.34
404.221	-1.22
404.474	1.28
404.727	5
404.98	8.31
405.232	9.05
405.485	11.94
405.738	14.4
405.99	15.49
406.243	16.46
406.496	17.37
406.748	18.21
407.001	16.37
407.253	16.55
407.506	16.18
407.759	17.69
408.011	16.49
408.264	15.4
408.516	15.24
408.769	12.27
409.021	12.97
409.274	13
409.526	14.44
409.778	14.02
410.031	17.65
410.283	17.11
410.536	22.45
410.788	22.19
411.04	21.55
411.293	22.98
411.545	23.95
411.797	23.2
412.049	23.38
412.302	22.99
412.554	22.56
412.806	21.05
413.058	19.02
413.311	18.53
413.563	16.16
413.815	15.47
414.067	13.85
414.319	11.69
414.571	12.34
414.823	11.2
415.075	10.64
415.328	11.76
415.58	13.63
415.832	14.8
416.084	16.12
416.336	15.35
416.588	18.55
416.84	17.23
417.091	19.35
417.343	14.79
417.595	16.4
417.847	16.98
418.099	18.69
418.351	18.35
418.603	22.39
418.855	21.95
419.106	22.11
419.358	22.92
419.61	23.04
419.862	24.32
420.114	22.02
420.365	22.02
420.617	22.94
420.869	22.2
421.12	22.03
421.372	24.01
421.624	23.94
421.875	24.33
422.127	23.21
422.379	23.15
422.63	27.51
422.882	26.07
423.133	26.27
423.385	27.21
423.636	28.23
423.888	30
424.139	32.2
424.391	32.09
424.642	31.95
424.894	30.65
425.145	33.13
425.396	31.76
425.648	34.98
425.899	33.6
426.151	32.25
426.402	30.93
426.653	32.89
426.905	34.93
427.156	32.74
427.407	34.2
427.658	33.71
427.91	34.46
428.161	34.95
428.412	37.19
428.663	40.8
428.914	41.91
429.166	42.98
429.417	44
429.668	44.23
429.919	42.6
430.17	42.51
430.421	42.21
430.672	47.29
430.923	48.55
431.174	48.21
431.425	50.58
431.676	51.67
431.927	50.6
432.178	52.78
432.429	54.32
432.68	55.46
432.931	59.74
433.182	63.11
433.433	60.99
433.683	64.76
433.934	67
434.185	67.39
434.436	66.34
434.687	67.71
434.937	71.95
435.188	72.79
435.439	74.34
435.69	76.15
435.94	76.37
436.191	78.26
436.442	78.73
436.692	80.49
436.943	81.12
437.194	81.94
437.444	86.61
437.695	92.45
437.945	95.65
438.196	97.01
438.447	97.59
438.697	99.62
438.948	101.38
439.198	101.22
439.449	98.78
439.699	101.36
439.949	102.95
440.2	104.34
440.45	108.34
440.701	109.07
440.951	111.33
441.201	115.53
441.452	116.69
441.702	119.22
441.952	123.08
442.203	127.81
442.453	129.13
442.703	131.25
442.953	133.86
443.204	138.84
443.454	140.89
443.704	144.54
443.954	145.16
444.204	148.55
444.455	151.77
444.705	154.75
444.955	158.98
445.205	160.37
445.455	162.55
445.705	166.25
445.955	170.29
446.205	172.42
446.455	176.51
446.705	180.51
446.955	184.91
447.205	189.66
447.455	194.55
447.705	196.36
447.955	199.56
448.205	202.62
448.454	206.57
448.704	210.11
448.954	212.6
449.204	215.18
449.454	218.65
449.704	220.3
449.953	221.91
450.203	226.01
450.453	228.32
450.703	232.99
450.952	232.71
451.202	237.05
451.452	239.74
451.701	243.76
451.951	249.39
452.201	249.88
452.45	251.61
452.7	253.07
452.949	254.56
453.199	256.43
453.448	259.54
453.698	260.36
453.947	260.75
454.197	260.82
454.446	258.74
454.696	261.53
454.945	261.74
455.195	260.38
455.444	260.02
455.693	262.83
455.943	260.45
456.192	259.93
456.442	259.31
456.691	257.87
456.94	257.5
457.189	254.42
457.439	253.41
457.688	253.24
457.937	250.8
458.186	248.84
458.436	245.84
458.685	244.66
458.934	242.24
459.183	238.24
459.432	237.35
459.681	233.45
459.93	231.48
460.179	228.36
460.429	224.53
460.678	225.35
460.927	223.5
461.176	218.88
461.425	215.29
461.674	215.34
461.923	212.74
462.172	211.4
462.42	206.28
462.669	205.8
462.918	203.59
463.167	201.57
463.416	197.21
463.665	195.2
463.914	191.92
464.162	187.57
464.411	185.02
464.66	183.25
464.909	180.08
465.158	178.87
465.406	175.66
465.655	174.73
465.904	174.08
466.152	172.97
466.401	172.94
466.65	171.12
466.898	169.34
467.147	164.49
467.395	162.86
467.644	162.36
467.893	160.14
468.141	158.88
468.39	154.4
468.638	151.35
468.887	148.32
469.135	146.36
469.384	143.5
469.632	142.13
469.88	140.92
470.129	142.47
470.377	137.45
470.626	137.95
470.874	137.91
471.122	137.14
471.371	135.13
471.619	133.3
471.867	134.62
472.115	133.62
472.364	130.31
472.612	132.01
472.86	129.41
473.108	129
473.356	126.95
473.605	123.92
473.853	120.84
474.101	118.47
474.349	116.46
474.597	117.22
474.845	114.55
475.093	109.74
475.341	106.73
475.589	105.58
475.837	105.2
476.085	103.72
476.333	102
476.581	101.82
476.829	100.94
477.077	102.87
477.325	102.14
477.573	101.43
477.821	97.55
478.069	98.74
478.317	96.4
478.564	98.39
478.812	95.23
479.06	93.3
479.308	92.13
479.555	91.48
479.803	88.72
480.051	89.97
480.299	89.21
480.546	89.41
480.794	87
481.042	87.95
481.289	87.79
481.537	87.78
481.784	85.7
482.032	87.31
482.28	86.76
482.527	85.71
482.775	86.67
483.022	88
483.27	89.45
483.517	91.38
483.765	91.52
484.012	91.31
484.259	90.99
484.507	93.28
484.754	92.59
485.002	92.08
485.249	90.5
485.496	93.85
485.744	93.1
485.991	92.93
486.238	89.83
486.486	93.03
486.733	93.63
486.98	95.32
487.227	93.08
487.474	95.86
487.722	97.58
487.969	95.21
488.216	95.28
488.463	95.34
488.71	94.4
488.957	93.8
489.204	93.79
489.451	95.65
489.699	94.61
489.946	91.68
490.193	93.2
490.44	94.34
490.687	94.85
490.934	93.34
491.18	90.27
491.427	90.74
491.674	92.6
491.921	92.73
492.168	91.15
492.415	88.93
492.662	89.55
492.909	91.75
493.155	89.85
493.402	88.25
493.649	86.68
493.896	87.57
494.142	84.13
494.389	83.33
494.636	82.4
494.883	81.23
495.129	78.88
495.376	76.73
495.623	77.95
495.869	79.25
496.116	80.69
496.362	80.68
496.609	84.18
496.855	89.12
497.102	87.96
497.348	87.46
497.595	89.84
497.841	91.83
498.088	89.76
498.334	89.71
498.581	89.64
498.827	90.26
499.074	91.94
499.32	92.34
499.566	94.48
499.813	94.86
500.059	93.83
500.305	93.22
500.552	93.2
500.798	92.52
501.044	95.92
501.29	96.29
501.537	93.89
501.783	96.35
502.029	100.52
502.275	98.18
502.521	97.63
502.767	99.52
503.013	102.66
503.26	100.74
503.506	97.47
503.752	98.04
503.998	95.96
504.244	94.48
504.49	90.55
504.736	91.65
504.982	91.07
505.228	94.14
505.474	94.18
505.72	95.17
505.966	92.65
506.211	94.45
506.457	94.71
506.703	92.27
506.949	90.35
507.195	88.52
507.441	84.9
507.686	87.43
507.932	88.17
508.178	87.96
508.424	86.22
508.669	84.67
508.915	83.92
509.161	86.99
509.406	86.84
509.652	84.19
509.898	87.48
510.143	88.51
510.389	87.61
510.634	83.63
510.88	86.67
511.125	89.09
511.371	89.8
511.616	90.06
511.862	88.23
512.107	85.65
512.353	87.31
512.598	87.88
512.844	83.22
513.089	81.87
513.335	82.95
513.58	83.61
513.825	82.29
514.071	81.69
514.316	80.71
514.561	81.44
514.806	80.38
515.052	83.91
515.297	81.78
515.542	81.42
515.787	82.98
516.033	84.21
516.278	83.76
516.523	84.96
516.768	82.87
517.013	80.4
517.258	79.72
517.503	78.83
517.748	78.56
517.993	78.06
518.238	76.84
518.483	74.82
518.728	71.8
518.973	68.89
519.218	69.55
519.463	69.28
519.708	68.44
519.953	66.54
520.198	66.26
520.443	68.44
520.688	70.6
520.933	69.4
521.177	68.7
521.422	67.83
521.667	68.89
521.912	68.67
522.157	66.09
522.401	68.31
522.646	67.65
522.891	68.22
523.135	68.85
523.38	68.06
523.625	67.21
523.869	68.63
524.114	67.83
524.358	66.08
524.603	66.03
524.848	64.44
525.092	63.81
525.337	64.97
525.581	64.89
525.826	67
526.07	67.99
526.315	70.44
526.559	70.21
526.803	68.35
527.048	71.79
527.292	71.95
527.537	71.1
527.781	70.51
528.025	67.5
528.269	66.76
528.514	67.07
528.758	65.92
529.002	65.93
529.247	68.6
529.491	67.62
529.735	71.73
529.979	71.3
530.223	71.06
530.467	68.79
530.712	65.56
530.956	64.52
531.2	65.26
531.444	63.1
531.688	64.75
531.932	64.98
532.176	66.48
532.42	68.1
532.664	68.41
532.908	66.9
533.152	65.57
533.396	64.98
533.64	64.02
533.884	62.95
534.128	61.78
534.371	63.15
534.615	63.58
534.859	64.38
535.103	65.32
535.347	64.84
535.59	67.03
535.834	64.58
536.078	65.31
536.322	65.92
536.565	68.52
536.809	66.52
537.053	68.4
537.296	65.7
537.54	65.07
537.784	65.08
538.027	66.9
538.271	66.36
538.514	64.36
538.758	64.78
539.001	62.99
539.245	61.63
539.488	62.35
539.732	62.74
539.975	63.08
540.219	64.7
540.462	65.38
540.706	67.53
540.949	66.6
541.192	66.02
541.436	69.57
541.679	74.9
541.922	75.06
542.166	70.41
542.409	69.62
542.652	68.4
542.895	70.38
543.139	70.77
543.382	74.22
543.625	73.77
543.868	74.99
544.111	73.18
544.354	71.62
544.598	70.25
544.841	70.38
545.084	69.61
545.327	68.5
545.57	68.24
545.813	70.21
546.056	70.48
546.299	70.42
546.542	72.38
546.785	74.66
547.028	74.95
547.271	74.35
547.514	73.66
547.756	70.68
547.999	70.66
548.242	70.57
548.485	69.24
548.728	71.11
548.971	66.76
549.213	65.86
549.456	65.42
549.699	66.48
549.942	67.08
550.184	66.37
550.427	65.08
550.67	65.07
550.912	61.09
551.155	62.06
551.398	60.52
551.64	59.3
551.883	59.4
552.125	58.02
552.368	58.84
552.61	56.48
552.853	58.89
553.095	57.92
553.338	57.59
553.58	57.67
553.823	55.59
554.065	57.27
554.308	54.8
554.55	53.91
554.792	52.35
555.035	52.86
555.277	51.41
555.519	51.37
555.762	48.61
556.004	49.33
556.246	44.09
556.488	45.38
556.731	42.63
556.973	43.45
557.215	42.83
557.457	43.84
557.699	47.42
557.941	45.53
558.183	44.68
558.426	47.58
558.668	44.06
558.91	44.4
559.152	45.96
559.394	45.19
559.636	47.91
559.878	48.34
560.12	48.82
560.362	49.03
560.604	49.59
560.845	49.37
561.087	49.24
561.329	51.23
561.571	48.6
561.813	48.21
562.055	46.01
562.297	45.84
562.538	45.98
562.78	49.52
563.022	47.62
563.264	49.55
563.505	48.74
563.747	51.12
563.989	49.51
564.23	49.57
564.472	48.21
564.714	49.24
564.955	48.47
565.197	44.74
565.438	46.74
565.68	48.91
565.921	46.24
566.163	47.95
566.404	47.1
566.646	48.17
566.887	50.73
567.129	50.45
567.37	48.2
567.612	49.58
567.853	47.65
568.094	48.42
568.336	48.9
568.577	50.45
568.818	50.02
569.06	48.96
569.301	46.63
569.542	48.44
569.783	49.98
570.025	48.77
570.266	48.57
570.507	49.66
570.748	50.04
570.989	51.97
571.23	53.94
571.472	52.92
571.713	52.09
571.954	52.14
572.195	51.07
572.436	53.2
572.677	54.8
572.918	55.19
573.159	52.36
573.4	51.99
573.641	50.42
573.882	50.92
574.123	48
574.364	43.48
574.604	43.74
574.845	43.11
575.086	42.57
575.327	42.74
575.568	41.28
575.809	39.4
576.049	36.31
576.29	34.96
576.531	39.04
576.771	42.79
577.012	44.18
577.253	44.52
577.494	43.07
577.734	42.59
577.975	42.87
578.215	42.29
578.456	40.87
578.697	40.21
578.937	42.7
579.178	42.27
579.418	41.08
579.659	41.13
579.899	38.09
580.14	36.61
580.38	36.29
580.62	35.95
580.861	38.13
581.101	38.29
581.342	37.45
581.582	34.33
581.822	36.3
582.063	35.63
582.303	36.56
582.543	36.85
582.783	37.26
583.024	39.18
583.264	41.8
583.504	41.51
583.744	41.8
583.984	39.79
584.224	39.74
584.465	37.77
584.705	37.64
584.945	38.37
585.185	37.02
585.425	38.12
585.665	37.84
585.905	36.31
586.145	37.32
586.385	35.45
586.625	35.9
586.865	35.84
587.105	33.99
587.345	34.82
587.585	35.72
587.824	35.22
588.064	36.46
588.304	34.58
588.544	34.93
588.784	34.62
589.024	37.82
589.263	37.08
589.503	36.72
589.743	38.81
589.982	37.86
590.222	38.35
590.462	35.78
590.701	34.65
590.941	37.28
591.181	37.71
591.42	36.13
591.66	38.23
591.899	40.35
592.139	40.19
592.378	41.78
592.618	41.16
592.857	40.25
593.097	40.43
593.336	42.51
593.576	40.31
593.815	41
594.055	41.73
594.294	41.83
594.533	43.29
594.773	43.26
595.012	44.46
595.251	43.69
595.491	45.64
595.73	47.61
595.969	48.72
596.208	49.44
596.447	52.13
596.687	52.17
596.926	51.62
597.165	48.17
597.404	49
597.643	47.61
597.882	45.71
598.121	45.86
598.36	44.9
598.599	45.7
598.838	45.67
599.077	41.33
599.316	42.31
599.555	40.91
599.794	41.12
600.033	43.8
600.272	44.92
600.511	44.03
600.75	44.68
600.989	45.79
601.228	45.9
601.466	45.17
601.705	47.22
601.944	48.89
602.183	50.64
602.422	48.56
602.66	48.74
602.899	47.72
603.138	47.8
603.376	47.84
603.615	48.38
603.854	46.9
604.092	46.56
604.331	48.14
604.569	50.15
604.808	50.58
605.047	53.08
605.285	54.9
605.524	54.22
605.762	53.39
606	54.58
606.239	56.74
606.477	56.96
606.716	53.33
606.954	53.83
607.193	51.19
607.431	47.09
607.669	46.08
607.908	45.25
608.146	46.1
608.384	45.7
608.622	44.9
608.861	45.51
609.099	44.08
609.337	41.74
609.575	39.61
609.813	41.08
610.052	40.63
610.29	37.25
610.528	35.55
610.766	34.06
611.004	34.62
611.242	34.4
611.48	35.49
611.718	33.37
611.956	33.19
612.194	31.99
612.432	29.92
612.67	28.8
612.908	30.79
613.146	30.22
613.384	27.81
613.621	25.1
613.859	27.33
614.097	27.34
614.335	27.69
614.573	28.75
614.811	30.74
615.048	29.7
615.286	30.93
615.524	29.77
615.761	28.52
615.999	28.46
616.237	26.75
616.474	28.35
616.712	30.56
616.95	31.49
617.187	31.4
617.425	31.45
617.662	32.51
617.9	32.16
618.137	30.78
618.375	29.61
618.612	27.08
618.85	28.46
619.087	30.96
619.325	30.3
619.562	28.61
619.799	26.86
620.037	26.69
620.274	25.32
620.511	26.96
620.749	25.96
620.986	26.27
621.223	22.66
621.461	23.09
621.698	23.84
621.935	23.81
622.172	21.67
622.409	23.43
622.647	23.61
622.884	22.83
623.121	24.72
623.358	23.42
623.595	24.42
623.832	23.57
624.069	21.46
624.306	20.15
624.543	20.36
624.78	21.97
625.017	22.22
625.254	23.7
625.491	26.1
625.728	27.91
625.965	29.16
626.202	28.85
626.438	27.29
626.675	26.67
626.912	29.52
627.149	31.49
627.386	31.88
627.622	30.41
627.859	30.2
628.096	31.29
628.333	31.88
628.569	33.39
628.806	35.21
629.043	34.71
629.279	36.29
629.516	39.02
629.752	36.59
629.989	35.2
630.225	33.25
630.462	32.52
630.699	32.48
630.935	32.53
631.171	31.21
631.408	30.92
631.644	30.04
631.881	27.31
632.117	25.31
632.354	25.63
632.59	23.57
632.826	23.5
633.063	22.58
633.299	23.57
633.535	21.02
633.771	21.61
634.008	23.89
634.244	23.1
634.48	21.79
634.716	24
634.953	23.76
635.189	23.04
635.425	23.33
635.661	25.71
635.897	24.33
636.133	22.31
636.369	21.14
636.605	17.33
636.841	16.36
637.077	17
637.313	17.27
637.549	17.81
637.785	16.89
638.021	18.69
638.257	17.91
638.493	20.48
638.729	19.7
638.965	22.54
639.2	24.64
639.436	23.67
639.672	22.92
639.908	22.65
640.144	25.23
640.379	26.91
640.615	25.47
640.851	27.79
641.086	27.97
641.322	25.55
641.558	25.39
641.793	25.46
642.029	22.45
642.264	21.95
642.5	21.2
642.736	19.26
642.971	19.29
643.207	18.44
643.442	16.76
643.678	17.03
643.913	19.09
644.148	18.36
644.384	21.27
644.619	21.87
644.855	23.69
645.09	23.81
645.325	24.03
645.561	23.9
645.796	21.31
646.031	24.62
646.266	22.81
646.502	22.37
646.737	24.94
646.972	25.44
647.207	24.82
647.442	21.09
647.678	19.01
647.913	21.75
648.148	21.98
648.383	20.14
648.618	21.65
648.853	22.99
649.088	25.45
649.323	28.56
649.558	29.25
649.793	30.96
650.028	31.51
650.263	29.33
650.498	30.95
650.733	32.22
650.968	31.58
651.202	33.04
651.437	32.22
651.672	28.58
651.907	27.13
652.142	27.92
652.376	29.61
652.611	30.48
652.846	31.45
653.081	30.98
653.315	29.18
653.55	29.24
653.785	28.93
654.019	29.38
654.254	28.89
654.488	30.29
654.723	28.64
654.958	26.49
655.192	24.04
655.427	20.6
655.661	23.75
655.896	25.47
656.13	26.17
656.364	23.68
656.599	22.67
656.833	24.9
657.068	26.5
657.302	27.36
657.536	25.67
657.771	26.93
658.005	27.22
658.239	27.87
658.474	24.36
658.708	25.44
658.942	25.97
659.176	26.21
659.41	23.25
659.645	20.68
659.879	20.07
660.113	18.08
660.347	17.97
660.581	16.66
660.815	16.45
661.049	15.46
661.283	13.13
661.517	11.45
661.751	9.95
661.985	9.55
662.219	11.62
662.453	10.46
662.687	13.04
662.921	9.75
663.155	8.83
663.389	3.78
663.622	2.8
663.856	3.46
664.09	1.2
664.324	0.92
664.558	-0.28
664.791	-0.4
665.025	-0.04
665.259	0.87
665.492	0.39
665.726	4.19
665.96	4.01
666.193	2.97
666.427	3.58
666.661	2.11
666.894	1.82
667.128	0.02
667.361	1.26
667.595	1.05
667.828	0.79
668.062	0.06
668.295	-0.77
668.529	-1.11
668.762	-0.89
668.995	-1.36
669.229	1.83
669.462	2.13
669.695	3.47
669.929	3.14
670.162	1.98
670.395	-0.25
670.629	1.64
670.862	2.17
671.095	-2.5
671.328	-2.53
671.561	-5.32
671.795	-3.14
672.028	-2.41
672.261	-2.65
672.494	-1.44
672.727	-2.94
672.96	-2.33
673.193	-3.82
673.426	-1.19
673.659	-1.06
673.892	0.05
674.125	0.14
674.358	1.13
674.591	1.1
674.824	1.14
675.057	1.39
675.29	0.78
675.523	2.28
675.755	1.36
675.988	2.28
676.221	5.53
676.454	4.67
676.687	5.09
676.919	4.97
677.152	3.7
677.385	4.26
677.617	6.64
677.85	7.3
678.083	6.93
678.315	10.6
678.548	10.06
678.78	8.69
679.013	8.49
679.246	8.16
679.478	9.26
679.711	7.82
679.943	9.92
680.175	7.52
680.408	11.2
680.64	8.65
680.873	9.52
681.105	10.68
681.338	14.05
681.57	13.18
681.802	14.25
682.034	14.55
682.267	17.31
682.499	18.62
682.731	17.65
682.964	19.01
683.196	18.22
683.428	16.59
683.66	15.68
683.892	17.04
684.124	18.05
684.356	21.82
684.589	22.99
684.821	19.65
685.053	20.07
685.285	21.96
685.517	22.55
685.749	23.21
685.981	25.59
686.213	25.32
686.445	26.39
686.676	24.17
686.908	24.18
687.14	23.56
687.372	23.73
687.604	21.94
687.836	23.92
688.068	22.77
688.299	23.13
688.531	20.12
688.763	23.9
688.995	21.63
689.226	24.7
689.458	21.91
689.69	21.84
689.921	21.27
690.153	20.25
690.384	22.37
690.616	21.11
690.848	21.08
691.079	19.09
691.311	17.26
691.542	14.27
691.774	12.61
692.005	15.97
692.237	17.67
692.468	15.35
692.699	15.07
692.931	14.42
693.162	12.34
693.393	10.96
693.625	9.37
693.856	9.32
694.087	9.12
694.319	9.52
694.55	9.23
694.781	7.58
695.012	6.78
695.243	6.02
695.475	5.28
695.706	6.68
695.937	6.89
696.168	7.51
696.399	5.47
696.63	5.43
696.861	4.09
697.092	8.03
697.323	10.67
697.554	9.67
697.785	10.47
698.016	11.25
698.247	9.93
698.478	11.24
698.709	12.18
698.94	13.93
699.171	12.48
699.401	10.04
699.632	11.38
699.863	8.35
700.094	8.96
700.325	11.52
700.555	13.59
700.786	16.69
701.017	17.71
701.247	16.4
701.478	16.24
701.709	16.67
701.939	16.87
702.17	18.52
702.401	19.9
702.631	19.96
702.862	17.98
703.092	14.02
703.323	15.06
703.553	16.07
703.784	17.04
704.014	18.05
704.244	13.35
704.475	12.07
704.705	12.37
704.936	12.53
705.166	12.1
705.396	12.67
705.627	13.14
705.857	13.5
706.087	14.45
706.317	13.85
706.548	12.4
706.778	11.86
707.008	13.56
707.238	14.82
707.468	13.26
707.698	10.08
707.928	8.55
708.158	7.92
708.389	8.41
708.619	7.73
708.849	7.12
709.079	8.33
709.309	5.73
709.539	3.9
709.768	4.62
709.998	6.21
710.228	6.65
710.458	5.47
710.688	3.33
710.918	3.24
711.148	2.75
711.378	4.06
711.607	2.73
711.837	3.29
712.067	4.46
712.297	4.19
712.526	5.34
712.756	4.88
712.986	2.22
713.215	-0.13
713.445	1.16
713.674	2.21
713.904	2.09
714.134	5.42
714.363	4.4
714.593	3.33
714.822	3.37
715.052	2.89
715.281	2.77
715.511	1.89
715.74	2.46
715.969	-0.13
716.199	-0.41
716.428	1.44
716.657	1.66
716.887	3.67
717.116	2.64
717.345	3.68
717.575	3.63
717.804	3.86
718.033	2.08
718.262	1.77
718.492	1.55
718.721	2.61
718.95	2.05
719.179	-0.3
719.408	0.75
719.637	-2.36
719.866	-3.11
720.095	-1.83
720.324	-1.57
720.553	-5.26
720.782	-7.1
721.011	-7.12
721.24	-10.62
721.469	-11.16
721.698	-10.33
721.927	-10.34
722.156	-11.06
722.385	-11.86
722.613	-9.29
722.842	-9.01
723.071	-4.24
723.3	-3.93
723.529	-5.25
723.757	-4.36
723.986	-7.73
724.215	-8.21
724.443	-7.57
724.672	-5.25
724.901	-5.11
725.129	-3.26
725.358	-0.66
725.586	-2.62
725.815	-3.12
726.043	-4.23
726.272	-4.68
726.5	-4.86
726.729	-4.28
726.957	-6.78
727.186	-7.94
727.414	-7.79
727.642	-4.85
727.871	-3.48
728.099	-3.61
728.327	-3.37
728.556	-0.81
728.784	-0.56
729.012	-0.66
729.241	0.95
729.469	0.79
729.697	-1.32
729.925	-1.97
730.153	-3.68
730.381	-4.73
730.61	-5.27
730.838	-8.05
731.066	-7.17
731.294	-6.95
731.522	-9.3
731.75	-12.33
731.978	-12.8
732.206	-13.58
732.434	-15.58
732.662	-13.46
732.89	-14.71
733.118	-15.09
733.346	-15.96
733.573	-15.84
733.801	-15.35
734.029	-9.77
734.257	-10
734.485	-7.33
734.712	-7.95
734.94	-8.85
735.168	-6.82
735.396	-8.07
735.623	-11.72
735.851	-10.74
736.078	-10.5
736.306	-10.7
736.534	-10.43
736.761	-10.3
736.989	-10.67
737.216	-12.11
737.444	-11.82
737.671	-10.92
737.899	-6
738.126	-5.92
738.354	-6.48
738.581	-5.41
738.809	-4.83
739.036	-7
739.263	-7.06
739.491	-7.61
739.718	-7.12
739.945	-2.35
740.173	-2.32
740.4	-0.52
740.627	-2.42
740.854	-2.06
741.081	-5.01
741.309	-5.48
741.536	-8.61
741.763	-8.24
741.99	-6.64
742.217	-5.7
742.444	-4.26
742.671	-3.23
742.898	-4.16
743.125	-4.71
743.352	-5.5
743.579	-4.48
743.806	-4.68
744.033	-2.94
744.26	-1.52
744.487	-2.81
744.714	-1.95
744.941	-2.71
745.167	-0.75
745.394	-0.53
745.621	-0.56
745.848	0.33
746.075	3
746.301	5.79
746.528	7.89
746.755	6.3
746.981	4.58
747.208	7.3
747.435	7.93
747.661	7.77
747.888	8.87
748.114	7.14
748.341	10.57
748.567	12.08
748.794	9.93
749.02	9.23
749.247	7.33
749.473	6.93
749.7	8.35
749.926	8.49
750.152	10.79
750.379	10.76
750.605	9.62
750.831	10.2
751.058	8.78
751.284	7.13
751.51	9.26
751.737	9.35
751.963	8.14
752.189	7.88
752.415	7.83
752.641	6.72
752.867	6.33
753.094	4.91
753.32	2.89
753.546	2.44
753.772	4.33
753.998	3.6
754.224	3.26
754.45	2.67
754.676	3.44
754.902	2.42
755.128	2.99
755.354	2.23
755.579	4.26
755.805	5.74
756.031	4.56
756.257	2.99
756.483	2.5
756.709	0.3
756.934	0.56
757.16	-0.41
757.386	0.11
757.612	-1.84
757.837	-4.08
758.063	-1.72
758.289	1.08
758.514	-0.53
758.74	-3.18
758.965	-6.05
759.191	-4.95
759.416	-3.77
759.642	-1.61
759.868	-1.54
760.093	1.36
760.318	0.74
760.544	-0.32
760.769	-1.84
760.995	-2.81
761.22	-3.62
761.445	-2.42
761.671	0.17
761.896	2.23
762.121	2.66
762.347	1.34
762.572	-2.13
762.797	-1.98
763.022	-1.7
763.248	2.51
763.473	3.1
763.698	2.39
763.923	2.2
764.148	1.08
764.373	-0.81
764.598	1.53
764.823	3.69
765.048	0.87
765.273	-1.78
765.498	-2.19
765.723	-0.49
765.948	0.28
766.173	-2.92
766.398	-3.22
766.623	-5.92
766.848	-6.96
767.073	-9.45
767.298	-7.73
767.522	-6.37
767.747	-4.89
767.972	-4.89
768.197	-4.68
768.421	-6.26
768.646	-10.19
768.871	-12.99
769.095	-11.87
769.32	-11.53
769.545	-11.85
769.769	-10.83
769.994	-9.47
770.218	-13.71
770.443	-13.15
770.667	-11.7
770.892	-10.84
771.116	-11.4
771.341	-8.96
771.565	-9.01
771.79	-9.18
772.014	-9.32
772.238	-10.2
772.463	-8.69
772.687	-9.24
772.911	-10.1
773.136	-10.08
773.36	-9.7
773.584	-7.43
773.808	-8.55
774.033	-8.28
774.257	-10.41
774.481	-12.18
774.705	-13.4
774.929	-13.76
775.153	-14.7
775.377	-13.2
775.602	-12.46
775.826	-10.59
776.05	-9.39
776.274	-9.64
776.498	-7.99
776.722	-8.16
776.945	-6.83
777.169	-6.34
777.393	-7.32
777.617	-8.61
777.841	-9.9
778.065	-8.47
778.289	-8.69
778.512	-10.07
778.736	-8.7
778.96	-9.36
779.184	-7.91
779.407	-8.36
779.631	-7.96
779.855	-7.19
780.078	-7.38
780.302	-8.38
780.526	-11.26
780.749	-10.35
780.973	-8.77
781.196	-8.38
781.42	-10.57
781.643	-9.67
781.867	-7.24
782.09	-8.64
782.314	-9.5
782.537	-10.19
782.76	-11.12
782.984	-10.66
783.207	-10.78
783.431	-11.78
783.654	-14.57
783.877	-17.16
784.1	-17
784.324	-17.81
784.547	-17.68
784.77	-19.24
784.993	-19.63
785.216	-21.71
785.44	-20.58
785.663	-23.02
785.886	-20.46
786.109	-19.51
786.332	-18.75
786.555	-19.1
786.778	-16.44
787.001	-15.12
787.224	-13.68
787.447	-12.82
787.67	-11.55
787.893	-12.38
788.116	-12.54
788.339	-9.87
788.561	-11.65
788.784	-14.71
789.007	-14.48
789.23	-16.16
789.453	-15.64
789.675	-17.4
789.898	-19.79
790.121	-21.38
790.344	-21.25
790.566	-19.26
790.789	-19.65
791.012	-19.02
791.234	-15.75
791.457	-12.47
791.679	-11.12
791.902	-11.66
792.124	-10.92
792.347	-13.1
792.569	-12
792.792	-14.24
793.014	-12.55
793.237	-12.61
793.459	-12.38
793.681	-13.76
793.904	-14.87
794.126	-16.79
794.348	-16.29
794.571	-15.16
794.793	-16.08
795.015	-13.89
795.237	-15.77
795.46	-14.65
795.682	-13.7
795.904	-11.28
796.126	-12.35
796.348	-12.55
796.57	-8.89
796.792	-8.65
797.014	-4.99
797.237	-4.17
797.459	-1.85
797.681	-0.86
797.903	-2.57
798.124	-2.6
798.346	6.21
798.568	7.98
798.79	11.89
799.012	12.15
799.234	15.05
799.456	15.84
799.678	19.09
799.899	16.72
800.121	14.55
800.343	13.96
800.565	14.77
800.786	15.72
801.008	18.14
801.23	17.54
801.451	18
801.673	16.6
801.895	16.36
802.116	18.75
802.338	19.07
802.559	18.91
802.781	16.52
803.002	19.94
803.224	21.28
803.445	19.42
803.667	21.33
803.888	19.34
804.109	19.99
804.331	17.57
804.552	18.02
804.773	19.67
804.995	16.32
805.216	5.4
805.437	2.68
805.658	-0.26
805.88	-0.67
806.101	-1.35
806.322	-1.67
806.543	-4.66
806.764	-6.11
806.985	-3.48
807.207	-2.53
807.428	-3.9
807.649	-7.16
807.87	-8.99
808.091	-7.9
808.312	-7.81
808.533	-2.5
808.754	-2.53
808.975	-4.38
809.195	-1.11
809.416	-0.47
809.637	-0.85
809.858	-3.18
810.079	-5.18
810.3	-3.31
810.52	-5.44
810.741	-7.35
810.962	-8.64
811.183	-8.02
811.403	-6.84
811.624	-7.27
811.845	-5.16
812.065	-4.12
812.286	-3.86
812.506	-4.24
812.727	-4.17
812.948	-4.26
813.168	-3.43
813.389	-3.17
813.609	-2.22
813.83	-3.18
814.05	-4.06
814.27	-2.28
814.491	1.88
814.711	0.85
814.931	-2.08
815.152	-2.78
815.372	-5.18
815.592	-5.23
815.813	-5.71
816.033	-8.21
816.253	-7.77
816.473	-7.32
816.694	-5.74
816.914	-4.22
817.134	-5.63
817.354	-6.41
817.574	-5.4
817.794	-5.95
818.014	-8.19
818.234	-9.4
818.454	-9.92
818.674	-11.97
818.894	-14.63
819.114	-11.9
819.334	-12.16
819.554	-10.16
819.774	-7.1
819.994	-8.82
820.214	-9.7
820.433	-8.71
820.653	-10.26
820.873	-8.98
821.093	-8.16
821.312	-9.8
821.532	-8.04
821.752	-5.7
821.972	-6.37
822.191	-4.64
822.411	-5.7
822.63	-5.2
822.85	-5.4
823.07	-7.9
823.289	-7.66
823.509	-9.68
823.728	-8.21
823.948	-9.79
824.167	-11.69
824.387	-12.43
824.606	-11.43
824.825	-11.19
825.045	-10.8
825.264	-11.86
825.483	-10.31
825.703	-8.45
825.922	-10.58
826.141	-10.92
826.361	-12.68
826.58	-17.07
826.799	-18.09
827.018	-17.25
827.237	-18.12
827.456	-16.03
827.676	-15.4
827.895	-15.91
828.114	-14.45
828.333	-14.09
828.552	-13.17
828.771	-12.92
828.99	-16.01
829.209	-16.48
829.428	-14.33
829.647	-14.28
829.866	-12.17
830.084	-11.72
830.303	-10.7
830.522	-11.79
830.741	-10.33
830.96	-7.44
831.179	-6.79
831.397	-7.56
831.616	-7.22
831.835	-8.55
832.053	-7.07
832.272	-6.92
832.491	-5.5
832.709	-6.47
832.928	-4.82
833.147	-4.62
833.365	-2.9
833.584	-0.08
833.802	1.92
834.021	1.1
834.239	2.37
834.458	0.22
834.676	-3.88
834.894	-4.97
835.113	-5.52
835.331	-7.6
835.55	-8.75
835.768	-7.87
835.986	-6.02
836.204	-7.89
836.423	-7.56
836.641	-9.55
836.859	-11.08
837.077	-10.84
837.296	-10.41
837.514	-11.46
837.732	-12.65
837.95	-13.3
838.168	-11.9
838.386	-11.82
838.604	-10.5
838.822	-10.94
839.04	-11.88
839.258	-11.8
839.476	-9.66
839.694	-10.11
839.912	-10.31
840.13	-10.99
840.348	-8.98
840.566	-11.65
840.783	-8.64
841.001	-10.34
841.219	-8.78
841.437	-6.58
841.655	-6.95
841.872	-7.53
842.09	-7.42
842.308	-6.77
842.525	-6.54
842.743	-6.45
842.961	-7.05
843.178	-9.65
843.396	-6.15
843.613	-5.89
843.831	-5.24
844.048	-5.69
844.266	-6.21
844.483	-6.45
844.701	-6.99
844.918	-7
845.136	-8.76
845.353	-8.9
845.57	-7.12
845.788	-3.73
846.005	-6.97
846.222	-8.12
846.439	-6.7
846.657	-5.32
846.874	-4.52
847.091	-7.29
847.308	-5.95
847.526	-7.38
847.743	-7.16
847.96	-9.2
848.177	-8.8
848.394	-8.33
848.611	-8.91
848.828	-7.91
849.045	-8.33
849.262	-9.54
849.479	-9.72
849.696	-10.05
849.913	-10.88
850.13	-15.06
850.347	-12.76
850.564	-12.87
850.78	-13.25
850.997	-13.75
851.214	-13.64
851.431	-12.51
851.647	-15.36
851.864	-13.6
852.081	-13.19
852.298	-17.04
852.514	-18.84
852.731	-16.14
852.948	-14.57
853.164	-15.67
853.381	-17.3
853.597	-17.12
853.814	-17.54
854.03	-19.79
854.247	-18.06
854.463	-17.72
854.68	-17.93
854.896	-17.33
855.113	-17.11
855.329	-16.29
855.545	-14.78
855.762	-15.17
855.978	-16.7
856.194	-18.11
856.411	-14.92
856.627	-11.74
856.843	-10.61
857.059	-8.82
857.275	-9.54
857.492	-9.51
857.708	-6.29
857.924	-5.36
858.14	-2.87
858.356	-3.43
858.572	-3.59
858.788	-4.41
859.004	-1.25
859.22	-3.66
859.436	-4.59
859.652	-6
859.868	-6.27
860.084	-5.26
860.3	-6.43
860.516	-7.82
860.731	-7.83
860.947	-10.33
861.163	-9.03
861.379	-7.4
861.595	-6.64
861.81	-5.55
862.026	-4.85
862.242	-4.72
862.457	-4.5
862.673	-3.38
862.889	-4.26
863.104	-4.6
863.32	-4.67
863.535	-4.86
863.751	-9.19
863.966	-6.8
864.182	-5.29
864.397	-7.05
864.613	-8.58
864.828	-10.85
865.044	-9.14
865.259	-6.75
865.474	-7.09
865.69	-5.98
865.905	-4.49
866.12	-5.25
866.336	-5.02
866.551	-4.42
866.766	-5.92
866.981	-7.06
867.196	-6.66
867.412	-5.57
867.627	-6.34
867.842	-7.32
868.057	-7.62
868.272	-8.43
868.487	-11.32
868.702	-13.6
868.917	-15.39
869.132	-14.33
869.347	-12.86
869.562	-13.2
869.777	-13.34
869.992	-14.04
870.207	-13.08
870.422	-11.55
870.636	-13.49
870.851	-14.24
871.066	-15.19
871.281	-14.62
871.495	-14.67
871.71	-11.22
871.925	-14.66
872.14	-16.19
872.354	-20.34
872.569	-20.98
872.783	-19.78
872.998	-19.81
873.213	-19.21
873.427	-16.65
873.642	-15.06
873.856	-14.1
874.071	-14.88
874.285	-14.45
874.5	-16.36
874.714	-17.47
874.928	-17.5
875.143	-16.7
875.357	-15.94
875.571	-16.08
875.786	-15
876	-13.08
876.214	-10.73
876.429	-13.04
876.643	-12.85
876.857	-11.81
877.071	-12.26
877.285	-11.79
877.499	-15.26
877.714	-13.38
877.928	-10.95
878.142	-12.58
878.356	-15.61
878.57	-13.58
878.784	-11.26
878.998	-11.31
879.212	-8.62
879.426	-9.76
879.639	-8.08
879.853	-10.2
880.067	-11.46
880.281	-12.67
880.495	-12.22
880.709	-9.36
880.922	-8.45
881.136	-6.75
881.35	-5.38
881.564	-6.81
881.777	-7.89
881.991	-7.67
882.205	-5.37
882.418	-6.48
882.632	-7.83
882.845	-8.65
883.059	-8.38
883.273	-7.53
883.486	-8.13
883.7	-6.04
883.913	-6.43
884.126	-4.71
884.34	-7.9
884.553	-11.16
884.767	-8.12
884.98	-7.99
885.193	-10.02
885.407	-10.43
885.62	-7.32
885.833	-8.79
886.046	-8.65
886.26	-10.31
886.473	-10.66
886.686	-10.59
886.899	-8.97
887.112	-9.25
887.326	-12.08
887.539	-11.68
887.752	-10.73
887.965	-13.58
888.178	-11.45
888.391	-10.08
888.604	-9.91
888.817	-11.96
889.03	-10.73
889.243	-12.33
889.455	-14.16
889.668	-13.87
889.881	-13.12
890.094	-14.41
890.307	-17.19
890.52	-16.96
890.732	-17.39
890.945	-17.54
891.158	-16.24
891.37	-18.63
891.583	-18.22
891.796	-16.31
892.008	-17.06
892.221	-19.06
892.434	-21.56
892.646	-21.34
892.859	-22.83
893.071	-20.15
893.284	-18.76
893.496	-19.45
893.709	-19.09
893.921	-18.49
894.133	-19.86
894.346	-21.27
894.558	-20.23
894.771	-22.08
894.983	-20.49
895.195	-19.31
895.407	-18.45
895.62	-20.78
895.832	-20.23
896.044	-17.47
896.256	-17.92
896.468	-19.63
896.681	-19
896.893	-18.2
897.105	-19.17
897.317	-17.67
897.529	-14.81
897.741	-14.24
897.953	-11.04
898.165	-13.09
898.377	-14.66
898.589	-13.15
898.801	-13.08
899.013	-9.94
899.224	-8.55
899.436	-6.28
899.648	-7.23
899.86	-10.22
900.072	-8.63
900.283	-9.1
900.495	-7.61
900.707	-6.26
900.919	-8.29
901.13	-6.64
901.342	-5.85
901.554	-7.64
901.765	-8.5
901.977	-11.66
902.188	-13.17
902.4	-14.83
902.611	-16.54
902.823	-17.2
903.034	-18.2
903.246	-18.71
903.457	-17.89
903.669	-18.09
903.88	-17.99
904.091	-18.84
904.303	-17.92
904.514	-20.38
904.725	-17.81
904.936	-16.51
905.148	-17.13
905.359	-14.5
905.57	-15.1
905.781	-16.63
905.992	-17.74
906.204	-18.78
906.415	-17.08
906.626	-18.08
906.837	-16.89
907.048	-17.88
907.259	-18.59
907.47	-18.22
907.681	-19.46
907.892	-16.88
908.103	-17.3
908.314	-18.76
908.525	-14.89
908.735	-12.81
908.946	-12.12
909.157	-12.64
909.368	-11.3
909.579	-9.76
909.789	-11.73
910	-13.92
910.211	-12.54
910.421	-12.87
910.632	-11.31
910.843	-14.45
911.053	-11.56
911.264	-10.11
911.475	-10.44
911.685	-10.63
911.896	-10.87
912.106	-9.94
912.317	-11.11
912.527	-9.22
912.737	-8.68
912.948	-7.99
913.158	-8.35
913.369	-9.29
913.579	-6.91
913.789	-6.62
914	-4.42
914.21	-3.82
914.42	-5.23
914.63	-4.56
914.841	-3.13
915.051	-2.84
915.261	-2.6
915.471	0.01
915.681	0.66
915.891	1.79
916.101	0.57
916.311	1.38
916.521	3.63
916.731	3.73
916.941	5.32
917.151	3.89
917.361	7.15
917.571	4.5
917.781	1.91
917.991	-0.2
918.201	-0.19
918.411	-3.13
918.621	-4.43
918.83	-4.06
919.04	-5.49
919.25	-3.57
919.46	-2.68
919.669	-5.49
919.879	-5.78
920.089	-6.81
920.298	-7.84
920.508	-6.77
920.717	-6.84
920.927	-8.3
921.136	-7.5
921.346	-8.62
921.555	-11.54
921.765	-11.91
921.974	-14.69
922.184	-17.63
922.393	-18.41
922.603	-18.78
922.812	-16.69
923.021	-18.42
923.23	-20.57
923.44	-21.79
923.649	-22.56
923.858	-23.51
924.067	-24.35
924.277	-25.57
924.486	-23.09
924.695	-23.54
924.904	-22.38
925.113	-22.3
925.322	-20.2
925.531	-20.04
925.74	-22.21
925.949	-23.36
926.158	-20.16
926.367	-21.41
926.576	-20.98
926.785	-20.34
926.994	-22.02
927.203	-21.32
927.412	-22.1
927.621	-23.18
927.83	-21.45
928.038	-20.49
928.247	-19.98
928.456	-18.15
928.665	-16.09
928.873	-14.87
929.082	-12.57
929.291	-11.53
929.499	-10.36
929.708	-9.14
929.916	-9.64
930.125	-10.19
930.333	-11.4
930.542	-8.48
930.75	-6.6
930.959	-7.82
931.167	-7.05
931.376	-7.58
931.584	-7.4
931.793	-7.81
932.001	-7.68
932.209	-9.33
932.418	-11.16
932.626	-13.28
932.834	-13.14
933.042	-16.25
933.251	-17.03
933.459	-17.54
933.667	-18.27
933.875	-17.28
934.083	-16.47
934.291	-15.83
934.499	-15.33
934.707	-15.83
934.915	-16.86
935.123	-14.16
935.331	-15.27
935.539	-18.34
935.747	-20.69
935.955	-21.24
936.163	-21.73
936.371	-21.1
936.579	-18.57
936.787	-17.93
936.995	-18.51
937.202	-18.91
937.41	-18.31
937.618	-19.62
937.826	-18.79
938.033	-22.32
938.241	-24.31
938.449	-23.94
938.656	-21.75
938.864	-21.47
939.071	-20.84
939.279	-17.95
939.486	-16.01
939.694	-16.12
939.901	-16.6
940.109	-14.88
940.316	-14.99
940.524	-16.19
940.731	-18.74
940.939	-18.06
941.146	-18.03
941.353	-18.44
941.561	-18.79
941.768	-19.19
941.975	-18.07
942.182	-18.1
942.39	-17.47
942.597	-15.06
942.804	-16.48
943.011	-17.77
943.218	-18.05
943.425	-19.58
943.632	-19.14
943.839	-20.24
944.046	-19.83
944.253	-19.47
944.46	-18.62
944.667	-13.83
944.874	-14.46
945.081	-13.53
945.288	-11.69
945.495	-9.67
945.702	-9.79
945.909	-11.63
946.115	-9.67
946.322	-10.77
946.529	-12.46
946.736	-12.32
946.942	-11.72
947.149	-12.51
947.356	-13.25
947.562	-14.56
947.769	-14.59
947.976	-15.12
948.182	-14.52
948.389	-14.89
948.595	-14.39
948.802	-14.06
949.008	-15.38
949.215	-13.54
949.421	-13.88
949.628	-14.66
949.834	-13.5
950.04	-14.4
950.247	-10.76
950.453	-10.94
950.659	-13.01
950.865	-11.05
951.072	-16.08
951.278	-13.78
951.484	-14.32
951.69	-17.07
951.896	-17.15
952.103	-18.32
952.309	-16.95
952.515	-18.79
952.721	-16.56
952.927	-14.93
953.133	-16.07
953.339	-16.77
953.545	-15.65
953.751	-15.4
953.957	-12.78
954.163	-14.97
954.369	-16.07
954.574	-17.6
954.78	-17.34
954.986	-17.85
955.192	-17.86
955.398	-19.12
955.603	-22.04
955.809	-21.09
956.015	-20.33
956.22	-19.84
956.426	-19.55
956.632	-22.01
956.837	-19.99
957.043	-18.93
957.248	-17.93
957.454	-16.93
957.66	-18.48
957.865	-19.01
958.07	-18.02
958.276	-20.96
958.481	-22.54
958.687	-23.4
958.892	-21.17
959.097	-21.97
959.303	-23.08
959.508	-24.17
959.713	-23.09
959.919	-22.77
960.124	-24.32
960.329	-25.17
960.534	-20.65
960.739	-19.08
960.945	-17.45
961.15	-18.33
961.355	-17.64
961.56	-19.72
961.765	-20.23
961.97	-18.97
962.175	-17.74
962.38	-20.81
962.585	-20.13
962.79	-20.93
962.995	-20.36
963.2	-22.48
963.404	-23.44
963.609	-27.09
963.814	-28.33
964.019	-29.86
964.224	-31.49
964.428	-30.88
964.633	-29.28
964.838	-27.99
965.042	-27.49
965.247	-29.69
965.452	-30.2
965.656	-28.91
965.861	-26.58
966.066	-27.91
966.27	-26.79
966.475	-22.81
966.679	-25.4
966.884	-26.08
967.088	-27.45
967.292	-26.93
967.497	-24.65
967.701	-26.04
967.906	-24.44
968.11	-21.5
968.314	-17.95
968.518	-18.88
968.723	-14.74
968.927	-14.61
969.131	-13.95
969.335	-11.82
969.539	-12.07
969.744	-10.3
969.948	-6.21
970.152	-4.65
970.356	-3.34
970.56	-3.39
970.764	-4.38
970.968	-2.02
971.172	-1.27
971.376	0.01
971.58	1.43
971.784	2.86
971.988	0.59
972.192	2.24
972.395	1.72
972.599	0.69
972.803	-1.07
973.007	1.46
973.21	0.74
973.414	-1.42
973.618	-3.33
973.822	-4.55
974.025	-3.23
974.229	-4.67
974.432	-7.85
974.636	-11.95
974.84	-10.53
975.043	-11.01
975.247	-13.37
975.45	-13.12
975.654	-13.76
975.857	-11.83
976.06	-12.46
976.264	-14.24
976.467	-12.68
976.671	-14.01
976.874	-12.23
977.077	-13.18
977.28	-14.24
977.484	-16.6
977.687	-17.36
977.89	-17.1
978.093	-18.68
978.297	-16.24
978.5	-18.58
978.703	-16.64
978.906	-15.86
979.109	-14.91
979.312	-15.21
979.515	-16.05
979.718	-15.21
979.921	-14.92
980.124	-15.49
980.327	-15.36
980.53	-13.63
980.733	-12.34
980.936	-8.41
981.138	-10.74
981.341	-10.3
981.544	-10.3
981.747	-11.17
981.949	-13.51
982.152	-13.18
982.355	-13.76
982.558	-10.5
982.76	-13.54
982.963	-14.38
983.165	-14.71
983.368	-12.5
983.571	-13.28
983.773	-11.48
983.976	-10.99
984.178	-9.5
984.381	-8.7
984.583	-11.56
984.785	-10.66
984.988	-9.44
985.19	-8.6
985.392	-13.09
985.595	-15.66
985.797	-13.84
985.999	-11.28
986.202	-9.71
986.404	-10.93
986.606	-8.18
986.808	-9.76
987.01	-7.4
987.212	-9.59
987.415	-9.92
987.617	-9.32
987.819	-9.44
988.021	-9.36
988.223	-10.13
988.425	-10.91
988.627	-10.32
988.829	-14.93
989.031	-10.83
989.232	-11.34
989.434	-8.95
989.636	-8.42
989.838	-8.45
990.04	-6.63
990.242	-7.5
990.443	-10.27
990.645	-8.28
990.847	-6.44
991.048	-6.58
991.25	-8.52
991.452	-9.84
991.653	-8.45
991.855	-7.42
992.057	-8.71
992.258	-8.42
992.46	-8.55
992.661	-7.41
992.863	-10.34
993.064	-9.7
993.265	-11.94
993.467	-12.73
993.668	-11.79
993.87	-12.21
994.071	-11.91
994.272	-10.99
994.473	-9.42
994.675	-9.58
994.876	-9.27
995.077	-9.39
995.278	-10.77
995.48	-9.57
995.681	-12.55
995.882	-12.77
996.083	-12.68
996.284	-16.05
996.485	-17.45
996.686	-17.89
996.887	-19.84
997.088	-22.75
997.289	-24.69
997.49	-24
997.691	-24.19
997.892	-24.09
998.092	-20.51
998.293	-21.59
998.494	-22.33
998.695	-22.68
998.896	-20.61
999.096	-21.02
999.297	-20.21
999.498	-21.15
999.698	-22.59
999.899	-24.74
1000.1	-27.01
1000.3	-26.69
1000.501	-28.43
1000.701	-27.7
1000.902	-28.3
1001.102	-28.42
1001.303	-27.16
1001.503	-29.2
1001.704	-29.61
1001.904	-28.91
1002.105	-28.45
1002.305	-28.91
1002.505	-29.1
1002.706	-28.92
1002.906	-29.04
1003.106	-29.71
1003.306	-28.49
1003.507	-26.54
1003.707	-27.66
1003.907	-25.9
1004.107	-24.22
1004.307	-25.78
1004.507	-22.54
1004.707	-21.86
1004.907	-23.33
1005.107	-24.43
1005.308	-22.99
1005.507	-24.49
1005.707	-22.1
1005.907	-22.2
1006.107	-18.59
1006.307	-16.02
1006.507	-16.99
1006.707	-15.57
1006.907	-15.71
1007.106	-15.42
1007.306	-15.5
1007.506	-14.84
1007.706	-14.37
1007.905	-15.04
1008.105	-15.76
1008.305	-17.43
1008.504	-15.53
1008.704	-12.33
1008.903	-10.28
1009.103	-8.34
1009.303	-9.31
1009.502	-8.84
1009.702	-8.85
1009.901	-8.41
1010.1	-10.88
1010.3	-10.14
1010.499	-11
1010.699	-13.88
1010.898	-17.51
1011.097	-16.44
1011.296	-16.42
1011.496	-17.98
1011.695	-16.68
1011.894	-18.41
1012.093	-16.19
1012.293	-18.16
1012.492	-19.77
1012.691	-18.63
1012.89	-18.42
1013.089	-19.92
1013.288	-19.19
1013.487	-18.08
1013.686	-18.32
1013.885	-19.91
1014.084	-18.5
1014.283	-18.19
1014.482	-18.34
1014.681	-18.98
1014.88	-21.78
1015.078	-21.6
1015.277	-23.6
1015.476	-23.09
1015.675	-22.63
1015.873	-23.27
1016.072	-24.06
1016.271	-21.07
1016.47	-23.94
1016.668	-22.44
1016.867	-22.02
1017.065	-22.24
1017.264	-24.02
1017.463	-24.01
1017.661	-24.02
1017.86	-24.71
1018.058	-23.35
1018.256	-23.37
1018.455	-23.54
1018.653	-22.68
1018.852	-22.75
1019.05	-24.22
1019.248	-25.78
1019.447	-26.68
1019.645	-26.9
1019.843	-27.61
1020.041	-24.77
1020.24	-24.47
1020.438	-21.54
1020.636	-21.84
1020.834	-23.09
1021.032	-21.27
1021.23	-23.37
1021.428	-21.81
1021.626	-19.89
1021.824	-20.41
1022.022	-20.44
1022.22	-18.38
1022.418	-17.26
1022.616	-17.84
1022.814	-18.68
1023.012	-20.67
1023.21	-18.95
1023.408	-18.26
1023.606	-18.76
1023.803	-14.24
1024.001	-14.18
1024.199	-16.87
1024.397	-17.12
1024.594	-17.37
1024.792	-19.14
1024.99	-18.66
1025.187	-17.54
1025.385	-13.76
1025.582	-12.44
1025.78	-13.56
1025.977	-12.22
1026.175	-13.1
1026.372	-13.63
1026.57	-16.01
1026.767	-13.96
1026.965	-13.98
1027.162	-14.48
1027.359	-13.66
1027.557	-14.37
1027.754	-15.76
1027.951	-14.67
1028.148	-14.21
1028.346	-17.1
1028.543	-19.7
1028.74	-19.53
1028.937	-21.9
1029.134	-21.35
1029.331	-21.54
1029.528	-20.85
1029.725	-21.41
1029.923	-24.4
1030.12	-21.17
1030.317	-19.78
1030.513	-17.92
1030.71	-16.43
1030.907	-14.52
1031.104	-15.45
1031.301	-17.12
1031.498	-16.76
1031.695	-17.62
1031.892	-16.34
1032.088	-16.87
1032.285	-17.36
1032.482	-18.01
1032.678	-19.84
1032.875	-20.82
1033.072	-20.32
1033.268	-20.58
1033.465	-20.98
1033.662	-21.72
1033.858	-21.76
1034.055	-23.45
1034.251	-20.56
1034.448	-19.84
1034.644	-19.62
1034.84	-16.94
1035.037	-15.58
1035.233	-14.4
1035.43	-12.81
1035.626	-12.64
1035.822	-10.95
1036.019	-12.3
1036.215	-15.31
1036.411	-15.32
1036.607	-17.68
1036.803	-20.32
1037	-20.15
1037.196	-21.16
1037.392	-20.32
1037.588	-23.41
1037.784	-22.54
1037.98	-23.6
1038.176	-22.65
1038.372	-24.02
1038.568	-23.14
1038.764	-21.67
1038.96	-20.01
1039.156	-21.95
1039.352	-21.87
1039.547	-19.99
1039.743	-18.97
1039.939	-16.86
1040.135	-17.37
1040.331	-19.22
1040.526	-18.24
1040.722	-19.64
1040.918	-20.32
1041.113	-21.37
1041.309	-23.16
1041.505	-25.15
1041.7	-24.35
1041.896	-24.64
1042.091	-23.69
1042.287	-23.04
1042.482	-22.64
1042.678	-22.28
1042.873	-20.66
1043.069	-21.57
1043.264	-20.45
1043.459	-19.97
1043.655	-18.34
1043.85	-19.79
1044.045	-19.23
1044.24	-20.72
1044.436	-18.24
1044.631	-18.16
1044.826	-18.52
1045.021	-21.67
1045.216	-19.06
