Data from FLMT021711__10__17-06-15-146.txt Node

Date: Tue Nov 05 17:06:15 CET 2024
User: Etudiants TP
Spectrometer: FLMT02171
Trigger mode: 0
Integration Time (sec): 1,000000E-1
Scans to average: 5
Electric dark correction enabled: true
Nonlinearity correction enabled: false
Boxcar width: 15
XAxis mode: Wavelengths
Number of Pixels in Spectrum: 3648
>>>>>Begin Spectral Data<<<<<
194,658	-55,28
194,923	-52,24
195,188	-47,44
195,453	-46,98
195,717	-42,34
195,982	-40,77
196,247	-38,49
196,512	-40,71
196,777	-39,31
197,042	-38,03
197,307	-38,18
197,572	-34,27
197,837	-33,58
198,101	-31,94
198,366	-28,69
198,631	-26,78
198,896	-21,18
199,161	-13,94
199,425	-7,39
199,69	1,13
199,955	0,8
200,22	-2,05
200,484	-2,96
200,749	-2,83
201,014	-1,93
201,278	-1,32
201,543	-1,46
201,807	-2,57
202,072	-0,6
202,337	-0,01
202,601	0,05
202,866	-0,63
203,13	0,27
203,395	-1,24
203,659	-0,09
203,924	-3,28
204,189	-3,39
204,453	-3,39
204,717	-2,16
204,982	-1,2
205,246	0,58
205,511	1,88
205,775	1,06
206,04	4,52
206,304	4,72
206,568	4,98
206,833	4,79
207,097	6,34
207,361	6,22
207,626	8,88
207,89	9,4
208,154	9,79
208,419	12,56
208,683	13,42
208,947	15,71
209,211	16,83
209,476	15,92
209,74	17,3
210,004	17,84
210,268	18,43
210,532	19,28
210,796	19,38
211,061	19,67
211,325	20,07
211,589	18,95
211,853	19,59
212,117	20,62
212,381	20,6
212,645	21,17
212,909	22,52
213,173	20,04
213,437	20,42
213,701	21,88
213,965	22,43
214,229	18,44
214,493	19,03
214,757	18,26
215,021	18,44
215,285	21,09
215,549	22,49
215,813	20,2
216,077	19,93
216,34	21,72
216,604	19,79
216,868	20,62
217,132	20,17
217,396	18,95
217,659	20,77
217,923	17,93
218,187	18,5
218,451	16,89
218,714	14,4
218,978	14,13
219,242	15,49
219,505	15,99
219,769	17,63
220,033	17,13
220,296	18,93
220,56	20,99
220,824	19,81
221,087	20,02
221,351	20,67
221,614	19,57
221,878	19,8
222,142	18,43
222,405	17,75
222,669	18,51
222,932	15,16
223,196	13,57
223,459	9,11
223,722	9,77
223,986	9,7
224,249	7,97
224,513	7,77
224,776	7,75
225,04	6,8
225,303	6,69
225,566	6,88
225,83	6,83
226,093	9,65
226,356	8,17
226,62	6,99
226,883	9,67
227,146	10,83
227,409	10,48
227,673	8,96
227,936	9,29
228,199	9,28
228,462	8,05
228,725	7,4
228,989	5,44
229,252	6,68
229,515	11,47
229,778	9,7
230,041	9,51
230,304	7,91
230,567	9,63
230,83	8,24
231,093	9,36
231,356	8,96
231,619	15,5
231,882	14,38
232,145	14,97
232,408	14,77
232,671	13,73
232,934	14,08
233,197	13,63
233,46	12,04
233,723	13,18
233,986	12,01
234,249	10
234,512	11,16
234,775	14,66
235,037	13,31
235,3	12,62
235,563	12,12
235,826	12,37
236,089	12,7
236,351	11,46
236,614	13,61
236,877	13,95
237,14	17,09
237,402	16,67
237,665	10,85
237,928	11,36
238,19	9,28
238,453	11,53
238,716	11,41
238,978	12,12
239,241	11,93
239,503	14,21
239,766	9,97
240,029	8,84
240,291	10,73
240,554	10,82
240,816	10,53
241,079	10,98
241,341	9,57
241,604	9,01
241,866	6,36
242,129	7,91
242,391	9,18
242,653	8,35
242,916	7,69
243,178	7,91
243,441	8,07
243,703	7,19
243,965	6,59
244,228	6,69
244,49	7,75
244,752	8,01
245,015	8,06
245,277	9,56
245,539	8,29
245,801	10,09
246,064	9,81
246,326	9,37
246,588	9,45
246,85	11,33
247,112	11,39
247,374	13,6
247,637	16,1
247,899	15,82
248,161	16,63
248,423	12,55
248,685	13,24
248,947	13,97
249,209	13,53
249,471	15,18
249,733	16,32
249,995	16,19
250,257	13,79
250,519	13,16
250,781	15,77
251,043	13,11
251,305	14,14
251,567	15,15
251,829	16,15
252,091	14,62
252,353	11,75
252,615	11,46
252,876	9,17
253,138	7,85
253,4	5,26
253,662	5,79
253,924	6,94
254,185	8,45
254,447	8,25
254,709	7,72
254,971	7,24
255,232	9,49
255,494	9,08
255,756	6,4
256,017	7,17
256,279	6,77
256,541	7,6
256,802	7,34
257,064	6,99
257,326	5,64
257,587	5,83
257,849	7,16
258,11	8,49
258,372	11,44
258,633	11,94
258,895	10,94
259,156	10,87
259,418	9,97
259,679	7,04
259,941	4,72
260,202	7,6
260,464	10,3
260,725	10,36
260,987	9,52
261,248	8,81
261,509	8,79
261,771	8,58
262,032	10,24
262,293	8,75
262,555	8,71
262,816	7,43
263,077	6,01
263,338	2,5
263,6	1,9
263,861	0,26
264,122	-1,68
264,383	0,46
264,645	1,99
264,906	0,44
265,167	1,44
265,428	1,18
265,689	2,95
265,95	0,43
266,211	1,21
266,473	-0,41
266,734	-2,58
266,995	-4,62
267,256	-3,57
267,517	-2,28
267,778	1,46
268,039	3,29
268,3	1,1
268,561	-1,68
268,822	0,96
269,083	0,11
269,344	-1,85
269,604	-1,37
269,865	-0,78
270,126	-4,32
270,387	-2,76
270,648	-1,68
270,909	-1,39
271,17	-2,23
271,43	-4,24
271,691	-7,4
271,952	-7,26
272,213	-4,03
272,473	-6,12
272,734	-4,37
272,995	-1,41
273,256	-1,8
273,516	1,88
273,777	-0,97
274,038	1,13
274,298	-0,71
274,559	-0,37
274,82	2,85
275,08	4,84
275,341	6,53
275,601	6,16
275,862	3,25
276,122	4,57
276,383	4,72
276,643	7,47
276,904	5,45
277,164	8,45
277,425	9,82
277,685	12,51
277,946	12,2
278,206	13,44
278,467	15,04
278,727	14,87
278,987	14,18
279,248	14,16
279,508	16,18
279,768	18,6
280,029	19,24
280,289	15,46
280,549	14,77
280,81	14,01
281,07	11,3
281,33	13,18
281,59	9,41
281,851	11,04
282,111	11,59
282,371	10,14
282,631	11,44
282,891	9,7
283,151	8,61
283,412	6,3
283,672	6,45
283,932	6,67
284,192	7,29
284,452	6,82
284,712	5,21
284,972	4,27
285,232	2,82
285,492	4,62
285,752	1,58
286,012	7,05
286,272	8,24
286,532	6,17
286,792	6,13
287,052	8,34
287,312	9,2
287,571	7,99
287,831	8,06
288,091	6,6
288,351	7,9
288,611	11,45
288,871	9,57
289,13	8,84
289,39	5,07
289,65	7,57
289,91	5,39
290,17	5,95
290,429	7,56
290,689	5,07
290,949	2,75
291,208	3,99
291,468	7,15
291,728	8,16
291,987	10,1
292,247	7,51
292,506	9,19
292,766	11,63
293,026	9,67
293,285	9,27
293,545	10,66
293,804	11,15
294,064	7,59
294,323	6,42
294,583	6,16
294,842	6,74
295,102	6,64
295,361	7,2
295,621	8,33
295,88	9,88
296,139	9,8
296,399	10,22
296,658	5,88
296,917	7,63
297,177	5,96
297,436	7,82
297,695	5,94
297,955	7,55
298,214	5,64
298,473	7,67
298,732	9,91
298,992	12,38
299,251	10,65
299,51	7,75
299,769	6,57
300,028	6,11
300,287	7,11
300,547	7,88
300,806	6,01
301,065	10,63
301,324	12,23
301,583	8,14
301,842	5,31
302,101	3,55
302,36	3,49
302,619	3,23
302,878	3,66
303,137	1,02
303,396	1,81
303,655	2,46
303,914	-0,81
304,173	-0,38
304,432	-1,27
304,691	1,94
304,95	-0,18
305,208	4,44
305,467	5,54
305,726	6,36
305,985	7,72
306,244	9,44
306,503	9,62
306,761	8,24
307,02	6,2
307,279	7,48
307,537	7,46
307,796	5,75
308,055	3,21
308,314	3,81
308,572	1,54
308,831	1,48
309,09	1,68
309,348	1,69
309,607	2,71
309,865	6,01
310,124	6,18
310,382	7,4
310,641	7,93
310,9	5,53
311,158	7,33
311,417	6,26
311,675	7,14
311,933	8,14
312,192	8,79
312,45	8,7
312,709	6,94
312,967	7,04
313,226	7,56
313,484	6,37
313,742	4,05
314,001	1,85
314,259	0,76
314,517	0,18
314,776	1,16
315,034	3,69
315,292	2,34
315,55	0,79
315,809	0,39
316,067	1,56
316,325	1,44
316,583	2,49
316,841	2,03
317,1	0,33
317,358	-1,25
317,616	-0,86
317,874	-1,68
318,132	-2,45
318,39	-3,38
318,648	-3,76
318,906	-2,62
319,164	-3,83
319,422	-4,76
319,68	-6,11
319,938	-5,85
320,196	-5,26
320,454	-4,39
320,712	-3,48
320,97	-3,57
321,228	-7,21
321,486	-5,51
321,744	-3,21
322,002	-1,22
322,26	-2,84
322,517	-1,29
322,775	-2,27
323,033	-2,15
323,291	-1,11
323,549	0,22
323,806	2,07
324,064	2,2
324,322	1,86
324,58	1
324,837	2,43
325,095	-0,59
325,353	0,85
325,61	1,91
325,868	1,55
326,126	3,07
326,383	2,31
326,641	1,25
326,898	2,22
327,156	2,4
327,413	3,95
327,671	3,92
327,928	6,17
328,186	6,08
328,443	6,43
328,701	9,3
328,958	9,36
329,216	10,33
329,473	8,58
329,731	8,86
329,988	8,92
330,245	11,36
330,503	11,13
330,76	10,42
331,017	10,36
331,275	8,25
331,532	8,26
331,789	6,21
332,047	6,54
332,304	4,23
332,561	4,16
332,818	3,79
333,076	7,51
333,333	8,91
333,59	9,46
333,847	10,83
334,104	10,29
334,361	10,66
334,618	10,4
334,876	9,01
335,133	9,52
335,39	7,52
335,647	8,65
335,904	5,31
336,161	2,4
336,418	1,38
336,675	-2,48
336,932	-0,5
337,189	-0,43
337,446	0,25
337,703	-2,38
337,96	-6,03
338,216	-5,93
338,473	-8,39
338,73	-8,75
338,987	-8,73
339,244	-4,68
339,501	-6,15
339,757	-4,49
340,014	-3,83
340,271	-1,89
340,528	0,05
340,785	2,72
341,041	1,23
341,298	-2,48
341,555	-2,48
341,811	-2,96
342,068	-4,94
342,325	-4,36
342,581	-1,62
342,838	0,31
343,094	0,57
343,351	-0,08
343,608	-2,15
343,864	1,39
344,121	4,29
344,377	4,42
344,634	4,56
344,89	2,98
345,147	2,92
345,403	2,31
345,66	3,89
345,916	6,22
346,172	4,91
346,429	3,94
346,685	4,47
346,942	4,21
347,198	0,23
347,454	1,7
347,711	1,55
347,967	-1,1
348,223	-0,84
348,48	-2,39
348,736	-0,09
348,992	-1,14
349,248	1,13
349,504	0,36
349,761	0,76
350,017	0,68
350,273	0,33
350,529	0,49
350,785	0,16
351,041	-1,18
351,297	0,2
351,554	-0,64
351,81	-3,22
352,066	-5,24
352,322	-4,48
352,578	-3,34
352,834	-3,68
353,09	-4,14
353,346	-4,77
353,602	-6,56
353,858	-7
354,114	-7,93
354,369	-5,84
354,625	-5,45
354,881	-6,31
355,137	-3,9
355,393	-4,02
355,649	-4,38
355,905	-2,31
356,16	-3,09
356,416	-1,8
356,672	-8,91
356,928	-7,15
357,183	-6,4
357,439	-6,36
357,695	-8,64
357,951	-5,27
358,206	-5,49
358,462	-8,11
358,718	-9,85
358,973	-7,62
359,229	-6,34
359,484	-4,82
359,74	-2,69
359,996	-1,93
360,251	0,41
360,507	-0,36
360,762	0,2
361,018	2,26
361,273	0,7
361,529	2,56
361,784	1,66
362,04	2,77
362,295	1,21
362,55	1,56
362,806	2,78
363,061	2,46
363,316	3,14
363,572	3,97
363,827	4,32
364,082	3,4
364,338	3,15
364,593	4,39
364,848	4,3
365,104	3,12
365,359	4,81
365,614	5,02
365,869	3,81
366,124	4,15
366,38	4,57
366,635	6,91
366,89	6,64
367,145	6,03
367,4	8,55
367,655	9,6
367,91	10,34
368,165	8,01
368,42	5,43
368,675	5,87
368,93	7,08
369,185	5,34
369,44	5,54
369,695	8,03
369,95	6,77
370,205	6,8
370,46	6,19
370,715	6,39
370,97	7,94
371,225	8,75
371,48	10,36
371,734	10,29
371,989	10,44
372,244	10,49
372,499	12,89
372,754	12,4
373,008	10,59
373,263	6,93
373,518	9,01
373,773	7,5
374,027	5,96
374,282	8,67
374,537	7,14
374,791	8,43
375,046	7,94
375,301	6,62
375,555	4,13
375,81	5,66
376,064	6,74
376,319	9,21
376,573	7,15
376,828	3,66
377,082	8,22
377,337	6,72
377,591	4,33
377,846	5
378,1	7,84
378,355	8,67
378,609	7,88
378,863	4,66
379,118	5,47
379,372	3,17
379,627	1,68
379,881	0,89
380,135	0,53
380,389	-0,58
380,644	-0,37
380,898	0,46
381,152	3,25
381,407	3,18
381,661	5,21
381,915	7,13
382,169	6,42
382,423	5,91
382,677	3,18
382,932	4,45
383,186	4,81
383,44	5,06
383,694	5,54
383,948	3,01
384,202	2,18
384,456	4,14
384,71	4,64
384,964	3
385,218	5,15
385,472	5,67
385,726	5,32
385,98	4,89
386,234	4,47
386,488	2,5
386,742	4,22
386,996	2,03
387,249	2,72
387,503	4,48
387,757	4,13
388,011	4,24
388,265	4,59
388,518	5,71
388,772	6,52
389,026	6,28
389,28	5,86
389,533	3,8
389,787	5,08
390,041	2,16
390,295	3,02
390,548	2,89
390,802	4,71
391,055	3,64
391,309	4,39
391,563	3,64
391,816	4,83
392,07	4,59
392,323	7,24
392,577	9,77
392,83	12,02
393,084	16,41
393,337	19,56
393,591	20,96
393,844	19,95
394,098	22,71
394,351	25,91
394,604	26,5
394,858	28,02
395,111	28,66
395,364	26,4
395,618	28,74
395,871	26,95
396,124	26,1
396,378	24,37
396,631	24,98
396,884	22,38
397,137	21,01
397,391	23,08
397,644	20,47
397,897	21,58
398,15	21,69
398,403	24,79
398,657	22,66
398,91	20,97
399,163	19,5
399,416	18,1
399,669	16,55
399,922	16,15
400,175	12,54
400,428	10,27
400,681	10,12
400,934	5,73
401,187	5,24
401,44	4,35
401,693	3,56
401,946	0,76
402,199	-2,66
402,452	-2,38
402,704	-5,02
402,957	-6,3
403,21	-4,57
403,463	-5,35
403,716	-4,16
403,969	-3,72
404,221	-3,99
404,474	-3,38
404,727	-0,3
404,98	1,88
405,232	2,55
405,485	3,84
405,738	6,42
405,99	6,4
406,243	5,34
406,496	6,87
406,748	8,19
407,001	8,25
407,253	9,55
407,506	10,76
407,759	10,95
408,011	10,03
408,264	10,16
408,516	8,97
408,769	7,1
409,021	7,06
409,274	7,33
409,526	9,44
409,778	9,95
410,031	12,36
410,283	11,8
410,536	15,32
410,788	14,06
411,04	13,91
411,293	15,43
411,545	16,72
411,797	17,63
412,049	18,23
412,302	19,61
412,554	19,96
412,806	18,42
413,058	15,64
413,311	14,85
413,563	14,29
413,815	14,26
414,067	12,51
414,319	11,72
414,571	13,27
414,823	12,13
415,075	10,34
415,328	11,99
415,58	15,45
415,832	16,36
416,084	16,86
416,336	16,38
416,588	19,56
416,84	17,91
417,091	20,89
417,343	17,56
417,595	19,82
417,847	19,76
418,099	20,13
418,351	20,43
418,603	23,81
418,855	24,29
419,106	24,51
419,358	24,18
419,61	22,78
419,862	23,31
420,114	20,84
420,365	20,33
420,617	21,31
420,869	20,16
421,12	20,68
421,372	20,13
421,624	19,88
421,875	21,52
422,127	19,39
422,379	18,69
422,63	21,12
422,882	21,16
423,133	20,41
423,385	19,2
423,636	20,84
423,888	23,09
424,139	25,02
424,391	23,16
424,642	22,21
424,894	20,14
425,145	20,47
425,396	16,55
425,648	19,44
425,899	17,55
426,151	18,17
426,402	16,8
426,653	17,15
426,905	16,89
427,156	14,78
427,407	14,79
427,658	15,34
427,91	15
428,161	14,08
428,412	14,88
428,663	16,26
428,914	17,16
429,166	19,11
429,417	20,05
429,668	19,13
429,919	17,43
430,17	16,96
430,421	17,29
430,672	19,63
430,923	19,59
431,174	18,84
431,425	18,73
431,676	18,31
431,927	14,66
432,178	15,57
432,429	16,41
432,68	16,45
432,931	19,51
433,182	22,4
433,433	19,47
433,683	21,97
433,934	19,53
434,185	19,57
434,436	19,39
434,687	21,03
434,937	24,01
435,188	23,89
435,439	23,38
435,69	25,21
435,94	25,66
436,191	26,16
436,442	26,74
436,692	25,73
436,943	23,52
437,194	22,99
437,444	25,98
437,695	31,02
437,945	33,12
438,196	31,74
438,447	31,56
438,697	32,08
438,948	32,54
439,198	31,47
439,449	29,04
439,699	31,93
439,949	33,64
440,2	33,56
440,45	37,17
440,701	37,18
440,951	37,43
441,201	39,73
441,452	40,14
441,702	41,74
441,952	43,88
442,203	44,89
442,453	42,88
442,703	44,17
442,953	45,27
443,204	47,09
443,454	46,03
443,704	47,43
443,954	47,32
444,204	49,12
444,455	53,5
444,705	55,84
444,955	57,85
445,205	58,37
445,455	56,88
445,705	56,71
445,955	59,94
446,205	61,28
446,455	62,35
446,705	64,28
446,955	66,11
447,205	69,34
447,455	71,44
447,705	70,29
447,955	71,98
448,205	70,82
448,454	71,22
448,704	72,99
448,954	72,22
449,204	73,14
449,454	74,44
449,704	73,93
449,953	75,23
450,203	78,98
450,453	78,56
450,703	82,26
450,952	82,06
451,202	84,04
451,452	86,22
451,701	88,82
451,951	93,32
452,201	92,28
452,45	93,21
452,7	93,86
452,949	92,89
453,199	93,23
453,448	95,44
453,698	96,44
453,947	95,52
454,197	95,65
454,446	95,17
454,696	98,3
454,945	98,49
455,195	97,73
455,444	99,18
455,693	102,76
455,943	102,55
456,192	103,46
456,442	103,23
456,691	104,27
456,94	103,31
457,189	102,21
457,439	104,31
457,688	105,91
457,937	105,33
458,186	105,53
458,436	104,1
458,685	104,62
458,934	103,35
459,183	101,28
459,432	101,66
459,681	99,64
459,93	97,6
460,179	96,25
460,429	94,27
460,678	96,54
460,927	98,92
461,176	97,15
461,425	96,16
461,674	97,41
461,923	97,47
462,172	96,55
462,42	93,21
462,669	93,63
462,918	92,53
463,167	91,79
463,416	87,69
463,665	88,72
463,914	88,24
464,162	86,16
464,411	86,1
464,66	88,11
464,909	86,43
465,158	85,23
465,406	83,39
465,655	84,96
465,904	85,35
466,152	84,76
466,401	84,73
466,65	86,27
466,898	84,56
467,147	82,61
467,395	81,26
467,644	83,69
467,893	83,32
468,141	82,58
468,39	80,08
468,638	77,66
468,887	76,03
469,135	74,29
469,384	73,4
469,632	73,16
469,88	72,91
470,129	74,19
470,377	71,5
470,626	72,55
470,874	73,27
471,122	75,32
471,371	71,84
471,619	71,12
471,867	73,96
472,115	72,88
472,364	70,01
472,612	73,28
472,86	71,53
473,108	72,07
473,356	69,52
473,605	68,09
473,853	66,35
474,101	67,36
474,349	65,94
474,597	68,08
474,845	65,87
475,093	64,82
475,341	62,06
475,589	61,29
475,837	63,54
476,085	63,96
476,333	61,46
476,581	62,76
476,829	62,32
477,077	65,48
477,325	65,43
477,573	66,86
477,821	65,61
478,069	66,11
478,317	66,82
478,564	68,94
478,812	65,76
479,06	64,48
479,308	62,83
479,555	62,28
479,803	62,49
480,051	63,41
480,299	61,98
480,546	62,64
480,794	60,16
481,042	60,89
481,289	60,35
481,537	62,51
481,784	59,76
482,032	62,28
482,28	62,66
482,527	62,98
482,775	63,62
483,022	64,9
483,27	66,79
483,517	68,22
483,765	67,73
484,012	68,69
484,259	67,77
484,507	70,17
484,754	69,84
485,002	69,51
485,249	68,17
485,496	71,8
485,744	71,41
485,991	70,06
486,238	68,45
486,486	72,63
486,733	75,37
486,98	78,13
487,227	76,47
487,474	78,1
487,722	80,6
487,969	79,94
488,216	81,03
488,463	82,63
488,71	82,23
488,957	82,81
489,204	81,63
489,451	82,65
489,699	80,58
489,946	77,63
490,193	77,43
490,44	77,75
490,687	79,2
490,934	77,41
491,18	76,11
491,427	77,82
491,674	80,84
491,921	81,16
492,168	80,33
492,415	78,7
492,662	80,39
492,909	82,29
493,155	81,19
493,402	81,68
493,649	81,35
493,896	82,89
494,142	78,93
494,389	78,7
494,636	78,24
494,883	77,14
495,129	74,59
495,376	74,19
495,623	75,89
495,869	77,49
496,116	78,41
496,362	80,27
496,609	83,46
496,855	88,51
497,102	89,93
497,348	92,29
497,595	94,1
497,841	99,41
498,088	99,26
498,334	98,59
498,581	99,44
498,827	99,87
499,074	101,38
499,32	103,02
499,566	107,22
499,813	108,72
500,059	108,46
500,305	108,11
500,552	109,47
500,798	110,26
501,044	113,73
501,29	114,8
501,537	112,65
501,783	117,67
502,029	121,9
502,275	121,61
502,521	122,98
502,767	126,07
503,013	129,77
503,26	129,56
503,506	128,29
503,752	131,43
503,998	131,43
504,244	131,71
504,49	130,81
504,736	133
504,982	132,47
505,228	136,59
505,474	137,63
505,72	139,62
505,966	141,03
506,211	145,19
506,457	146,93
506,703	145,07
506,949	145,75
507,195	144,86
507,441	143,77
507,686	148,52
507,932	151,23
508,178	154,18
508,424	153,31
508,669	153,37
508,915	154,17
509,161	158,85
509,406	159,9
509,652	160,5
509,898	163,58
510,143	165,82
510,389	167,82
510,634	164,99
510,88	169,26
511,125	172,42
511,371	173,5
511,616	174,28
511,862	173,96
512,107	173,54
512,353	176,27
512,598	178,75
512,844	178,97
513,089	177,86
513,335	180,71
513,58	181,16
513,825	182,64
514,071	184,02
514,316	186,42
514,561	189,26
514,806	191,82
515,052	196,17
515,297	195,89
515,542	197,99
515,787	199,95
516,033	203,42
516,278	206,23
516,523	209,68
516,768	210,19
517,013	208,91
517,258	210,46
517,503	211,89
517,748	214,37
517,993	214,95
518,238	217,86
518,483	217,76
518,728	218,74
518,973	219,59
519,218	222,07
519,463	225,03
519,708	226,51
519,953	227,08
520,198	229,4
520,443	232,16
520,688	237,55
520,933	238,92
521,177	241,98
521,422	241,14
521,667	244,72
521,912	246,12
522,157	244,27
522,401	247,9
522,646	249,37
522,891	252,21
523,135	253,62
523,38	254,3
523,625	254,77
523,869	257,81
524,114	259,51
524,358	260,59
524,603	262,47
524,848	261,44
525,092	261,96
525,337	265,32
525,581	268,03
525,826	269,55
526,07	271,5
526,315	273,33
526,559	273,93
526,803	273,8
527,048	277,11
527,292	277,71
527,537	276,63
527,781	277,04
528,025	274,28
528,269	274,48
528,514	274,59
528,758	274,52
529,002	275,81
529,247	278,5
529,491	279,3
529,735	284,04
529,979	283,14
530,223	283,86
530,467	281
530,712	281,4
530,956	281,47
531,2	283,22
531,444	280,86
531,688	281,73
531,932	281
532,176	282,07
532,42	282,4
532,664	284,91
532,908	282,31
533,152	280,86
533,396	281,14
533,64	279,93
533,884	279,13
534,128	278,22
534,371	279
534,615	279,02
534,859	279,61
535,103	280,03
535,347	279,3
535,59	281,46
535,834	277,83
536,078	279,34
536,322	279,76
536,565	281,74
536,809	278,98
537,053	279,49
537,296	276,76
537,54	275,28
537,784	274,65
538,027	275,3
538,271	272,38
538,514	270,18
538,758	268,56
539,001	267,03
539,245	267,74
539,488	266,85
539,732	267,53
539,975	268,26
540,219	268,11
540,462	267,18
540,706	267,87
540,949	265,84
541,192	266,3
541,436	269,14
541,679	271,69
541,922	271,01
542,166	267,21
542,409	267,66
542,652	267,42
542,895	267,99
543,139	268,32
543,382	271,18
543,625	268,8
543,868	268,6
544,111	265,65
544,354	263,87
544,598	261,27
544,841	261,23
545,084	260,06
545,327	258,25
545,57	258,44
545,813	259,64
546,056	259,35
546,299	259,9
546,542	259,93
546,785	259,59
547,028	260,32
547,271	258,81
547,514	257,75
547,756	254,7
547,999	254,86
548,242	253,28
548,485	250,83
548,728	248,74
548,971	243,94
549,213	243,8
549,456	242,85
549,699	242,47
549,942	240,26
550,184	238,64
550,427	236,58
550,67	235,25
550,912	230,08
551,155	231,61
551,398	229,66
551,64	228,53
551,883	228,12
552,125	227,74
552,368	226,38
552,61	223,32
552,853	223,31
553,095	221,45
553,338	220,27
553,58	219,54
553,823	216,14
554,065	218,3
554,308	213,9
554,55	209,66
554,792	208,54
555,035	207,31
555,277	205,7
555,519	204,98
555,762	203,63
556,004	205,02
556,246	203,48
556,488	203,83
556,731	199,39
556,973	199,18
557,215	197,06
557,457	196,54
557,699	198,6
557,941	194,57
558,183	193
558,426	195,25
558,668	191,41
558,91	191,37
559,152	190,81
559,394	188,6
559,636	189,61
559,878	190,58
560,12	189,58
560,362	190,48
560,604	190,39
560,845	189,19
561,087	186,88
561,329	187,51
561,571	184,86
561,813	184,14
562,055	183,34
562,297	181,86
562,538	181,09
562,78	182,54
563,022	180,85
563,264	180,95
563,505	180,08
563,747	178,26
563,989	176,38
564,23	175,36
564,472	174,15
564,714	175,88
564,955	175,52
565,197	171,33
565,438	173,83
565,68	176,91
565,921	174,63
566,163	175,19
566,404	173,96
566,646	175,66
566,887	177,91
567,129	177,01
567,37	174,33
567,612	176,17
567,853	173,37
568,094	173,65
568,336	173,65
568,577	174,1
568,818	174,83
569,06	172,09
569,301	170,7
569,542	171,05
569,783	171,57
570,025	170,27
570,266	169,77
570,507	169,72
570,748	168,88
570,989	169,24
571,23	171,37
571,472	171,04
571,713	170,01
571,954	169,92
572,195	167,13
572,436	167,37
572,677	168,88
572,918	170,97
573,159	167,42
573,4	164,25
573,641	161,85
573,882	160,97
574,123	156,94
574,364	152,03
574,604	151,83
574,845	149,18
575,086	148,16
575,327	146,96
575,568	144,58
575,809	143,25
576,049	141,61
576,29	139,14
576,531	143,07
576,771	146,02
577,012	147,26
577,253	146,49
577,494	146,9
577,734	145,68
577,975	145,31
578,215	144,04
578,456	140,72
578,697	139,55
578,937	139,9
579,178	137,84
579,418	135,94
579,659	135,42
579,899	131,39
580,14	129,31
580,38	126,87
580,62	126,14
580,861	128,74
581,101	128,86
581,342	127,29
581,582	122,89
581,822	123,75
582,063	122,41
582,303	122,83
582,543	122,16
582,783	122,65
583,024	123,64
583,264	124,95
583,504	122,66
583,744	122,63
583,984	118,12
584,224	116,75
584,465	113,79
584,705	113,24
584,945	112,39
585,185	110,92
585,425	110,46
585,665	108,36
585,905	107,45
586,145	106,9
586,385	104,72
586,625	107,58
586,865	106,76
587,105	105,98
587,345	108,42
587,585	107,31
587,824	104,38
588,064	103,69
588,304	101,64
588,544	100,17
588,784	99,23
589,024	102,91
589,263	100,7
589,503	98,22
589,743	100,9
589,982	98,27
590,222	97
590,462	93,08
590,701	90,04
590,941	91,32
591,181	90,07
591,42	89,32
591,66	90,05
591,899	92,76
592,139	92,09
592,378	91,82
592,618	90,37
592,857	88,76
593,097	89,42
593,336	88,83
593,576	87,28
593,815	87,45
594,055	86,52
594,294	86,18
594,533	85,76
594,773	83,82
595,012	85,13
595,251	85,56
595,491	86,95
595,73	88,73
595,969	89,09
596,208	88,51
596,447	91,7
596,687	93,2
596,926	93,17
597,165	88,16
597,404	91,38
597,643	90,37
597,882	90,11
598,121	90,71
598,36	91,79
598,599	93,29
598,838	92,94
599,077	89,62
599,316	88,54
599,555	88,32
599,794	87,62
600,033	89,27
600,272	90,81
600,511	89,31
600,75	90,49
600,989	92,29
601,228	91,39
601,466	90,3
601,705	90,58
601,944	90,11
602,183	90,01
602,422	88,55
602,66	86,83
602,899	84,87
603,138	83,53
603,376	83,23
603,615	83,81
603,854	81,1
604,092	81,03
604,331	82,54
604,569	83,76
604,808	81,54
605,047	82,91
605,285	83,39
605,524	82,72
605,762	80,02
606	80,19
606,239	80,27
606,477	79,12
606,716	77,32
606,954	76,28
607,193	73,3
607,431	70,07
607,669	68,1
607,908	67,67
608,146	69,17
608,384	66,57
608,622	67,56
608,861	66,79
609,099	66,1
609,337	66,16
609,575	65,82
609,813	66,39
610,052	68,07
610,29	64,24
610,528	62,48
610,766	62,49
611,004	62,22
611,242	61,82
611,48	61,37
611,718	59,33
611,956	58,7
612,194	58,12
612,432	57,05
612,67	55,89
612,908	56,39
613,146	55,42
613,384	54,57
613,621	54,15
613,859	55,2
614,097	53,82
614,335	53,35
614,573	55,81
614,811	57,49
615,048	56,34
615,286	56,71
615,524	54,97
615,761	52,51
615,999	50,67
616,237	49,6
616,474	49,68
616,712	49,9
616,95	49,33
617,187	49,3
617,425	48,47
617,662	49,77
617,9	48,69
618,137	45,8
618,375	44,41
618,612	41,19
618,85	41,26
619,087	42,54
619,325	42,53
619,562	40,82
619,799	39,02
620,037	39,21
620,274	37,58
620,511	38,72
620,749	35,55
620,986	34,18
621,223	31,87
621,461	31,78
621,698	33,14
621,935	30,79
622,172	29,14
622,409	31,83
622,647	30,79
622,884	29,58
623,121	32,48
623,358	31,33
623,595	30,81
623,832	32,16
624,069	31,57
624,306	31,34
624,543	31,39
624,78	31,21
625,017	31,16
625,254	33,39
625,491	34,78
625,728	37,93
625,965	37,86
626,202	37,76
626,438	37,11
626,675	37,07
626,912	38,84
627,149	39
627,386	38,5
627,622	38,16
627,859	37,71
628,096	39,35
628,333	39,14
628,569	39,86
628,806	41,55
629,043	38,7
629,279	40,91
629,516	42,72
629,752	39,36
629,989	41,35
630,225	39,61
630,462	39,1
630,699	39,05
630,935	40,11
631,171	37,63
631,408	37,66
631,644	37,49
631,881	35
632,117	33,46
632,354	34,76
632,59	33,56
632,826	32,76
633,063	30,7
633,299	33,24
633,535	30,99
633,771	30,13
634,008	30,54
634,244	32,11
634,48	31,73
634,716	33,1
634,953	33,72
635,189	34,08
635,425	33,4
635,661	36,52
635,897	35,54
636,133	34,72
636,369	35,09
636,605	31,73
636,841	30,83
637,077	32,43
637,313	31,18
637,549	32,61
637,785	33,06
638,021	34,79
638,257	32,95
638,493	34,79
638,729	32,91
638,965	35,29
639,2	36,89
639,436	37,86
639,672	37,32
639,908	34,66
640,144	39,57
640,379	41,6
640,615	38,09
640,851	39,43
641,086	40,03
641,322	39,69
641,558	38,24
641,793	37,86
642,029	35,45
642,264	33,54
642,5	33,93
642,736	32,29
642,971	31,33
643,207	30,57
643,442	30,58
643,678	31,82
643,913	32,64
644,148	31,59
644,384	32,36
644,619	32,86
644,855	32,79
645,09	32,68
645,325	31,52
645,561	32,34
645,796	29,87
646,031	32,42
646,266	30,1
646,502	29,25
646,737	30,98
646,972	30,7
647,207	31,39
647,442	28,03
647,678	23,9
647,913	27,22
648,148	27,72
648,383	26,43
648,618	25,05
648,853	25,05
649,088	27,77
649,323	31,93
649,558	33,75
649,793	33,58
650,028	33,77
650,263	30,72
650,498	32,76
650,733	30,58
650,968	29,02
651,202	30,59
651,437	29,57
651,672	27,22
651,907	25,39
652,142	26,66
652,376	26,57
652,611	27
652,846	27,79
653,081	28,05
653,315	26,75
653,55	26,28
653,785	24,95
654,019	25,38
654,254	22,89
654,488	24,56
654,723	22,65
654,958	22,66
655,192	20,37
655,427	18,59
655,661	19,37
655,896	22,14
656,13	23,18
656,364	21,75
656,599	17,84
656,833	23,53
657,068	24,86
657,302	25,37
657,536	24,34
657,771	25,27
658,005	26,47
658,239	27,45
658,474	25,56
658,708	26,75
658,942	26,22
659,176	25,07
659,41	22,01
659,645	21,69
659,879	21,84
660,113	19,31
660,347	18,28
660,581	17,52
660,815	17,7
661,049	17,04
661,283	14,09
661,517	13,93
661,751	12,34
661,985	11,13
662,219	13,26
662,453	12,76
662,687	14,32
662,921	11,96
663,155	11,93
663,389	5,95
663,622	3,32
663,856	3,92
664,09	-3,51
664,324	-4,34
664,558	-5,14
664,791	-4,85
665,025	-7,12
665,259	-7,5
665,492	-7,83
665,726	-4,63
665,96	-3,91
666,193	-3,99
666,427	-1,36
666,661	-2,06
666,894	-3,53
667,128	-3,46
667,361	-0,99
667,595	-1,47
667,828	-2,18
668,062	-3,73
668,295	-2,54
668,529	-1,91
668,762	-0,83
668,995	-1,73
669,229	1,73
669,462	1,79
669,695	2,89
669,929	0,68
670,162	2,2
670,395	-0,47
670,629	3,1
670,862	5,49
671,095	3,89
671,328	5,09
671,561	2,83
671,795	4,56
672,028	6,13
672,261	8,05
672,494	9,04
672,727	7,95
672,96	7,79
673,193	5,49
673,426	8,17
673,659	7,5
673,892	8,17
674,125	7,95
674,358	7,57
674,591	6,7
674,824	7,57
675,057	7,97
675,29	7,8
675,523	8,35
675,755	7,3
675,988	6,97
676,221	9,86
676,454	8,16
676,687	8,31
676,919	6,68
677,152	7,52
677,385	6,97
677,617	8,48
677,85	8,74
678,083	8,06
678,315	10,9
678,548	9,82
678,78	9,51
679,013	9,26
679,246	8,87
679,478	9,54
679,711	8,09
679,943	9,54
680,175	6,68
680,408	12,04
680,64	8,87
680,873	9,75
681,105	11,09
681,338	13,37
681,57	11,12
681,802	11,85
682,034	10,5
682,267	12,5
682,499	14,43
682,731	12,72
682,964	11,77
683,196	10,67
683,428	8,88
683,66	7,86
683,892	10,15
684,124	13,19
684,356	16,12
684,589	15,82
684,821	14,28
685,053	13,78
685,285	13,78
685,517	14,21
685,749	14,05
685,981	15,42
686,213	15,9
686,445	16,98
686,676	15,05
686,908	15,34
687,14	14,9
687,372	15,67
687,604	11,26
687,836	12,3
688,068	10,79
688,299	10,69
688,531	9,39
688,763	14,26
688,995	12,44
689,226	16,81
689,458	15,51
689,69	14,28
689,921	13,93
690,153	14,44
690,384	15,92
690,616	15,67
690,848	16,46
691,079	12,31
691,311	9,71
691,542	5,97
691,774	5,12
692,005	7,13
692,237	10,47
692,468	9,19
692,699	8,8
692,931	9,56
693,162	8,31
693,393	6,73
693,625	5,61
693,856	6,33
694,087	6,73
694,319	7,28
694,55	7,9
694,781	8,06
695,012	8,17
695,243	7,56
695,475	5,73
695,706	5,62
695,937	4,64
696,168	5,07
696,399	3,12
696,63	2,54
696,861	1,75
697,092	6,55
697,323	8,49
697,554	9,04
697,785	9,11
698,016	10,1
698,247	10,33
698,478	12,56
698,709	14,78
698,94	17,74
699,171	16,8
699,401	12,04
699,632	13,1
699,863	10,34
700,094	9,96
700,325	11,6
700,555	13,14
700,786	14,01
701,017	14,27
701,247	13,45
701,478	12,88
701,709	13,66
701,939	12,76
702,17	14,19
702,401	17,07
702,631	19,22
702,862	18,57
703,092	14,55
703,323	15,02
703,553	14,73
703,784	14,28
704,014	15,09
704,244	10,32
704,475	9,36
704,705	9
704,936	9,82
705,166	8,27
705,396	9,1
705,627	8,37
705,857	7,19
706,087	7,1
706,317	5,87
706,548	5,1
706,778	4,61
707,008	5,82
707,238	6,08
707,468	4,02
707,698	0,82
707,928	0,14
708,158	-0,81
708,389	-0,89
708,619	-1,74
708,849	-4,63
709,079	-4,64
709,309	-6,82
709,539	-10,3
709,768	-10
709,998	-8,45
710,228	-7,07
710,458	-6,58
710,688	-8
710,918	-7,84
711,148	-7,67
711,378	-6,7
711,607	-6,41
711,837	-5,24
712,067	-5,16
712,297	-4,56
712,526	-4,4
712,756	-3,93
712,986	-5,32
713,215	-6,81
713,445	-6,56
713,674	-5,19
713,904	-4,43
714,134	-3,01
714,363	-3,51
714,593	-3,28
714,822	-2,59
715,052	-2,88
715,281	-1,42
715,511	-2,18
715,74	-2,91
715,969	-2,07
716,199	-2,07
716,428	-1,2
716,657	-0,71
716,887	0,77
717,116	-1,44
717,345	-1,23
717,575	-1,66
717,804	-1,02
718,033	-0,81
718,262	-1,45
718,492	-1,22
718,721	-0,61
718,95	-1,62
719,179	-4,13
719,408	-3,55
719,637	-6,03
719,866	-7,15
720,095	-5,7
720,324	-7,66
720,553	-10,17
720,782	-11,37
721,011	-12,56
721,24	-14,52
721,469	-15,41
721,698	-15,96
721,927	-16,74
722,156	-18,37
722,385	-20,13
722,613	-17,29
722,842	-15,02
723,071	-12,22
723,3	-11,2
723,529	-12,55
723,757	-11,12
723,986	-15,09
724,215	-16,29
724,443	-14,18
724,672	-12,3
724,901	-11,79
725,129	-11,01
725,358	-9,31
725,586	-11,36
725,815	-12,08
726,043	-12,85
726,272	-13,09
726,5	-13,46
726,729	-12,87
726,957	-15,34
727,186	-16,67
727,414	-14,31
727,642	-11,51
727,871	-8,99
728,099	-8,87
728,327	-7,98
728,556	-6,34
728,784	-4,98
729,012	-4,97
729,241	-1,04
729,469	-1,98
729,697	-3,3
729,925	-5,33
730,153	-7,95
730,381	-8,61
730,61	-8,72
730,838	-10,88
731,066	-8,96
731,294	-7,44
731,522	-10,67
731,75	-13,95
731,978	-13,49
732,206	-15,23
732,434	-16,27
732,662	-14,23
732,89	-15,83
733,118	-16,29
733,346	-16,17
733,573	-15,34
733,801	-14,56
734,029	-9,33
734,257	-8,65
734,485	-6,13
734,712	-5,36
734,94	-7,72
735,168	-4,83
735,396	-4,68
735,623	-5,83
735,851	-5,09
736,078	-3,6
736,306	-4,07
736,534	-2,83
736,761	-3,12
736,989	-3,52
737,216	-3,19
737,444	-4,21
737,671	-1,96
737,899	1,52
738,126	0,33
738,354	-0,47
738,581	1
738,809	2,13
739,036	-1,12
739,263	0,05
739,491	-2,92
739,718	-3,96
739,945	0,23
740,173	2,04
740,4	2,43
740,627	-0,81
740,854	-1,38
741,081	-3,77
741,309	-5,38
741,536	-8,86
741,763	-9,88
741,99	-8,69
742,217	-8,99
742,444	-9,83
742,671	-9,15
742,898	-8,86
743,125	-10,11
743,352	-13,17
743,579	-14,67
743,806	-13,98
744,033	-11,92
744,26	-11,39
744,487	-12,46
744,714	-13,08
744,941	-13,43
745,167	-10,71
745,394	-11,38
745,621	-12,07
745,848	-11,96
746,075	-8,97
746,301	-5,55
746,528	-1,36
746,755	-2,3
746,981	-3,56
747,208	-2,11
747,435	-0,06
747,661	1,02
747,888	2,32
748,114	-0,11
748,341	3,37
748,567	3,84
748,794	2,71
749,02	1,71
749,247	-0,51
749,473	-0,93
749,7	-0,92
749,926	-2,36
750,152	0,92
750,379	0,71
750,605	2,09
750,831	1,05
751,058	-0,13
751,284	-3,47
751,51	-0,16
751,737	1,85
751,963	-0,03
752,189	-1,7
752,415	-1,16
752,641	-1,9
752,867	-2,34
753,094	-3,53
753,32	-5,31
753,546	-5,26
753,772	-2,71
753,998	-3,91
754,224	-5,15
754,45	-5,75
754,676	-6,41
754,902	-7,73
755,128	-6,61
755,354	-7,73
755,579	-6,37
755,805	-5,76
756,031	-7,04
756,257	-7,03
756,483	-6,38
756,709	-7,81
756,934	-8,07
757,16	-10,24
757,386	-9,06
757,612	-12,11
757,837	-13,49
758,063	-10,36
758,289	-5,41
758,514	-6,73
758,74	-10,74
758,965	-11,49
759,191	-10,26
759,416	-9,92
759,642	-8,17
759,868	-8,16
760,093	-6,69
760,318	-7,93
760,544	-9,13
760,769	-9,84
760,995	-10,2
761,22	-9,92
761,445	-8,28
761,671	-4,24
761,896	-0,89
762,121	-0,16
762,347	-0,47
762,572	-2,26
762,797	-1,9
763,022	-1,11
763,248	2,16
763,473	2,56
763,698	2,01
763,923	2,32
764,148	2,18
764,373	2,21
764,598	4,72
764,823	6,6
765,048	2,52
765,273	-1,52
765,498	-2,77
765,723	-2,26
765,948	-2,31
766,173	-3,25
766,398	-2,66
766,623	-5,36
766,848	-4,97
767,073	-6,23
767,298	-6,27
767,522	-6,77
767,747	-5,96
767,972	-5,62
768,197	-6,67
768,421	-8,34
768,646	-12,48
768,871	-15,96
769,095	-16,27
769,32	-15,66
769,545	-15,62
769,769	-14,52
769,994	-13,32
770,218	-16,27
770,443	-15,04
770,667	-14,57
770,892	-14,9
771,116	-16,03
771,341	-14,75
771,565	-15,58
771,79	-15,17
772,014	-15,65
772,238	-15,35
772,463	-12,33
772,687	-11,17
772,911	-10,75
773,136	-12,75
773,36	-11,46
773,584	-8,25
773,808	-10,02
774,033	-10,23
774,257	-10
774,481	-9,18
774,705	-10,02
774,929	-10,11
775,153	-9,3
775,377	-8,84
775,602	-8,17
775,826	-7,1
776,05	-5,98
776,274	-7,64
776,498	-7,25
776,722	-8,25
776,945	-6,61
777,169	-5,94
777,393	-7,35
777,617	-8,04
777,841	-6,88
778,065	-4,46
778,289	-6,91
778,512	-7,51
778,736	-6,9
778,96	-6,27
779,184	-5,57
779,407	-7,26
779,631	-7,09
779,855	-7,75
780,078	-4,39
780,302	-6,47
780,526	-9,22
780,749	-9,11
780,973	-7,93
781,196	-8,35
781,42	-10,39
781,643	-10,69
781,867	-10,05
782,09	-12,43
782,314	-12,49
782,537	-13,51
782,76	-14,57
782,984	-13,75
783,207	-12,91
783,431	-12,57
783,654	-13,36
783,877	-16,04
784,1	-17,55
784,324	-19,24
784,547	-18,8
784,77	-21,95
784,993	-24,88
785,216	-25,46
785,44	-23,88
785,663	-25,46
785,886	-23,92
786,109	-22,76
786,332	-22,31
786,555	-21,42
786,778	-19,88
787,001	-21,32
787,224	-19,93
787,447	-19,43
787,67	-17,22
787,893	-17,33
788,116	-16,52
788,339	-15,48
788,561	-15,83
788,784	-18,31
789,007	-18,7
789,23	-18,36
789,453	-17,32
789,675	-19,05
789,898	-20,94
790,121	-22,53
790,344	-23,85
790,566	-24,26
790,789	-23,54
791,012	-22,27
791,234	-20,08
791,457	-16,43
791,679	-15,02
791,902	-13,27
792,124	-11,58
792,347	-13,59
792,569	-13,7
792,792	-15,71
793,014	-13,46
793,237	-12,41
793,459	-13,44
793,681	-14,31
793,904	-15,27
794,126	-15,6
794,348	-14,41
794,571	-13,4
794,793	-14,56
795,015	-14,83
795,237	-14,15
795,46	-14,21
795,682	-13,43
795,904	-11,08
796,126	-14,46
796,348	-15,07
796,57	-10,58
796,792	-9,47
797,014	-6,98
797,237	-4,62
797,459	-2,5
797,681	-1,76
797,903	-3,1
798,124	-2,34
798,346	7,36
798,568	7,85
798,79	10,14
799,012	11,04
799,234	12,65
799,456	13,79
799,678	16,03
799,899	13,35
800,121	12,13
800,343	11,32
800,565	11,58
800,786	13,18
801,008	13,93
801,23	13,44
801,451	13,25
801,673	11,45
801,895	10,64
802,116	11,63
802,338	13,32
802,559	13,15
802,781	11,37
803,002	14,27
803,224	16,1
803,445	13,79
803,667	14,6
803,888	13,39
804,109	12,82
804,331	13,08
804,552	13,49
804,773	14,74
804,995	12,33
805,216	-0,41
805,437	-1,06
805,658	-3,62
805,88	-5,02
806,101	-5,32
806,322	-5,67
806,543	-7,6
806,764	-9,42
806,985	-8,89
807,207	-7,17
807,428	-5,98
807,649	-8,78
807,87	-10,44
808,091	-9,48
808,312	-10,22
808,533	-5,11
808,754	-3,4
808,975	-4,69
809,195	-3,2
809,416	-2,96
809,637	-2,91
809,858	-4,94
810,079	-6,55
810,3	-6,11
810,52	-7,18
810,741	-8,07
810,962	-9,33
811,183	-10,36
811,403	-11,6
811,624	-12,35
811,845	-11,27
812,065	-10,87
812,286	-9,97
812,506	-10,24
812,727	-10,23
812,948	-9,05
813,168	-7,76
813,389	-8,03
813,609	-5,63
813,83	-7,05
814,05	-7,62
814,27	-6,97
814,491	-3,65
814,711	-4,51
814,931	-7,99
815,152	-8,55
815,372	-10,31
815,592	-11,48
815,813	-12,9
816,033	-13,26
816,253	-12,41
816,473	-13,76
816,694	-11,94
816,914	-10,08
817,134	-10,66
817,354	-12,2
817,574	-11,86
817,794	-12,47
818,014	-13,15
818,234	-12,59
818,454	-13,14
818,674	-15,09
818,894	-16,55
819,114	-14,7
819,334	-12,37
819,554	-9,84
819,774	-8,79
819,994	-10,34
820,214	-10,31
820,433	-10,52
820,653	-10,19
820,873	-9,03
821,093	-9,81
821,312	-11,89
821,532	-9,59
821,752	-6,57
821,972	-7,43
822,191	-5,79
822,411	-7,13
822,63	-6,32
822,85	-7,64
823,07	-9,21
823,289	-7,13
823,509	-8,5
823,728	-7,89
823,948	-8,75
824,167	-8,03
824,387	-8,55
824,606	-6,64
824,825	-8,46
825,045	-8,87
825,264	-8,58
825,483	-5,75
825,703	-3,98
825,922	-6,36
826,141	-8,32
826,361	-10,56
826,58	-13,36
826,799	-15,17
827,018	-14,09
827,237	-14,44
827,456	-13,2
827,676	-14,3
827,895	-13,11
828,114	-11,4
828,333	-11,23
828,552	-11,63
828,771	-9,68
828,99	-12,83
829,209	-11,36
829,428	-9,63
829,647	-9,76
829,866	-8,38
830,084	-8,64
830,303	-9,04
830,522	-10,42
830,741	-8,45
830,96	-8,51
831,179	-7,72
831,397	-9,41
831,616	-8,41
831,835	-7,48
832,053	-7,44
832,272	-7,86
832,491	-7,08
832,709	-7,67
832,928	-6,83
833,147	-5,32
833,365	-4,41
833,584	-1,93
833,802	-0,25
834,021	0,35
834,239	1,18
834,458	0,27
834,676	-3,91
834,894	-5,79
835,113	-6,37
835,331	-6,41
835,55	-7,72
835,768	-6,77
835,986	-5,77
836,204	-7,04
836,423	-6,54
836,641	-7,81
836,859	-9,94
837,077	-8,36
837,296	-8,03
837,514	-9,67
837,732	-10,41
837,95	-13
838,168	-11,23
838,386	-10,5
838,604	-9,6
838,822	-8,39
839,04	-9,3
839,258	-8,97
839,476	-6,65
839,694	-7,12
839,912	-8,03
840,13	-7,78
840,348	-6,26
840,566	-9,12
840,783	-8,05
841,001	-9,42
841,219	-8,13
841,437	-6,32
841,655	-5,25
841,872	-4,82
842,09	-5,51
842,308	-3,61
842,525	-3,33
842,743	-3,44
842,961	-4,06
843,178	-6,62
843,396	-3,74
843,613	-1,38
843,831	0,28
844,048	-0,53
844,266	0,37
844,483	0,73
844,701	1,49
844,918	1,23
845,136	0,31
845,353	-1,66
845,57	-1,25
845,788	2,14
846,005	0,77
846,222	-1,15
846,439	0
846,657	-0,32
846,874	-0,55
847,091	-2,81
847,308	-0,62
847,526	-2,58
847,743	-2,86
847,96	-4,95
848,177	-6,27
848,394	-7,65
848,611	-8,9
848,828	-9,47
849,045	-11,34
849,262	-12,24
849,479	-12,81
849,696	-14,27
849,913	-15,3
850,13	-18,94
850,347	-16,73
850,564	-18,59
850,78	-19,21
850,997	-21
851,214	-20,32
851,431	-19,56
851,647	-21,84
851,864	-21,82
852,081	-19,12
852,298	-22,74
852,514	-25,66
852,731	-25,14
852,948	-22,82
853,164	-23,31
853,381	-23,24
853,597	-23,99
853,814	-24,27
854,03	-26,95
854,247	-25,03
854,463	-24,71
854,68	-23,77
854,896	-21,46
855,113	-20,58
855,329	-20,18
855,545	-18,75
855,762	-19,75
855,978	-21,72
856,194	-23,26
856,411	-18,86
856,627	-17,38
856,843	-16,72
857,059	-14,83
857,275	-15,54
857,492	-13,88
857,708	-10,91
857,924	-10,65
858,14	-9,9
858,356	-11,25
858,572	-10,66
858,788	-12,3
859,004	-10,53
859,22	-11,4
859,436	-10,2
859,652	-11,97
859,868	-12,38
860,084	-12,99
860,3	-12,23
860,516	-12,92
860,731	-12,41
860,947	-14,96
861,163	-13,44
861,379	-13,32
861,595	-13,45
861,81	-12,21
862,026	-11,3
862,242	-11,04
862,457	-9,75
862,673	-8,12
862,889	-7,5
863,104	-10,1
863,32	-8,71
863,535	-6,87
863,751	-11,88
863,966	-9,56
864,182	-8,98
864,397	-10,54
864,613	-10,87
864,828	-10,56
865,044	-8,96
865,259	-7,48
865,474	-8,48
865,69	-6,72
865,905	-5,49
866,12	-8,41
866,336	-8,15
866,551	-7,74
866,766	-8,7
866,981	-9,66
867,196	-8,33
867,412	-8,1
867,627	-7,72
867,842	-9,68
868,057	-10,06
868,272	-9,9
868,487	-12,26
868,702	-14,64
868,917	-14,5
869,132	-14,33
869,347	-13
869,562	-12,97
869,777	-12,3
869,992	-13,07
870,207	-15,23
870,422	-14,76
870,636	-16,8
870,851	-17,88
871,066	-19,02
871,281	-18,89
871,495	-19,54
871,71	-15,24
871,925	-17,5
872,14	-17,22
872,354	-18,75
872,569	-19,38
872,783	-16,65
872,998	-16,95
873,213	-17,16
873,427	-13,85
873,642	-12,78
873,856	-13,15
874,071	-14,16
874,285	-14,18
874,5	-15,17
874,714	-16,44
874,928	-17,71
875,143	-16,87
875,357	-16,14
875,571	-17,66
875,786	-17,16
876	-15,41
876,214	-14,41
876,429	-17,07
876,643	-16,86
876,857	-14,64
877,071	-13,9
877,285	-14,29
877,499	-16,6
877,714	-14,37
877,928	-13,63
878,142	-14,88
878,356	-18,36
878,57	-17,45
878,784	-15,81
878,998	-16,93
879,212	-15,77
879,426	-17,94
879,639	-17,19
879,853	-17,43
880,067	-18,2
880,281	-18,54
880,495	-17,07
880,709	-13,78
880,922	-13,67
881,136	-11,66
881,35	-9,63
881,564	-8,75
881,777	-9,9
881,991	-9,46
882,205	-6,88
882,418	-7,51
882,632	-9,97
882,845	-11,1
883,059	-9,01
883,273	-9,28
883,486	-11,26
883,7	-9,59
883,913	-9,38
884,126	-7,47
884,34	-10,27
884,553	-13,17
884,767	-8,91
884,98	-8,79
885,193	-9,56
885,407	-11,16
885,62	-9,1
885,833	-9,76
886,046	-8,33
886,26	-8,53
886,473	-9,88
886,686	-9,68
886,899	-9,21
887,112	-11,47
887,326	-14,37
887,539	-13,21
887,752	-12,37
887,965	-14,16
888,178	-13,84
888,391	-12,61
888,604	-12,2
888,817	-14,91
889,03	-13,75
889,243	-14,48
889,455	-15,69
889,668	-15,25
889,881	-12,24
890,094	-12,28
890,307	-14,89
890,52	-14,63
890,732	-13,99
890,945	-13,72
891,158	-12,34
891,37	-15,65
891,583	-14,95
891,796	-13,76
892,008	-15,01
892,221	-17,14
892,434	-20,09
892,646	-21,53
892,859	-22,13
893,071	-19,18
893,284	-19,54
893,496	-20,86
893,709	-20,08
893,921	-17,77
894,133	-18,96
894,346	-20,05
894,558	-19,31
894,771	-19,13
894,983	-18,09
895,195	-18,76
895,407	-17,55
895,62	-19,71
895,832	-19,31
896,044	-17,84
896,256	-18,84
896,468	-21,34
896,681	-20,24
896,893	-18,88
897,105	-18,2
897,317	-19,38
897,529	-17,72
897,741	-17,06
897,953	-14,79
898,165	-16,17
898,377	-16,82
898,589	-15,28
898,801	-15,06
899,013	-11,25
899,224	-8,68
899,436	-7,33
899,648	-9,46
899,86	-10,07
900,072	-6,55
900,283	-5,54
900,495	-4,5
900,707	-4,6
900,919	-6,86
901,13	-6,74
901,342	-8,61
901,554	-8,84
901,765	-9,39
901,977	-10,51
902,188	-10,97
902,4	-11,2
902,611	-12,32
902,823	-13,96
903,034	-15,14
903,246	-16,17
903,457	-17,75
903,669	-19,17
903,88	-18,88
904,091	-19,93
904,303	-18,91
904,514	-19,89
904,725	-18,24
904,936	-17,82
905,148	-17,8
905,359	-15,4
905,57	-17,84
905,781	-18,86
905,992	-18,88
906,204	-18,44
906,415	-18,18
906,626	-20,63
906,837	-19,48
907,048	-21,15
907,259	-20,69
907,47	-20,29
907,681	-20,74
907,892	-18,2
908,103	-20,12
908,314	-20,06
908,525	-18,61
908,735	-18,92
908,946	-18,83
909,157	-18,46
909,368	-16,48
909,579	-15,19
909,789	-16,7
910	-15,77
910,211	-13,97
910,421	-14,52
910,632	-12
910,843	-15,12
911,053	-12,39
911,264	-10,92
911,475	-11,78
911,685	-11,98
911,896	-12,05
912,106	-10,41
912,317	-13,04
912,527	-12,8
912,737	-14,01
912,948	-13,32
913,158	-12,41
913,369	-13,81
913,579	-11,83
913,789	-11,58
914	-9,89
914,21	-9,14
914,42	-9,65
914,63	-10,02
914,841	-9,67
915,051	-9,62
915,261	-8,12
915,471	-7,08
915,681	-5,92
915,891	-4,85
916,101	-4,82
916,311	-3,52
916,521	-3,22
916,731	-2,44
916,941	-0,6
917,151	-3,02
917,361	-0,89
917,571	-4,92
917,781	-6,21
917,991	-7,94
918,201	-7,94
918,411	-10,36
918,621	-11,61
918,83	-9,99
919,04	-10,88
919,25	-8,61
919,46	-6,74
919,669	-9,07
919,879	-8,97
920,089	-10,88
920,298	-11,09
920,508	-10,79
920,717	-10,24
920,927	-12,43
921,136	-11,03
921,346	-12,46
921,555	-14,4
921,765	-14,83
921,974	-15,25
922,184	-18,7
922,393	-18,75
922,603	-20,77
922,812	-20,21
923,021	-21,47
923,23	-23,91
923,44	-26,54
923,649	-26,24
923,858	-26,57
924,067	-26,18
924,277	-27,35
924,486	-25,6
924,695	-26,76
924,904	-26,06
925,113	-25,16
925,322	-24,57
925,531	-23,15
925,74	-24,44
925,949	-26,98
926,158	-24,68
926,367	-25,15
926,576	-24,48
926,785	-25,26
926,994	-26,17
927,203	-25,76
927,412	-24,6
927,621	-25,3
927,83	-23,26
928,038	-22,64
928,247	-21,84
928,456	-22,74
928,665	-20,22
928,873	-19,83
929,082	-16,63
929,291	-15,73
929,499	-13,41
929,708	-14,03
929,916	-12,15
930,125	-13,98
930,333	-14,7
930,542	-13,06
930,75	-10,77
930,959	-10,41
931,167	-9,48
931,376	-8,27
931,584	-6,91
931,793	-5,81
932,001	-8,46
932,209	-9,48
932,418	-11,22
932,626	-12,81
932,834	-13,43
933,042	-16,53
933,251	-16,67
933,459	-15,88
933,667	-17,03
933,875	-17,38
934,083	-16,17
934,291	-14,04
934,499	-12,8
934,707	-13,67
934,915	-13,73
935,123	-12,68
935,331	-14,52
935,539	-17,04
935,747	-17,46
935,955	-18,85
936,163	-18,08
936,371	-17,89
936,579	-14,64
936,787	-14,82
936,995	-15,26
937,202	-17,55
937,41	-16,4
937,618	-16,79
937,826	-17,04
938,033	-21,11
938,241	-22,59
938,449	-19,1
938,656	-18,22
938,864	-18,07
939,071	-18,06
939,279	-15,68
939,486	-12,29
939,694	-12,77
939,901	-14,46
940,109	-13,54
940,316	-12,91
940,524	-13,4
940,731	-16,67
940,939	-17,12
941,146	-17,21
941,353	-16,26
941,561	-15,42
941,768	-15,27
941,975	-14,56
942,182	-15,57
942,39	-15,34
942,597	-12,48
942,804	-13,64
943,011	-13,84
943,218	-12,3
943,425	-13,93
943,632	-14,72
943,839	-17,39
944,046	-18,67
944,253	-19,32
944,46	-18,81
944,667	-15,95
944,874	-17,73
945,081	-14,36
945,288	-12,71
945,495	-11,14
945,702	-12,69
945,909	-14,85
946,115	-13,7
946,322	-14,64
946,529	-15,99
946,736	-15,75
946,942	-14,79
947,149	-14,27
947,356	-14,24
947,562	-15,45
947,769	-17,32
947,976	-18,94
948,182	-17,8
948,389	-18,88
948,595	-16,88
948,802	-16,83
949,008	-18,36
949,215	-17,03
949,421	-18,01
949,628	-18,66
949,834	-17,63
950,04	-17,07
950,247	-12,13
950,453	-10,24
950,659	-11,44
950,865	-9,33
951,072	-13,16
951,278	-11,38
951,484	-14,28
951,69	-16,48
951,896	-17,31
952,103	-17,56
952,309	-17,19
952,515	-16,45
952,721	-13,96
952,927	-12,59
953,133	-14,02
953,339	-14,28
953,545	-12,93
953,751	-13,1
953,957	-11,01
954,163	-12,75
954,369	-13,01
954,574	-14,44
954,78	-14,57
954,986	-14,93
955,192	-13,38
955,398	-14,69
955,603	-16,55
955,809	-16,02
956,015	-15,77
956,22	-15,28
956,426	-13,97
956,632	-16,53
956,837	-16,33
957,043	-15,04
957,248	-14,36
957,454	-14,15
957,66	-15,36
957,865	-15,04
958,07	-13,16
958,276	-14,32
958,481	-15,52
958,687	-16,39
958,892	-16,64
959,097	-16,34
959,303	-16,93
959,508	-17,14
959,713	-17,04
959,919	-17,46
960,124	-16,95
960,329	-16,36
960,534	-12,57
960,739	-11,48
960,945	-9,75
961,15	-9,77
961,355	-11,78
961,56	-15,96
961,765	-17,21
961,97	-18,09
962,175	-14,82
962,38	-16,98
962,585	-16,51
962,79	-18,09
962,995	-19,55
963,2	-20,6
963,404	-21,38
963,609	-23,82
963,814	-24,19
964,019	-27,39
964,224	-29,09
964,428	-28,74
964,633	-28,01
964,838	-26,49
965,042	-25,92
965,247	-27,09
965,452	-28,23
965,656	-26,84
965,861	-25,58
966,066	-27,29
966,27	-25,75
966,475	-23,09
966,679	-26,11
966,884	-25,85
967,088	-27,01
967,292	-27,67
967,497	-25,64
967,701	-25,24
967,906	-22,65
968,11	-19,8
968,314	-14,93
968,518	-17,92
968,723	-15,42
968,927	-14,79
969,131	-14,46
969,335	-13,25
969,539	-12,56
969,744	-9,94
969,948	-6,1
970,152	-4,86
970,356	-4,77
970,56	-4,14
970,764	-4,99
970,968	-2,3
971,172	-1,75
971,376	-1,09
971,58	0,49
971,784	1,53
971,988	0,3
972,192	2,52
972,395	1,55
972,599	-0,92
972,803	-3,94
973,007	-2,52
973,21	-2,51
973,414	-2,31
973,618	-3,31
973,822	-4,22
974,025	-3,71
974,229	-4,28
974,432	-7,3
974,636	-10,74
974,84	-10,16
975,043	-11,49
975,247	-13,37
975,45	-13,55
975,654	-12,31
975,857	-12,06
976,06	-14,54
976,264	-16,6
976,467	-15,87
976,671	-14,47
976,874	-13,68
977,077	-15,41
977,28	-17,15
977,484	-19,18
977,687	-19,6
977,89	-19,47
978,093	-20,42
978,297	-19,73
978,5	-23,05
978,703	-21,41
978,906	-20,51
979,109	-19,51
979,312	-18,09
979,515	-18,53
979,718	-20
979,921	-20,08
980,124	-21,64
980,327	-22,07
980,53	-21,41
980,733	-19,93
980,936	-17,06
981,138	-18,2
981,341	-16,73
981,544	-17,02
981,747	-16,99
981,949	-17,8
982,152	-18,02
982,355	-17,63
982,558	-15,33
982,76	-17,14
982,963	-17,66
983,165	-17,85
983,368	-16,45
983,571	-16,61
983,773	-13,98
983,976	-13,87
984,178	-13,52
984,381	-13,56
984,583	-16,09
984,785	-16,36
984,988	-14,37
985,19	-13,4
985,392	-15,5
985,595	-18,44
985,797	-17,38
985,999	-13,97
986,202	-11,72
986,404	-11,64
986,606	-8,39
986,808	-9,94
987,01	-8,32
987,212	-9,29
987,415	-10,32
987,617	-10,5
987,819	-9,25
988,021	-8,96
988,223	-10,56
988,425	-9,6
988,627	-10,02
988,829	-14,26
989,031	-13,34
989,232	-13,92
989,434	-12,9
989,636	-12,68
989,838	-12,93
990,04	-13,14
990,242	-13,52
990,443	-14,46
990,645	-12,12
990,847	-10,75
991,048	-9,48
991,25	-11,36
991,452	-12
991,653	-12,44
991,855	-11,43
992,057	-13,21
992,258	-12,51
992,46	-13,16
992,661	-12,08
992,863	-13,71
993,064	-12,93
993,265	-14,32
993,467	-17,07
993,668	-15,35
993,87	-14,76
994,071	-15,6
994,272	-14,44
994,473	-12,85
994,675	-13,29
994,876	-11,72
995,077	-10,96
995,278	-9,53
995,48	-8,77
995,681	-9,77
995,882	-7,65
996,083	-8,63
996,284	-12,18
996,485	-12,13
996,686	-14,04
996,887	-15,68
997,088	-17,75
997,289	-19,86
997,49	-19,61
997,691	-19,72
997,892	-18,42
998,092	-13,93
998,293	-13,4
998,494	-15,56
998,695	-16,72
998,896	-14,73
999,096	-15,35
999,297	-14,45
999,498	-15,16
999,698	-15,77
999,899	-17,38
1000,1	-19,51
1000,3	-19,49
1000,501	-21,15
1000,701	-22,42
1000,902	-23,54
1001,102	-23,88
1001,303	-21,56
1001,503	-23,35
1001,704	-22,25
1001,904	-25,07
1002,105	-25,81
1002,305	-25,05
1002,505	-24,11
1002,706	-24,28
1002,906	-23,51
1003,106	-23,56
1003,306	-22,37
1003,507	-20,47
1003,707	-21,09
1003,907	-18,88
1004,107	-18,17
1004,307	-21,07
1004,507	-19,92
1004,707	-20,77
1004,907	-22,31
1005,107	-23,34
1005,308	-22,66
1005,507	-23,84
1005,707	-21,37
1005,907	-21,79
1006,107	-19,02
1006,307	-17,16
1006,507	-17,81
1006,707	-16,29
1006,907	-14,55
1007,106	-13,67
1007,306	-15,74
1007,506	-16,54
1007,706	-16,97
1007,905	-18,55
1008,105	-15,74
1008,305	-15,58
1008,504	-15,18
1008,704	-10,83
1008,903	-10,06
1009,103	-8,25
1009,303	-10,4
1009,502	-8,18
1009,702	-7,4
1009,901	-7,47
1010,1	-10,56
1010,3	-9,75
1010,499	-10,89
1010,699	-12,75
1010,898	-13,11
1011,097	-11,34
1011,296	-11,58
1011,496	-12,48
1011,695	-12,42
1011,894	-14,61
1012,093	-11,21
1012,293	-13,01
1012,492	-12,9
1012,691	-13,51
1012,89	-14,74
1013,089	-17,14
1013,288	-16,87
1013,487	-15,36
1013,686	-15,22
1013,885	-15,15
1014,084	-14,01
1014,283	-15,36
1014,482	-17,59
1014,681	-17,37
1014,88	-20,73
1015,078	-19,88
1015,277	-22,58
1015,476	-21,77
1015,675	-23,04
1015,873	-23,11
1016,072	-23,95
1016,271	-21,56
1016,47	-24,83
1016,668	-24
1016,867	-24,94
1017,065	-26,23
1017,264	-26,81
1017,463	-27,29
1017,661	-28,24
1017,86	-27,9
1018,058	-26,06
1018,256	-27,62
1018,455	-28,21
1018,653	-29,62
1018,852	-27,14
1019,05	-27,86
1019,248	-28,3
1019,447	-29,11
1019,645	-29,21
1019,843	-30,88
1020,041	-30,66
1020,24	-31,23
1020,438	-27,61
1020,636	-27,55
1020,834	-28,88
1021,032	-27,89
1021,23	-28,59
1021,428	-26,9
1021,626	-23,99
1021,824	-23,73
1022,022	-24,43
1022,22	-21,73
1022,418	-21,27
1022,616	-20,39
1022,814	-21,5
1023,012	-21,65
1023,21	-18,86
1023,408	-19,39
1023,606	-19,89
1023,803	-15,83
1024,001	-15,92
1024,199	-18,63
1024,397	-18,33
1024,594	-18,52
1024,792	-19,51
1024,99	-19,66
1025,187	-18,46
1025,385	-14,19
1025,582	-14,18
1025,78	-15,05
1025,977	-14,26
1026,175	-13,93
1026,372	-13,53
1026,57	-15,82
1026,767	-13,28
1026,965	-11,9
1027,162	-11,47
1027,359	-12,43
1027,557	-12,08
1027,754	-15,35
1027,951	-16,71
1028,148	-15,19
1028,346	-17,47
1028,543	-19,35
1028,74	-21,61
1028,937	-23,11
1029,134	-22,97
1029,331	-23,57
1029,528	-22,79
1029,725	-21,85
1029,923	-23,99
1030,12	-21,08
1030,317	-20,29
1030,513	-18,05
1030,71	-16,28
1030,907	-12,95
1031,104	-13,87
1031,301	-15,26
1031,498	-16,53
1031,695	-16,81
1031,892	-15,87
1032,088	-14,75
1032,285	-16,33
1032,482	-18,01
1032,678	-19,84
1032,875	-23,33
1033,072	-24,17
1033,268	-24,53
1033,465	-23,59
1033,662	-25,07
1033,858	-24,96
1034,055	-23,51
1034,251	-21,77
1034,448	-21,75
1034,644	-21,39
1034,84	-16,61
1035,037	-14,88
1035,233	-15,33
1035,43	-15,25
1035,626	-16,03
1035,822	-16,78
1036,019	-17,53
1036,215	-22,46
1036,411	-22,81
1036,607	-24,89
1036,803	-27,61
1037	-29,09
1037,196	-29,87
1037,392	-30,56
1037,588	-32,94
1037,784	-31,45
1037,98	-31,92
1038,176	-33,32
1038,372	-33,31
1038,568	-31,06
1038,764	-29,16
1038,96	-25,34
1039,156	-25,69
1039,352	-26,97
1039,547	-25,45
1039,743	-24,36
1039,939	-21,82
1040,135	-22,73
1040,331	-25,03
1040,526	-23,02
1040,722	-23,13
1040,918	-25,91
1041,113	-28,58
1041,309	-27,99
1041,505	-29,72
1041,7	-29,37
1041,896	-28,86
1042,091	-29,24
1042,287	-26,89
1042,482	-26,03
1042,678	-26,09
1042,873	-24,55
1043,069	-25,31
1043,264	-24,66
1043,459	-22,75
1043,655	-21,25
1043,85	-22,46
1044,045	-21,67
1044,24	-21,07
1044,436	-18,65
1044,631	-19,58
1044,826	-20,35
1045,021	-23,6
1045,216	-23,14
