Data from FLMT021711__9__17-06-08-425.txt Node

Date: Tue Nov 05 17:06:08 CET 2024
User: Etudiants TP
Spectrometer: FLMT02171
Trigger mode: 0
Integration Time (sec): 1,000000E-1
Scans to average: 5
Electric dark correction enabled: true
Nonlinearity correction enabled: false
Boxcar width: 15
XAxis mode: Wavelengths
Number of Pixels in Spectrum: 3648
>>>>>Begin Spectral Data<<<<<
194,658	-51,91
194,923	-51,94
195,188	-44,93
195,453	-44,59
195,717	-39,97
195,982	-38,31
196,247	-35,35
196,512	-36,96
196,777	-35,85
197,042	-35,24
197,307	-35,33
197,572	-32,03
197,837	-31,19
198,101	-28,88
198,366	-26,05
198,631	-24,89
198,896	-20,11
199,161	-13,78
199,425	-6,78
199,69	2,4
199,955	0,63
200,22	-2,38
200,484	-2,85
200,749	-4,04
201,014	-3,03
201,278	-2,29
201,543	-0,66
201,807	-1,33
202,072	-0,37
202,337	-0,25
202,601	-0,03
202,866	-0,49
203,13	0,53
203,395	-1,93
203,659	-1,44
203,924	-3,38
204,189	-3,26
204,453	-3,33
204,717	-1,1
204,982	0,2
205,246	1,34
205,511	3,49
205,775	2,6
206,04	7,19
206,304	7,2
206,568	8
206,833	8,62
207,097	9,18
207,361	9,59
207,626	12,11
207,89	12,27
208,154	13,63
208,419	15,09
208,683	15,34
208,947	18,12
209,211	18,47
209,476	18,33
209,74	19,27
210,004	19,96
210,268	20,02
210,532	23,42
210,796	23,56
211,061	23,17
211,325	24,6
211,589	24,11
211,853	24,46
212,117	26,03
212,381	26,01
212,645	25,44
212,909	24,75
213,173	23,11
213,437	23,96
213,701	24,03
213,965	25,23
214,229	20,18
214,493	19,03
214,757	18,44
215,021	18,21
215,285	22,49
215,549	25,3
215,813	23,09
216,077	22,28
216,34	24,04
216,604	23,06
216,868	22,75
217,132	23,91
217,396	23,56
217,659	23,63
217,923	19,04
218,187	19,31
218,451	19,32
218,714	16,42
218,978	16,52
219,242	18,3
219,505	18,13
219,769	18,75
220,033	18,86
220,296	19,06
220,56	20,44
220,824	20,55
221,087	22,14
221,351	22,33
221,614	20,68
221,878	21,66
222,142	20,26
222,405	20,19
222,669	23,32
222,932	19,84
223,196	18,36
223,459	15,03
223,722	16,08
223,986	14,62
224,249	14,45
224,513	13,89
224,776	14,8
225,04	14,62
225,303	13,41
225,566	12,76
225,83	13,1
226,093	15,73
226,356	13,71
226,62	12,04
226,883	14,4
227,146	14,54
227,409	14
227,673	13,67
227,936	12,62
228,199	13,53
228,462	12,1
228,725	10,49
228,989	9,65
229,252	9,45
229,515	13,18
229,778	12,7
230,041	11,51
230,304	9,78
230,567	11,16
230,83	8,96
231,093	11,12
231,356	11,06
231,619	17,31
231,882	16,08
232,145	19,17
232,408	18,23
232,671	17,54
232,934	17,02
233,197	17,4
233,46	16,21
233,723	16,89
233,986	16,75
234,249	14,57
234,512	16,71
234,775	20,47
235,037	18,22
235,3	18,73
235,563	18,92
235,826	19,38
236,089	21,66
236,351	20,46
236,614	22,32
236,877	22,7
237,14	24,61
237,402	24,4
237,665	19,84
237,928	19,68
238,19	18,15
238,453	20,88
238,716	19,51
238,978	19,76
239,241	17,66
239,503	19,58
239,766	14
240,029	12,15
240,291	14,28
240,554	13,14
240,816	13,66
241,079	13,48
241,341	13,07
241,604	12,43
241,866	9,5
242,129	9,71
242,391	11,52
242,653	11,59
242,916	10,88
243,178	11,18
243,441	11,81
243,703	10,94
243,965	9,35
244,228	9,96
244,49	9,32
244,752	10,28
245,015	11,76
245,277	13,18
245,539	12,49
245,801	13,66
246,064	14,13
246,326	13,04
246,588	12,18
246,85	15,02
247,112	16,05
247,374	18,23
247,637	20,46
247,899	22,26
248,161	21,48
248,423	17,12
248,685	19,88
248,947	19,42
249,209	20,41
249,471	20,41
249,733	21,16
249,995	20,29
250,257	19,05
250,519	17,97
250,781	19,82
251,043	18,35
251,305	19,21
251,567	19,96
251,829	19,96
252,091	19,3
252,353	14,57
252,615	14,91
252,876	12,68
253,138	10,06
253,4	5,95
253,662	7,33
253,924	8,93
254,185	10,09
254,447	10,44
254,709	10,48
254,971	10,8
255,232	10,98
255,494	11,07
255,756	9,31
256,017	8,49
256,279	9,37
256,541	8,85
256,802	7,93
257,064	7,67
257,326	6,47
257,587	6,76
257,849	8,02
258,11	11,11
258,372	13,3
258,633	13,96
258,895	12,29
259,156	10,46
259,418	9,23
259,679	5,78
259,941	4,76
260,202	7,6
260,464	10,13
260,725	9,88
260,987	9,51
261,248	10,32
261,509	11,7
261,771	10,69
262,032	11,27
262,293	10,57
262,555	9,78
262,816	8,1
263,077	5,95
263,338	3,09
263,6	2,37
263,861	0,57
264,122	0,68
264,383	2,57
264,645	4,34
264,906	3,43
265,167	4,28
265,428	4,46
265,689	6,07
265,95	4,08
266,211	6,24
266,473	4,59
266,734	2,96
266,995	0,56
267,256	1,65
267,517	4,85
267,778	7,61
268,039	8,54
268,3	6,43
268,561	4,81
268,822	7,96
269,083	5,74
269,344	3,65
269,604	3,18
269,865	2,73
270,126	0,41
270,387	1,85
270,648	4,86
270,909	4,77
271,17	4
271,43	2,26
271,691	0,16
271,952	-0,57
272,213	0,72
272,473	-0,62
272,734	0,16
272,995	0,48
273,256	0,74
273,516	2,33
273,777	-0,8
274,038	1,43
274,298	-1,91
274,559	-1,88
274,82	2,03
275,08	4,86
275,341	6,14
275,601	4,87
275,862	4,24
276,122	5,01
276,383	6,21
276,643	8,16
276,904	5,82
277,164	8,56
277,425	10,11
277,685	13,9
277,946	14,49
278,206	14,79
278,467	15,83
278,727	14,82
278,987	14,67
279,248	14,84
279,508	17,06
279,768	19,91
280,029	21,28
280,289	18,33
280,549	16,65
280,81	15,39
281,07	15,2
281,33	17,83
281,59	15,77
281,851	18,97
282,111	17,2
282,371	16,74
282,631	19,58
282,891	17,09
283,151	15,17
283,412	13,65
283,672	11,55
283,932	11,23
284,192	12,21
284,452	10,31
284,712	8,84
284,972	9,1
285,232	7,41
285,492	8,12
285,752	5,61
286,012	10,13
286,272	11,09
286,532	8,58
286,792	8,66
287,052	9,78
287,312	10,18
287,571	9,5
287,831	9,23
288,091	8,2
288,351	8,49
288,611	12,63
288,871	13,35
289,13	13,81
289,39	8,72
289,65	10,19
289,91	7,78
290,17	10,06
290,429	11,87
290,689	8,55
290,949	6,33
291,208	8,29
291,468	11,69
291,728	13,62
291,987	14,91
292,247	12,21
292,506	13,49
292,766	14,28
293,026	12,49
293,285	14,62
293,545	17,98
293,804	16,9
294,064	13,32
294,323	12,08
294,583	12,82
294,842	13,02
295,102	13,85
295,361	13,48
295,621	14,43
295,88	15,63
296,139	14,57
296,399	16,16
296,658	12,27
296,917	13,1
297,177	10,57
297,436	12,54
297,695	10,68
297,955	11,98
298,214	11,24
298,473	12,89
298,732	15,66
298,992	19,31
299,251	17,96
299,51	15,37
299,769	14,95
300,028	13,36
300,287	14,37
300,547	13,93
300,806	12,62
301,065	14,92
301,324	14,88
301,583	11,24
301,842	8,42
302,101	6,49
302,36	6,9
302,619	6,27
302,878	8,33
303,137	6,55
303,396	8,06
303,655	9,08
303,914	6,15
304,173	6,93
304,432	5,91
304,691	7,28
304,95	4,51
305,208	8,17
305,467	9,11
305,726	9,27
305,985	9,67
306,244	10,46
306,503	9,39
306,761	7,16
307,02	2,88
307,279	3,54
307,537	3,45
307,796	2,04
308,055	1,54
308,314	1,82
308,572	2,17
308,831	3,77
309,09	4,89
309,348	6,34
309,607	7,3
309,865	11,61
310,124	12,63
310,382	13,81
310,641	14,67
310,9	12,04
311,158	12,72
311,417	12,85
311,675	12,66
311,933	13,23
312,192	14,65
312,45	14,42
312,709	14,47
312,967	14,16
313,226	14,65
313,484	12,56
313,742	10,57
314,001	8,81
314,259	7,62
314,517	9,07
314,776	10,19
315,034	13,12
315,292	10,78
315,55	7,29
315,809	6,61
316,067	6,76
316,325	5,96
316,583	5,98
316,841	5,82
317,1	5,02
317,358	1,57
317,616	-0,48
317,874	-1,75
318,132	-2,21
318,39	-2,45
318,648	-3,04
318,906	-2,87
319,164	-2,87
319,422	-3,63
319,68	-4,72
319,938	-3,63
320,196	-3,6
320,454	-2,37
320,712	-2,51
320,97	-2,68
321,228	-5
321,486	-2,38
321,744	-0,14
322,002	2,49
322,26	0,39
322,517	-0,75
322,775	-3,06
323,033	-4,52
323,291	-2,02
323,549	1,84
323,806	3,54
324,064	3,6
324,322	5,3
324,58	4,85
324,837	5,86
325,095	2,11
325,353	3,81
325,61	4,86
325,868	5,23
326,126	7,56
326,383	5,61
326,641	4,8
326,898	6,02
327,156	5,31
327,413	4,44
327,671	5,44
327,928	5,52
328,186	5,75
328,443	4,5
328,701	8,04
328,958	9,98
329,216	9,88
329,473	7,65
329,731	8,62
329,988	8,02
330,245	10,62
330,503	11,65
330,76	13,18
331,017	15,89
331,275	12,81
331,532	12,23
331,789	10,37
332,047	10,39
332,304	7,72
332,561	8,38
332,818	5,91
333,076	8,97
333,333	10,12
333,59	10,98
333,847	11,75
334,104	9,14
334,361	7,91
334,618	7,68
334,876	6,23
335,133	6,98
335,39	6,24
335,647	6,85
335,904	3,74
336,161	1,68
336,418	1,79
336,675	-2,28
336,932	-1,66
337,189	-2,26
337,446	-0,97
337,703	-2,87
337,96	-6,49
338,216	-6,67
338,473	-9,23
338,73	-9,39
338,987	-9,41
339,244	-5,18
339,501	-6,4
339,757	-4,89
340,014	-4,31
340,271	-3,5
340,528	-3,29
340,785	1,53
341,041	1,85
341,298	-1,48
341,555	-2,3
341,811	-2,52
342,068	-4,17
342,325	-2,8
342,581	-0,32
342,838	2,38
343,094	2,16
343,351	2,39
343,608	-0,27
343,864	2,47
344,121	3,56
344,377	3,65
344,634	3,74
344,89	1,91
345,147	1,48
345,403	-0,01
345,66	-0,1
345,916	3,17
346,172	2,11
346,429	1,82
346,685	0,94
346,942	0,66
347,198	-2,25
347,454	-1,37
347,711	-1,94
347,967	-3,89
348,223	-2,73
348,48	-2,63
348,736	-0,11
348,992	0,14
349,248	4,12
349,504	4,85
349,761	4,54
350,017	5,21
350,273	5,8
350,529	5,3
350,785	2,09
351,041	1,44
351,297	3,28
351,554	2,81
351,81	1,44
352,066	-0,01
352,322	0,36
352,578	0,91
352,834	0,63
353,09	1,99
353,346	2,13
353,602	1,26
353,858	0,44
354,114	0,24
354,369	1,54
354,625	2,65
354,881	0,7
355,137	2,4
355,393	2,1
355,649	3,99
355,905	4,78
356,16	4,32
356,416	5,05
356,672	-0,71
356,928	-0,12
357,183	-1,35
357,439	-0,85
357,695	-3,03
357,951	0,74
358,206	0,72
358,462	-0,29
358,718	-1,15
358,973	0,03
359,229	-0,4
359,484	0,08
359,74	2,19
359,996	3,82
360,251	5,17
360,507	4,58
360,762	3,76
361,018	5,7
361,273	4,86
361,529	7,25
361,784	5,87
362,04	7,04
362,295	5,54
362,55	6,21
362,806	7,88
363,061	8,25
363,316	8,25
363,572	7,21
363,827	7,89
364,082	4,64
364,338	3,82
364,593	4,43
364,848	3,76
365,104	1,67
365,359	3,34
365,614	4,54
365,869	2,35
366,124	2,55
366,38	0,85
366,635	3,75
366,89	4,5
367,145	4,51
367,4	8,41
367,655	8,05
367,91	8,62
368,165	8,36
368,42	5,62
368,675	6,95
368,93	7,19
369,185	5,38
369,44	4,58
369,695	7,87
369,95	7,41
370,205	7,74
370,46	7,22
370,715	7,79
370,97	7,77
371,225	8,23
371,48	9,22
371,734	10,26
371,989	12,56
372,244	12,09
372,499	12,7
372,754	11,85
373,008	11,16
373,263	6,77
373,518	8,37
373,773	7,24
374,027	5,81
374,282	9,34
374,537	8,37
374,791	8,55
375,046	7,38
375,301	5,3
375,555	3,48
375,81	4,85
376,064	4,14
376,319	6,7
376,573	7
376,828	3,98
377,082	8,22
377,337	7,56
377,591	3,68
377,846	4,06
378,1	5,89
378,355	6,33
378,609	4,96
378,863	1,82
379,118	3,29
379,372	1,62
379,627	0,56
379,881	-0,99
380,135	-0,22
380,389	0,21
380,644	1,19
380,898	2,05
381,152	4,03
381,407	3,56
381,661	4,68
381,915	6,1
382,169	4,76
382,423	4,35
382,677	2,09
382,932	2,38
383,186	3,13
383,44	4,28
383,694	4,92
383,948	4,24
384,202	3,74
384,456	5,84
384,71	5,99
384,964	5,33
385,218	6,38
385,472	6,68
385,726	5,67
385,98	4,77
386,234	4,81
386,488	2,28
386,742	4,46
386,996	1,65
387,249	2,31
387,503	3,03
387,757	4,42
388,011	4,81
388,265	3,86
388,518	4,33
388,772	4,98
389,026	4,76
389,28	3,47
389,533	3,35
389,787	5,71
390,041	3,83
390,295	3,16
390,548	3,43
390,802	6,99
391,055	5,86
391,309	5,41
391,563	3,65
391,816	4,25
392,07	3,58
392,323	4,5
392,577	6,32
392,83	6,49
393,084	10,9
393,337	15,81
393,591	16,97
393,844	17,7
394,098	20,64
394,351	24,98
394,604	25,61
394,858	27
395,111	27,68
395,364	26,16
395,618	27,7
395,871	25,5
396,124	25,32
396,378	25,09
396,631	25,37
396,884	24,82
397,137	25,11
397,391	25,8
397,644	22,7
397,897	23,66
398,15	25,23
398,403	27,85
398,657	26,23
398,91	24,34
399,163	24,58
399,416	24,77
399,669	22,96
399,922	22,59
400,175	19,86
400,428	19,49
400,681	19,55
400,934	14,36
401,187	12,47
401,44	11,92
401,693	10,88
401,946	6,56
402,199	2,37
402,452	1,77
402,704	-0,7
402,957	-1,15
403,21	0,54
403,463	-0,81
403,716	-0,21
403,969	0,7
404,221	-0,57
404,474	0,93
404,727	4
404,98	5,43
405,232	5,64
405,485	6,52
405,738	7,99
405,99	8,71
406,243	8,41
406,496	9,92
406,748	12,07
407,001	11,41
407,253	11,09
407,506	12,15
407,759	12,61
408,011	10,38
408,264	9,54
408,516	9,39
408,769	8,89
409,021	9,06
409,274	9,36
409,526	11,34
409,778	10,45
410,031	13,62
410,283	14,17
410,536	18,2
410,788	15,64
411,04	14,16
411,293	17,17
411,545	18,1
411,797	17,17
412,049	16,84
412,302	16,88
412,554	17,12
412,806	15,05
413,058	14,14
413,311	15,51
413,563	15,09
413,815	14,71
414,067	12,98
414,319	10,84
414,571	10,77
414,823	8,65
415,075	8,23
415,328	8,37
415,58	12,29
415,832	14,65
416,084	15,99
416,336	14,16
416,588	18,01
416,84	16,06
417,091	18,48
417,343	15,37
417,595	18,41
417,847	18,52
418,099	19,33
418,351	19,38
418,603	22,93
418,855	24,05
419,106	22,1
419,358	22,49
419,61	23,01
419,862	24,23
420,114	22,99
420,365	21,2
420,617	21,11
420,869	19,51
421,12	19,74
421,372	19,39
421,624	18,54
421,875	19,79
422,127	18,82
422,379	19,19
422,63	23,11
422,882	21,9
423,133	22,11
423,385	21,67
423,636	22,59
423,888	23,82
424,139	26,64
424,391	23,21
424,642	22,85
424,894	19,84
425,145	20,21
425,396	18,09
425,648	21,1
425,899	20,44
426,151	20,28
426,402	19,39
426,653	21,36
426,905	21,68
427,156	20,33
427,407	20,45
427,658	20,1
427,91	19,74
428,161	19,34
428,412	21,98
428,663	23,47
428,914	23,64
429,166	25,66
429,417	26,22
429,668	25,99
429,919	24,3
430,17	23,43
430,421	24,14
430,672	27,42
430,923	27,6
431,174	25,99
431,425	26,44
431,676	25,8
431,927	23,48
432,178	25,81
432,429	26,73
432,68	28,08
432,931	32,09
433,182	35,83
433,433	32,05
433,683	33,29
433,934	33,07
434,185	31,48
434,436	30,4
434,687	32,08
434,937	34,77
435,188	33,45
435,439	32,98
435,69	34,37
435,94	34,94
436,191	36,14
436,442	36,18
436,692	34,38
436,943	32,04
437,194	31,22
437,444	32,91
437,695	37,49
437,945	39,36
438,196	37,8
438,447	37,29
438,697	38,61
438,948	37,31
439,198	34,83
439,449	32,95
439,699	35,67
439,949	35,46
440,2	35,27
440,45	37,08
440,701	35,53
440,951	34,21
441,201	35,8
441,452	35,26
441,702	35,85
441,952	39,29
442,203	38,59
442,453	37,47
442,703	38,04
442,953	40,85
443,204	43,86
443,454	42,45
443,704	43,84
443,954	41,73
444,204	43,88
444,455	45,98
444,705	48,35
444,955	49,61
445,205	49,71
445,455	47,82
445,705	48,65
445,955	49,71
446,205	49,99
446,455	51,78
446,705	55,57
446,955	57,66
447,205	59,71
447,455	61,04
447,705	60,83
447,955	61,39
448,205	61,44
448,454	63,73
448,704	65,32
448,954	65,46
449,204	65,92
449,454	66,94
449,704	65,96
449,953	67,9
450,203	71,57
450,453	70,11
450,703	71,99
450,952	71,64
451,202	74,1
451,452	74,45
451,701	78,1
451,951	81,77
452,201	81,74
452,45	81,67
452,7	83,97
452,949	83,99
453,199	84,18
453,448	85,5
453,698	87,28
453,947	86,54
454,197	83,82
454,446	82,27
454,696	84,52
454,945	84,74
455,195	83,48
455,444	84,69
455,693	88,27
455,943	87,27
456,192	86,16
456,442	85,84
456,691	85,33
456,94	84,46
457,189	82,48
457,439	84,39
457,688	84,89
457,937	83,12
458,186	83,55
458,436	82,25
458,685	82,01
458,934	79,38
459,183	77,77
459,432	78,46
459,681	75,18
459,93	73,76
460,179	73,3
460,429	70,75
460,678	73,04
460,927	73,79
461,176	71,85
461,425	70,23
461,674	72,15
461,923	71,48
462,172	70,13
462,42	67,63
462,669	68,92
462,918	67,99
463,167	66,38
463,416	62,74
463,665	62,85
463,914	61,25
464,162	58,77
464,411	60,07
464,66	61,44
464,909	61,99
465,158	60,05
465,406	58,34
465,655	58,59
465,904	59,42
466,152	59,41
466,401	59,06
466,65	60,28
466,898	59,86
467,147	56,14
467,395	56,2
467,644	58,44
467,893	56,43
468,141	57,03
468,39	52,79
468,638	52,09
468,887	49,99
469,135	48,31
469,384	47,4
469,632	48,8
469,88	49,05
470,129	50,5
470,377	46,08
470,626	47,77
470,874	49,06
471,122	49,61
471,371	48,48
471,619	47,66
471,867	50,91
472,115	50,45
472,364	48,48
472,612	48,79
472,86	48,07
473,108	48,9
473,356	48,68
473,605	47,61
473,853	44,63
474,101	43,07
474,349	42,82
474,597	43,63
474,845	43,05
475,093	42,74
475,341	39,56
475,589	40,58
475,837	40,12
476,085	42,04
476,333	39,98
476,581	41,14
476,829	42,19
477,077	44,11
477,325	43,76
477,573	44,77
477,821	43,59
478,069	45,66
478,317	44,67
478,564	46,04
478,812	43,68
479,06	41,7
479,308	40,79
479,555	40,15
479,803	38,4
480,051	39,72
480,299	40,38
480,546	41,07
480,794	38,18
481,042	38,29
481,289	36,48
481,537	38,17
481,784	37,31
482,032	39,16
482,28	38,17
482,527	36,27
482,775	35,79
483,022	37,68
483,27	38,32
483,517	40,92
483,765	40,42
484,012	40,84
484,259	39,82
484,507	42,22
484,754	41,17
485,002	40,06
485,249	38,75
485,496	40,77
485,744	40,08
485,991	38,99
486,238	37,8
486,486	41,73
486,733	42,63
486,98	46
487,227	44,96
487,474	46,32
487,722	47,28
487,969	45,06
488,216	44,34
488,463	43,89
488,71	41,86
488,957	42,92
489,204	42,28
489,451	43,6
489,699	43,65
489,946	41,38
490,193	42,49
490,44	43,4
490,687	43,6
490,934	42,54
491,18	39,95
491,427	39,81
491,674	42,42
491,921	43,57
492,168	41,47
492,415	40,39
492,662	42,47
492,909	44,95
493,155	44,32
493,402	43,26
493,649	43,03
493,896	43,22
494,142	40,21
494,389	40,64
494,636	39,48
494,883	37,5
495,129	37,21
495,376	35,54
495,623	37,32
495,869	39,09
496,116	41,8
496,362	42,23
496,609	45,57
496,855	50,28
497,102	50,06
497,348	48,7
497,595	50,59
497,841	54,38
498,088	52,4
498,334	51,61
498,581	51,17
498,827	50,76
499,074	52,58
499,32	52,64
499,566	55,74
499,813	56,44
500,059	54,72
500,305	54,82
500,552	53,78
500,798	52,37
501,044	55,04
501,29	54,79
501,537	51,95
501,783	53,27
502,029	56,86
502,275	55,21
502,521	55,15
502,767	55,89
503,013	59,63
503,26	58,32
503,506	55,77
503,752	56,26
503,998	56,15
504,244	56,77
504,49	53,93
504,736	56,53
504,982	56,62
505,228	58,06
505,474	57,73
505,72	58,87
505,966	58,47
506,211	61,26
506,457	62,16
506,703	60,59
506,949	59,78
507,195	57,55
507,441	55,71
507,686	58,16
507,932	57,69
508,178	59,84
508,424	59,6
508,669	60,04
508,915	60,31
509,161	64,57
509,406	66,33
509,652	64,52
509,898	67,21
510,143	68,43
510,389	66,91
510,634	63,85
510,88	66,29
511,125	69,56
511,371	70,54
511,616	71,54
511,862	68,25
512,107	66,33
512,353	65,82
512,598	66,23
512,844	66,44
513,089	64,53
513,335	65,09
513,58	65,46
513,825	65,6
514,071	64,5
514,316	63,8
514,561	65,3
514,806	64,77
515,052	66,53
515,297	64,93
515,542	65,09
515,787	65,01
516,033	67,02
516,278	65,49
516,523	65,92
516,768	65,26
517,013	63,71
517,258	63,65
517,503	64,25
517,748	64,31
517,993	65,69
518,238	64,95
518,483	63,89
518,728	62,56
518,973	60,62
519,218	60,67
519,463	62,03
519,708	62,22
519,953	61,24
520,198	60,51
520,443	61,49
520,688	64,62
520,933	63,73
521,177	64,19
521,422	62,13
521,667	65,38
521,912	66,02
522,157	63,84
522,401	66,58
522,646	66,16
522,891	67,74
523,135	68,15
523,38	67,64
523,625	66,1
523,869	69,87
524,114	70,52
524,358	68,27
524,603	67,76
524,848	65,57
525,092	64,02
525,337	65,7
525,581	67,03
525,826	69,67
526,07	69,74
526,315	70,52
526,559	70,89
526,803	69,63
527,048	70,68
527,292	71,51
527,537	71,43
527,781	71,85
528,025	69,79
528,269	69,28
528,514	71,43
528,758	71,37
529,002	72,38
529,247	74,61
529,491	74
529,735	76,93
529,979	75,33
530,223	77,23
530,467	74,62
530,712	75,27
530,956	74,87
531,2	75,82
531,444	72,18
531,688	73,3
531,932	73,87
532,176	75,21
532,42	76,47
532,664	76,73
532,908	74,99
533,152	74,09
533,396	72,26
533,64	71,69
533,884	68,81
534,128	67,36
534,371	68,32
534,615	69,76
534,859	69,24
535,103	68,16
535,347	68,88
535,59	70,46
535,834	67,71
536,078	67,54
536,322	67,62
536,565	70,02
536,809	68,22
537,053	69,74
537,296	68,04
537,54	68,03
537,784	66,47
538,027	68,45
538,271	66,4
538,514	65,29
538,758	64,62
539,001	64,35
539,245	63,38
539,488	65,14
539,732	66,81
539,975	67,44
540,219	70,06
540,462	71,33
540,706	71,83
540,949	72,46
541,192	72,12
541,436	77,94
541,679	83,22
541,922	84,16
542,166	80,97
542,409	81,14
542,652	82,75
542,895	82,91
543,139	82,41
543,382	86,76
543,625	86,04
543,868	86,04
544,111	84,46
544,354	84,42
544,598	82,52
544,841	83,1
545,084	82,77
545,327	83,11
545,57	83,99
545,813	84,89
546,056	84,61
546,299	84,68
546,542	86,79
546,785	89,07
547,028	89,04
547,271	88,39
547,514	88,6
547,756	85,88
547,999	84,67
548,242	85,26
548,485	83,55
548,728	85,15
548,971	80,78
549,213	80,62
549,456	78,21
549,699	78,31
549,942	78,18
550,184	77,71
550,427	77,33
550,67	78,55
550,912	73,95
551,155	76,25
551,398	76,48
551,64	75,48
551,883	73,73
552,125	74,3
552,368	74,19
552,61	72,46
552,853	72,51
553,095	71,03
553,338	71,55
553,58	71,55
553,823	70,49
554,065	72,35
554,308	67,78
554,55	65,89
554,792	63,13
555,035	62,23
555,277	61,67
555,519	63,03
555,762	61,14
556,004	61,3
556,246	57,04
556,488	57,56
556,731	54,55
556,973	56,98
557,215	55,14
557,457	56,66
557,699	57,69
557,941	55,2
558,183	53,48
558,426	55,83
558,668	52,06
558,91	52,56
559,152	53,99
559,394	53,9
559,636	55,75
559,878	55,89
560,12	54,51
560,362	56,15
560,604	55
560,845	53,78
561,087	53,22
561,329	55,98
561,571	53,04
561,813	55,15
562,055	54
562,297	55,23
562,538	56,06
562,78	58,77
563,022	56,69
563,264	56,7
563,505	58,22
563,747	60,29
563,989	58,81
564,23	57,97
564,472	55,86
564,714	58,98
564,955	59,04
565,197	57,62
565,438	60,54
565,68	63,35
565,921	61,49
566,163	63,21
566,404	62,06
566,646	63,12
566,887	65,04
567,129	64,62
567,37	63,24
567,612	66,96
567,853	64,79
568,094	67,6
568,336	68,79
568,577	70,66
568,818	70,19
569,06	68,96
569,301	66,87
569,542	66,53
569,783	68,45
570,025	68,2
570,266	67,68
570,507	69,26
570,748	69,68
570,989	70,94
571,23	71,76
571,472	72,98
571,713	73,35
571,954	75,25
572,195	73,82
572,436	75,63
572,677	77,34
572,918	77,55
573,159	76,19
573,4	75,98
573,641	75,44
573,882	76,71
574,123	74,04
574,364	70,21
574,604	71,41
574,845	70,41
575,086	69,89
575,327	70,55
575,568	70,32
575,809	69,93
576,049	68,51
576,29	67,87
576,531	72,32
576,771	75,54
577,012	78,65
577,253	78,1
577,494	78,66
577,734	77,89
577,975	79,19
578,215	79,52
578,456	76,43
578,697	77,74
578,937	78,36
579,178	78,35
579,418	76,81
579,659	76,85
579,899	74,32
580,14	73,66
580,38	73,73
580,62	74,05
580,861	77,31
581,101	77,02
581,342	76,58
581,582	74,28
581,822	77
582,063	75,8
582,303	77,68
582,543	78,2
582,783	80,72
583,024	81,75
583,264	84,87
583,504	84,34
583,744	85,1
583,984	82,88
584,224	83,27
584,465	82,77
584,705	82,44
584,945	81,98
585,185	83,71
585,425	84,3
585,665	84,16
585,905	85,47
586,145	86,4
586,385	87,14
586,625	89,55
586,865	90,58
587,105	89,68
587,345	90,92
587,585	92,33
587,824	92,74
588,064	92,98
588,304	91
588,544	92,72
588,784	92,04
589,024	94,21
589,263	94,03
589,503	93,38
589,743	96,63
589,982	95,94
590,222	96,09
590,462	95,06
590,701	92,44
590,941	95,1
591,181	95,52
591,42	95,68
591,66	98,57
591,899	102,2
592,139	102,71
592,378	105,15
592,618	105,44
592,857	105,4
593,097	107,79
593,336	109,21
593,576	109,51
593,815	110,93
594,055	111,78
594,294	113,9
594,533	115,03
594,773	115,36
595,012	116,68
595,251	117,19
595,491	121,06
595,73	123,3
595,969	124,36
596,208	126,85
596,447	132,37
596,687	135,03
596,926	137,91
597,165	135,44
597,404	139,09
597,643	137,36
597,882	137,15
598,121	139,67
598,36	141,36
598,599	143,48
598,838	144,93
599,077	144,65
599,316	145
599,555	146,89
599,794	149,31
600,033	152,34
600,272	154,74
600,511	155,41
600,75	157,48
600,989	159,66
601,228	161,17
601,466	162
601,705	162,71
601,944	166,68
602,183	170,25
602,422	171,72
602,66	171,75
602,899	171,37
603,138	174,33
603,376	176,07
603,615	178,33
603,854	177,84
604,092	179,53
604,331	182,07
604,569	184,48
604,808	184,78
605,047	189,2
605,285	192,61
605,524	194,25
605,762	195,24
606	198,19
606,239	200,44
606,477	199,72
606,716	198,66
606,954	198,92
607,193	197,45
607,431	193,81
607,669	193,61
607,908	193,1
608,146	196,82
608,384	196,49
608,622	196,88
608,861	197,7
609,099	198,09
609,337	197,71
609,575	196,51
609,813	197,69
610,052	199,79
610,29	196,66
610,528	196,05
610,766	196,05
611,004	195,03
611,242	194,74
611,48	194,1
611,718	192,4
611,956	194,05
612,194	194,77
612,432	193,93
612,67	192,23
612,908	193,48
613,146	191,93
613,384	191,17
613,621	191,34
613,859	193,44
614,097	192,08
614,335	192,38
614,573	193,46
614,811	197,23
615,048	196,3
615,286	196,4
615,524	194,6
615,761	192,77
615,999	193,24
616,237	193,98
616,474	196,08
616,712	196,69
616,95	197,09
617,187	196,98
617,425	198,79
617,662	201,54
617,9	200,12
618,137	197,15
618,375	196,32
618,612	194,53
618,85	196,34
619,087	197,57
619,325	196,76
619,562	195,27
619,799	194,45
620,037	195,03
620,274	193,05
620,511	194,14
620,749	190,92
620,986	189,29
621,223	186,48
621,461	188,24
621,698	189,6
621,935	189,78
622,172	186,27
622,409	189,33
622,647	189,44
622,884	187,29
623,121	189,36
623,358	187,54
623,595	186,25
623,832	185,76
624,069	184,64
624,306	184,07
624,543	183,99
624,78	183,9
625,017	183,11
625,254	184,62
625,491	188,64
625,728	191,76
625,965	192,56
626,202	190,9
626,438	190,42
626,675	189,53
626,912	190,28
627,149	191,38
627,386	190,88
627,622	191,06
627,859	190,68
628,096	191,76
628,333	190,64
628,569	191,85
628,806	192,69
629,043	193,16
629,279	193,87
629,516	196,66
629,752	191,61
629,989	192,3
630,225	190,26
630,462	189,16
630,699	188,24
630,935	187,13
631,171	183,95
631,408	183,5
631,644	182,31
631,881	179,75
632,117	176,79
632,354	177,04
632,59	175,39
632,826	173,1
633,063	170,72
633,299	171,51
633,535	168,06
633,771	166,08
634,008	168,5
634,244	167,13
634,48	165,31
634,716	166,63
634,953	165,52
635,189	164,72
635,425	165,06
635,661	168,47
635,897	166,84
636,133	166,15
636,369	163,18
636,605	158,37
636,841	156,78
637,077	157,55
637,313	155,36
637,549	156,21
637,785	155,66
638,021	157,09
638,257	156,68
638,493	157,26
638,729	155,1
638,965	156,71
639,2	157,05
639,436	155,26
639,672	154,11
639,908	151,56
640,144	153,84
640,379	155,99
640,615	152,31
640,851	154,88
641,086	155,52
641,322	152,64
641,558	152,42
641,793	151,96
642,029	148,52
642,264	147,16
642,5	146,41
642,736	142,97
642,971	142,65
643,207	140,63
643,442	137,62
643,678	138,4
643,913	139,22
644,148	137,35
644,384	139,41
644,619	139,38
644,855	141,34
645,09	141,76
645,325	139,65
645,561	138,09
645,796	137
646,031	139,87
646,266	137,96
646,502	137,26
646,737	140,25
646,972	138,98
647,207	139,08
647,442	135,59
647,678	131,5
647,913	134,49
648,148	133,82
648,383	132,46
648,618	131,65
648,853	131,56
649,088	132,85
649,323	134,76
649,558	135,59
649,793	135,01
650,028	134,91
650,263	129,1
650,498	130,12
650,733	128,47
650,968	125,56
651,202	126,45
651,437	124,97
651,672	120,4
651,907	118,64
652,142	115,91
652,376	113,91
652,611	115,55
652,846	116,35
653,081	115,89
653,315	113,33
653,55	112,3
653,785	110,65
654,019	109,66
654,254	108,1
654,488	108,57
654,723	106,07
654,958	104,88
655,192	101,69
655,427	99,47
655,661	100,18
655,896	101,6
656,13	101,67
656,364	98,46
656,599	95,56
656,833	101,31
657,068	102,1
657,302	101,69
657,536	100,84
657,771	101,33
658,005	102,12
658,239	103,29
658,474	99,82
658,708	99,64
658,942	99,42
659,176	98,24
659,41	96,28
659,645	96,2
659,879	94,39
660,113	91,5
660,347	90,36
660,581	87,75
660,815	85,96
661,049	84,41
661,283	81,2
661,517	79,73
661,751	78,6
661,985	77,48
662,219	78,09
662,453	76,92
662,687	77,33
662,921	73,66
663,155	71,31
663,389	66,66
663,622	65,87
663,856	67,16
664,09	59,63
664,324	58,46
664,558	58,44
664,791	56,72
665,025	55,13
665,259	54,9
665,492	53,21
665,726	55,91
665,96	55,67
666,193	54,72
666,427	55,05
666,661	53,83
666,894	51,51
667,128	50,52
667,361	52,97
667,595	51,01
667,828	51,38
668,062	50,5
668,295	51,33
668,529	51,95
668,762	52,15
668,995	50,68
669,229	54,21
669,462	54,01
669,695	53,82
669,929	51,59
670,162	50,94
670,395	49,8
670,629	50,77
670,862	51,5
671,095	48,91
671,328	47,87
671,561	44,47
671,795	45,27
672,028	48,14
672,261	49,04
672,494	48,82
672,727	47,68
672,96	48,7
673,193	48,86
673,426	51,94
673,659	51,6
673,892	52,82
674,125	53,33
674,358	52,48
674,591	50,76
674,824	51,09
675,057	50,85
675,29	51,09
675,523	51,97
675,755	50,35
675,988	51,5
676,221	53,99
676,454	51,66
676,687	51,68
676,919	51,25
677,152	52,16
677,385	53,14
677,617	53,65
677,85	54,88
678,083	53,09
678,315	55,83
678,548	54,56
678,78	53,93
679,013	52,69
679,246	52,2
679,478	52,78
679,711	50,65
679,943	52,32
680,175	49,27
680,408	50,64
680,64	46,87
680,873	47,41
681,105	45,47
681,338	47,41
681,57	47,63
681,802	47,3
682,034	47,03
682,267	48,17
682,499	49,55
682,731	46,46
682,964	45,56
683,196	43,05
683,428	40,91
683,66	39,06
683,892	41,89
684,124	44,02
684,356	45,3
684,589	45,29
684,821	44,13
685,053	43,46
685,285	45,33
685,517	45,27
685,749	45,69
685,981	47,44
686,213	46,65
686,445	45,72
686,676	42,54
686,908	44,77
687,14	42,93
687,372	43,36
687,604	39,84
687,836	41,1
688,068	42,22
688,299	43,19
688,531	40,45
688,763	43,14
688,995	41,37
689,226	43,8
689,458	42,92
689,69	41,1
689,921	39,72
690,153	40,08
690,384	42,05
690,616	40
690,848	40,93
691,079	36,66
691,311	34,15
691,542	31,71
691,774	30,09
692,005	32,35
692,237	34,02
692,468	30,79
692,699	29,64
692,931	29,49
693,162	28,96
693,393	29,04
693,625	28,53
693,856	29,21
694,087	28,78
694,319	29,9
694,55	29
694,781	28,02
695,012	27,87
695,243	24,75
695,475	23,49
695,706	23,42
695,937	21,79
696,168	22,14
696,399	20,2
696,63	18,71
696,861	18,1
697,092	21,63
697,323	24,17
697,554	24,44
697,785	26,66
698,016	27,77
698,247	27,14
698,478	28,19
698,709	28,96
698,94	30,58
699,171	29,62
699,401	26,58
699,632	29,56
699,863	26,4
700,094	26,04
700,325	27,02
700,555	27,59
700,786	29,2
701,017	29,47
701,247	27,16
701,478	26,78
701,709	26,07
701,939	26,95
702,17	27,25
702,401	29,93
702,631	30,95
702,862	30,18
703,092	27,36
703,323	30,33
703,553	29,89
703,784	31,2
704,014	31,84
704,244	28,56
704,475	26,87
704,705	26,89
704,936	25,42
705,166	24,2
705,396	24,92
705,627	24,48
705,857	25,09
706,087	25,55
706,317	23,04
706,548	20,08
706,778	18,02
707,008	19,52
707,238	20,26
707,468	17,76
707,698	15,94
707,928	14,86
708,158	13,37
708,389	14,02
708,619	12,77
708,849	12,01
709,079	12,34
709,309	10,92
709,539	8,91
709,768	9,6
709,998	11,41
710,228	10,66
710,458	8,02
710,688	7,53
710,918	6,49
711,148	5,46
711,378	6,47
711,607	5,31
711,837	4,89
712,067	5,4
712,297	4,96
712,526	4,66
712,756	5,63
712,986	2,37
713,215	0,01
713,445	0,81
713,674	3,84
713,904	3,02
714,134	4,63
714,363	4,75
714,593	4,28
714,822	4,8
715,052	3,52
715,281	5,33
715,511	4,03
715,74	4,75
715,969	4,79
716,199	4,44
716,428	5,19
716,657	4,8
716,887	6,12
717,116	4,8
717,345	7,69
717,575	7,94
717,804	8,67
718,033	8,07
718,262	7,35
718,492	7,59
718,721	9,13
718,95	7,86
719,179	6,23
719,408	6,66
719,637	4,33
719,866	2,53
720,095	5,73
720,324	5,29
720,553	2,22
720,782	-0,15
721,011	0,73
721,24	-2,19
721,469	-3,72
721,698	-2,25
721,927	-1,62
722,156	-1,71
722,385	-4,06
722,613	-1
722,842	-0,85
723,071	1,54
723,3	3,06
723,529	1,61
723,757	1,28
723,986	-1,66
724,215	-2,14
724,443	-0,99
724,672	1,23
724,901	0,94
725,129	2,95
725,358	6,51
725,586	4,75
725,815	3,67
726,043	2,64
726,272	1,34
726,5	0,76
726,729	2,42
726,957	0,78
727,186	-2,77
727,414	-1,49
727,642	0,06
727,871	2,88
728,099	2,39
728,327	3,93
728,556	5,19
728,784	5,13
729,012	3,73
729,241	5,82
729,469	7,35
729,697	5,31
729,925	5,76
730,153	4,46
730,381	3,86
730,61	5,53
730,838	3,83
731,066	4,28
731,294	4,36
731,522	0,76
731,75	-3,55
731,978	-4,09
732,206	-5,47
732,434	-7,79
732,662	-7,74
732,89	-8,54
733,118	-8,38
733,346	-7,91
733,573	-7,35
733,801	-7,73
734,029	-1,87
734,257	-0,47
734,485	1,73
734,712	2,7
734,94	0,24
735,168	1,65
735,396	2,09
735,623	0,72
735,851	1
736,078	1,87
736,306	2,14
736,534	0,08
736,761	0,37
736,989	-2,16
737,216	-3,06
737,444	-5,07
737,671	-5,23
737,899	-0,96
738,126	-1,96
738,354	-1,59
738,581	-0,48
738,809	0,88
739,036	-0,4
739,263	-0,24
739,491	-1,37
739,718	0,07
739,945	3,46
740,173	5,49
740,4	6,14
740,627	5,41
740,854	5,58
741,081	2,37
741,309	1,18
741,536	-1,77
741,763	-1,09
741,99	-0,79
742,217	-0,72
742,444	-1,88
742,671	-0,92
742,898	-1,35
743,125	-3,13
743,352	-5,86
743,579	-6,04
743,806	-5,37
744,033	-2,92
744,26	-2,34
744,487	-3,24
744,714	-2,55
744,941	-4,21
745,167	-0,8
745,394	-1,62
745,621	-3,24
745,848	-2,28
746,075	0,15
746,301	3,11
746,528	6,59
746,755	5,41
746,981	4,71
747,208	5,47
747,435	7,2
747,661	6,57
747,888	8,99
748,114	7,56
748,341	9,85
748,567	11,52
748,794	8,92
749,02	9,72
749,247	8,05
749,473	7,25
749,7	8,41
749,926	8,38
750,152	11,64
750,379	11,18
750,605	12,88
750,831	11,29
751,058	10,31
751,284	8,64
751,51	11,66
751,737	12,37
751,963	12,29
752,189	11,35
752,415	11,09
752,641	12,68
752,867	11,63
753,094	9,98
753,32	7,81
753,546	6,88
753,772	8,31
753,998	7,42
754,224	7,12
754,45	6,32
754,676	6,34
754,902	4,93
755,128	5,17
755,354	5,33
755,579	5,98
755,805	8,53
756,031	7,19
756,257	6,58
756,483	7,12
756,709	4,85
756,934	4,93
757,16	2,33
757,386	4,38
757,612	1,59
757,837	1,23
758,063	3,24
758,289	5,82
758,514	3,8
758,74	1,2
758,965	-1,23
759,191	-0,01
759,416	0,44
759,642	0,79
759,868	2,22
760,093	3,38
760,318	2,17
760,544	1,35
760,769	0,22
760,995	-0,88
761,22	-1,27
761,445	0,01
761,671	1,8
761,896	3,17
762,121	3,02
762,347	1,76
762,572	-0,71
762,797	-2,34
763,022	-1,52
763,248	3,81
763,473	3,71
763,698	4,06
763,923	4,9
764,148	4,98
764,373	4,24
764,598	6,32
764,823	6,92
765,048	3,58
765,273	1,39
765,498	1,44
765,723	1,19
765,948	3,66
766,173	1,11
766,398	1,26
766,623	-1,18
766,848	-3,15
767,073	-3,93
767,298	-3,18
767,522	-4,08
767,747	-2,68
767,972	-2,73
768,197	-2,22
768,421	-3,14
768,646	-5,82
768,871	-9,26
769,095	-8,45
769,32	-7,46
769,545	-7,36
769,769	-4,87
769,994	-4,09
770,218	-7,42
770,443	-6,42
770,667	-6,77
770,892	-6,59
771,116	-7
771,341	-6,51
771,565	-7,08
771,79	-6,43
772,014	-6,27
772,238	-7,7
772,463	-6,38
772,687	-5,84
772,911	-7,55
773,136	-8,55
773,36	-8,42
773,584	-6,23
773,808	-8,73
774,033	-7,77
774,257	-7,84
774,481	-8,43
774,705	-9,54
774,929	-9,52
775,153	-10,08
775,377	-8,36
775,602	-7,81
775,826	-5,3
776,05	-4,51
776,274	-6
776,498	-5,57
776,722	-7,76
776,945	-7
777,169	-8,74
777,393	-10,35
777,617	-9,86
777,841	-9,6
778,065	-8,96
778,289	-9,52
778,512	-8,72
778,736	-7,08
778,96	-8,77
779,184	-5,58
779,407	-6,33
779,631	-5,69
779,855	-5,23
780,078	-3,92
780,302	-4,94
780,526	-8,13
780,749	-5,33
780,973	-6,04
781,196	-5,15
781,42	-6,78
781,643	-6,66
781,867	-6,04
782,09	-8,03
782,314	-9,62
782,537	-10,1
782,76	-11,99
782,984	-12,18
783,207	-11,85
783,431	-11,83
783,654	-13,57
783,877	-16,54
784,1	-16,5
784,324	-16,78
784,547	-18,22
784,77	-21,57
784,993	-23,06
785,216	-23,53
785,44	-24,8
785,663	-27,91
785,886	-24,29
786,109	-25,78
786,332	-25,07
786,555	-24,42
786,778	-23,42
787,001	-23,87
787,224	-21,79
787,447	-18,56
787,67	-17,19
787,893	-16,2
788,116	-16,19
788,339	-14,86
788,561	-15,35
788,784	-17,74
789,007	-19,15
789,23	-20,43
789,453	-20,3
789,675	-20,59
789,898	-21,75
790,121	-23
790,344	-23,45
790,566	-21,11
790,789	-19,85
791,012	-18,63
791,234	-15,03
791,457	-11,35
791,679	-10,44
791,902	-9,68
792,124	-9,89
792,347	-10,69
792,569	-9,95
792,792	-12,69
793,014	-10,4
793,237	-9,5
793,459	-10,48
793,681	-10,01
793,904	-10,46
794,126	-11,89
794,348	-14,01
794,571	-13,76
794,793	-15,37
795,015	-15,59
795,237	-15,85
795,46	-13,94
795,682	-13,03
795,904	-10,74
796,126	-11,12
796,348	-11,3
796,57	-7,87
796,792	-8,17
797,014	-5,41
797,237	-4,2
797,459	-2,98
797,681	-1,41
797,903	-3,94
798,124	-4,9
798,346	4,79
798,568	7,28
798,79	10,25
799,012	11,34
799,234	13,24
799,456	14,08
799,678	16,68
799,899	14,41
800,121	12,56
800,343	13,63
800,565	12,41
800,786	13,46
801,008	14,56
801,23	15,88
801,451	16,09
801,673	14,4
801,895	14,56
802,116	17,66
802,338	17,8
802,559	17,48
802,781	15,86
803,002	17,86
803,224	19,99
803,445	16,64
803,667	18,23
803,888	17,06
804,109	16,15
804,331	16,24
804,552	15,8
804,773	18,17
804,995	16,93
805,216	4,08
805,437	0,81
805,658	-2,29
805,88	-3
806,101	-4,21
806,322	-4,8
806,543	-5,67
806,764	-7,95
806,985	-5,33
807,207	-6,5
807,428	-5,22
807,649	-8,56
807,87	-9,89
808,091	-11,13
808,312	-11,8
808,533	-7,22
808,754	-6,3
808,975	-10,26
809,195	-9,16
809,416	-7,88
809,637	-7,24
809,858	-9,24
810,079	-11,56
810,3	-8,8
810,52	-9,4
810,741	-11,83
810,962	-11,26
811,183	-12,64
811,403	-12,53
811,624	-12,37
811,845	-10,8
812,065	-8,11
812,286	-7,2
812,506	-6,02
812,727	-6,06
812,948	-4,57
813,168	-2,17
813,389	-3,46
813,609	0,4
813,83	-2,55
814,05	-3,58
814,27	-3,55
814,491	1,01
814,711	1,22
814,931	-0,03
815,152	1
815,372	-1,01
815,592	-1,87
815,813	-0,56
816,033	-2,11
816,253	-1,99
816,473	-2,62
816,694	-1,3
816,914	0,22
817,134	-0,71
817,354	-2,26
817,574	0,47
817,794	-0,44
818,014	-1,61
818,234	-1,83
818,454	-3,4
818,674	-6,67
818,894	-10,32
819,114	-7,02
819,334	-7,93
819,554	-5,61
819,774	-3,15
819,994	-5,37
820,214	-5,84
820,433	-7,86
820,653	-6,42
820,873	-3,2
821,093	-3,03
821,312	-4,9
821,532	-3,32
821,752	-1,09
821,972	-3,13
822,191	-1,16
822,411	-1,51
822,63	-0,74
822,85	-0,37
823,07	-3,08
823,289	-2,66
823,509	-4,28
823,728	-2,7
823,948	-4,18
824,167	-3,65
824,387	-5,37
824,606	-4,75
824,825	-5,02
825,045	-5,98
825,264	-6,49
825,483	-3,24
825,703	-1,6
825,922	-4,4
826,141	-4,07
826,361	-4,89
826,58	-9,15
826,799	-9,69
827,018	-8,45
827,237	-7,07
827,456	-7,22
827,676	-7,98
827,895	-7,9
828,114	-6,69
828,333	-8,05
828,552	-7,8
828,771	-7,21
828,99	-9,29
829,209	-10,4
829,428	-9,23
829,647	-10,28
829,866	-8,55
830,084	-8,21
830,303	-8,81
830,522	-8,92
830,741	-9,65
830,96	-9,8
831,179	-9,08
831,397	-9,57
831,616	-9,26
831,835	-8,41
832,053	-7,46
832,272	-8,68
832,491	-7,16
832,709	-8,14
832,928	-7,77
833,147	-8,48
833,365	-7,74
833,584	-6,78
833,802	-5,18
834,021	-5,72
834,239	-3,09
834,458	-4,67
834,676	-8,71
834,894	-9,84
835,113	-10,11
835,331	-11,39
835,55	-11,89
835,768	-11,6
835,986	-10,54
836,204	-12,61
836,423	-11,63
836,641	-11,37
836,859	-12,69
837,077	-10,75
837,296	-11,98
837,514	-11,42
837,732	-11,93
837,95	-12,2
838,168	-10,91
838,386	-11,52
838,604	-10,45
838,822	-10,53
839,04	-10,97
839,258	-11,27
839,476	-8,48
839,694	-8,77
839,912	-10,12
840,13	-9,44
840,348	-7,31
840,566	-10,15
840,783	-9,62
841,001	-12,17
841,219	-9,86
841,437	-7,04
841,655	-5,84
841,872	-5,26
842,09	-3,8
842,308	-2,37
842,525	-1,74
842,743	0,12
842,961	-0,89
843,178	-2,71
843,396	-0,87
843,613	0,35
843,831	2,01
844,048	1,37
844,266	1,19
844,483	1,02
844,701	0,1
844,918	-0,12
845,136	0,36
845,353	-0,8
845,57	-0,27
845,788	2,05
846,005	-1,13
846,222	-3,43
846,439	-2,54
846,657	-2,16
846,874	-1,5
847,091	-2,68
847,308	-0,8
847,526	-1,42
847,743	-2,47
847,96	-4,29
848,177	-4,24
848,394	-5,64
848,611	-5,69
848,828	-6,49
849,045	-7,9
849,262	-8,99
849,479	-10,03
849,696	-10,54
849,913	-11,39
850,13	-15,01
850,347	-12,43
850,564	-14,21
850,78	-14,6
850,997	-15,59
851,214	-14,39
851,431	-13,67
851,647	-15,42
851,864	-15,47
852,081	-14,52
852,298	-17,7
852,514	-19,41
852,731	-17,38
852,948	-14,94
853,164	-15,11
853,381	-15,33
853,597	-15,94
853,814	-18,19
854,03	-20,02
854,247	-19,1
854,463	-17,66
854,68	-18,75
854,896	-18,87
855,113	-17,5
855,329	-16,5
855,545	-14,59
855,762	-14,9
855,978	-16,88
856,194	-18,91
856,411	-15,46
856,627	-12,67
856,843	-11,39
857,059	-9,77
857,275	-11,4
857,492	-9,89
857,708	-5,99
857,924	-5,67
858,14	-3,46
858,356	-4,79
858,572	-4,52
858,788	-4,85
859,004	-2,21
859,22	-3,47
859,436	-2,62
859,652	-4,78
859,868	-5,45
860,084	-4,89
860,3	-5,79
860,516	-4,72
860,731	-4,62
860,947	-5,13
861,163	-4,84
861,379	-4,7
861,595	-3,92
861,81	-3,56
862,026	-4,93
862,242	-5,33
862,457	-5,88
862,673	-5,13
862,889	-4,6
863,104	-5,33
863,32	-5,97
863,535	-6,52
863,751	-11,67
863,966	-9,15
864,182	-8,4
864,397	-11
864,613	-11,7
864,828	-12,97
865,044	-11,48
865,259	-9,88
865,474	-10,47
865,69	-8,8
865,905	-8,55
866,12	-10,75
866,336	-10,03
866,551	-8,81
866,766	-9,32
866,981	-9,83
867,196	-8,38
867,412	-8,16
867,627	-8,54
867,842	-9,2
868,057	-8,98
868,272	-9,59
868,487	-10,18
868,702	-10,3
868,917	-10,81
869,132	-9,33
869,347	-7,57
869,562	-7,64
869,777	-8,23
869,992	-9,6
870,207	-8,08
870,422	-7,04
870,636	-7,3
870,851	-8,88
871,066	-9,76
871,281	-10,1
871,495	-11,68
871,71	-8,59
871,925	-10,92
872,14	-11,94
872,354	-15,45
872,569	-16,3
872,783	-14,75
872,998	-14,44
873,213	-14,79
873,427	-12
873,642	-10,15
873,856	-11,5
874,071	-10,96
874,285	-11,72
874,5	-12,25
874,714	-11,57
874,928	-12,41
875,143	-12,99
875,357	-14,01
875,571	-15,65
875,786	-15,22
876	-12,43
876,214	-11,31
876,429	-11,48
876,643	-10,44
876,857	-11,07
877,071	-11,06
877,285	-13,18
877,499	-15,77
877,714	-13,42
877,928	-10,98
878,142	-12,18
878,356	-14,87
878,57	-13,42
878,784	-11,67
878,998	-11,51
879,212	-9,66
879,426	-10,45
879,639	-9,87
879,853	-11,78
880,067	-12,71
880,281	-13,74
880,495	-12,68
880,709	-11,74
880,922	-11,42
881,136	-10,84
881,35	-10,22
881,564	-9,74
881,777	-13,22
881,991	-11,87
882,205	-9,33
882,418	-9,1
882,632	-12,85
882,845	-12,97
883,059	-13,62
883,273	-13,25
883,486	-13,7
883,7	-10,23
883,913	-10,8
884,126	-8,96
884,34	-12,45
884,553	-15,68
884,767	-11,87
884,98	-11,94
885,193	-13,47
885,407	-15,2
885,62	-12,7
885,833	-13,84
886,046	-12,35
886,26	-14,19
886,473	-13,44
886,686	-15
886,899	-13,05
887,112	-14,59
887,326	-16,2
887,539	-15,63
887,752	-15,69
887,965	-18,39
888,178	-18,44
888,391	-16,75
888,604	-17,45
888,817	-19,94
889,03	-18,89
889,243	-19,94
889,455	-22,92
889,668	-21,68
889,881	-19,99
890,094	-20,52
890,307	-23,86
890,52	-20,58
890,732	-20,2
890,945	-19,32
891,158	-19,55
891,37	-22,13
891,583	-20,73
891,796	-18,66
892,008	-19,32
892,221	-20,79
892,434	-22,41
892,646	-23,05
892,859	-22,67
893,071	-21,83
893,284	-19,56
893,496	-22,18
893,709	-21,84
893,921	-20,63
894,133	-19,94
894,346	-19,58
894,558	-19,03
894,771	-19,07
894,983	-16,31
895,195	-16,2
895,407	-15,5
895,62	-18,9
895,832	-16,52
896,044	-12,39
896,256	-12,95
896,468	-15,38
896,681	-12,96
896,893	-12,47
897,105	-15,48
897,317	-16,13
897,529	-15,65
897,741	-13,83
897,953	-11,14
898,165	-13,63
898,377	-15,42
898,589	-13,99
898,801	-14,95
899,013	-12,46
899,224	-11,17
899,436	-9,03
899,648	-9,15
899,86	-11,08
900,072	-7,57
900,283	-6,57
900,495	-5,98
900,707	-7,28
900,919	-8,68
901,13	-6,41
901,342	-6,29
901,554	-7,89
901,765	-6,07
901,977	-6,83
902,188	-6,82
902,4	-9,14
902,611	-12,11
902,823	-14,19
903,034	-15,86
903,246	-17,15
903,457	-18,33
903,669	-18,7
903,88	-19,15
904,091	-19,85
904,303	-19,56
904,514	-20,68
904,725	-18,54
904,936	-18,35
905,148	-17,86
905,359	-15,38
905,57	-15,82
905,781	-17,1
905,992	-18,66
906,204	-18,73
906,415	-18,46
906,626	-21,13
906,837	-18,67
907,048	-18,92
907,259	-18,31
907,47	-21,47
907,681	-22,96
907,892	-20,96
908,103	-21,24
908,314	-23,7
908,525	-22,43
908,735	-21,42
908,946	-21,54
909,157	-21,16
909,368	-18,84
909,579	-16,77
909,789	-19,76
910	-19,47
910,211	-16,32
910,421	-15,46
910,632	-13,32
910,843	-15,55
911,053	-13,48
911,264	-11,83
911,475	-11,82
911,685	-12,41
911,896	-11,98
912,106	-10,64
912,317	-12,68
912,527	-10,31
912,737	-10,15
912,948	-9,08
913,158	-8,07
913,369	-10,79
913,579	-10,08
913,789	-9,79
914	-4,88
914,21	-5,62
914,42	-7,51
914,63	-8,88
914,841	-9,77
915,051	-8,12
915,261	-8,31
915,471	-5,2
915,681	-4,89
915,891	-5,7
916,101	-6,24
916,311	-5,21
916,521	-4,51
916,731	-3,8
916,941	-2,35
917,151	-2,09
917,361	1,22
917,571	-1,28
917,781	-3,59
917,991	-6,01
918,201	-5,9
918,411	-8,07
918,621	-8,07
918,83	-7,89
919,04	-9,66
919,25	-7,16
919,46	-7,29
919,669	-9,54
919,879	-10,43
920,089	-11,76
920,298	-12,2
920,508	-12,27
920,717	-11,01
920,927	-12,71
921,136	-11,5
921,346	-11,47
921,555	-13,92
921,765	-13,5
921,974	-14,96
922,184	-16,74
922,393	-16,86
922,603	-17,59
922,812	-15,65
923,021	-16,42
923,23	-18,8
923,44	-21,45
923,649	-22,1
923,858	-22,43
924,067	-21,73
924,277	-23,37
924,486	-20,17
924,695	-19,76
924,904	-19,49
925,113	-19,78
925,322	-17,76
925,531	-17,88
925,74	-20,31
925,949	-21,24
926,158	-20,33
926,367	-20,73
926,576	-19,81
926,785	-20,48
926,994	-21,91
927,203	-20,97
927,412	-19,27
927,621	-19,87
927,83	-16,95
928,038	-18,01
928,247	-17,53
928,456	-18,92
928,665	-18,13
928,873	-16,02
929,082	-14,18
929,291	-13,66
929,499	-12,84
929,708	-14,18
929,916	-12,66
930,125	-14,18
930,333	-16,14
930,542	-15,11
930,75	-11,76
930,959	-10,91
931,167	-11,73
931,376	-10,9
931,584	-9,23
931,793	-8,99
932,001	-10,41
932,209	-12,8
932,418	-13,52
932,626	-14,07
932,834	-15,05
933,042	-18,12
933,251	-18,11
933,459	-18,37
933,667	-18,36
933,875	-19,69
934,083	-17,2
934,291	-17,67
934,499	-15,57
934,707	-16,12
934,915	-15,42
935,123	-13,02
935,331	-14
935,539	-16,33
935,747	-18,09
935,955	-18,12
936,163	-16,09
936,371	-15,56
936,579	-12,7
936,787	-12,17
936,995	-13,44
937,202	-14,56
937,41	-14,83
937,618	-15,17
937,826	-15,39
938,033	-20,01
938,241	-21,73
938,449	-19,05
938,656	-16,57
938,864	-15,96
939,071	-16,74
939,279	-13,98
939,486	-10,41
939,694	-10,9
939,901	-12
940,109	-13,61
940,316	-11,99
940,524	-13,12
940,731	-14,26
940,939	-13,94
941,146	-13,36
941,353	-13,97
941,561	-15,68
941,768	-16,58
941,975	-14,85
942,182	-14,26
942,39	-13,91
942,597	-12,01
942,804	-13,66
943,011	-15,57
943,218	-14,86
943,425	-15,16
943,632	-15,25
943,839	-16,68
944,046	-16,81
944,253	-15,95
944,46	-15,03
944,667	-11,92
944,874	-12,44
945,081	-10,41
945,288	-9,82
945,495	-7,31
945,702	-7,22
945,909	-10,29
946,115	-8,24
946,322	-7,88
946,529	-8,23
946,736	-8,08
946,942	-7,51
947,149	-7,95
947,356	-8,74
947,562	-11,12
947,769	-10,45
947,976	-10,52
948,182	-9,35
948,389	-10,75
948,595	-10,49
948,802	-11,06
949,008	-11,94
949,215	-10,11
949,421	-10,04
949,628	-11,35
949,834	-11,01
950,04	-12,11
950,247	-9,05
950,453	-7,37
950,659	-9,09
950,865	-7,21
951,072	-10,11
951,278	-8,55
951,484	-11,55
951,69	-13,56
951,896	-13,84
952,103	-14,33
952,309	-13,06
952,515	-13,67
952,721	-11,83
952,927	-10,37
953,133	-10,11
953,339	-10,46
953,545	-9,71
953,751	-9,14
953,957	-6,51
954,163	-9,2
954,369	-8,34
954,574	-10,75
954,78	-11,65
954,986	-10,27
955,192	-7,95
955,398	-9,2
955,603	-11,35
955,809	-9,77
956,015	-8,54
956,22	-6,75
956,426	-5,67
956,632	-8,48
956,837	-10,43
957,043	-10,12
957,248	-10,32
957,454	-11,44
957,66	-13,61
957,865	-13,85
958,07	-12,85
958,276	-14,05
958,481	-15,57
958,687	-16,98
958,892	-17,33
959,097	-18,63
959,303	-18,3
959,508	-19,64
959,713	-20,95
959,919	-21,88
960,124	-22,08
960,329	-23,29
960,534	-19,22
960,739	-18,97
960,945	-15,52
961,15	-15,08
961,355	-17,36
961,56	-19,92
961,765	-21,41
961,97	-21,27
962,175	-21,02
962,38	-24,25
962,585	-26,13
962,79	-27,66
962,995	-28,96
963,2	-28,36
963,404	-27,92
963,609	-30,09
963,814	-29,36
964,019	-31,97
964,224	-33,25
964,428	-32,01
964,633	-30,32
964,838	-28,79
965,042	-28,13
965,247	-29,26
965,452	-28,22
965,656	-27,94
965,861	-28,17
966,066	-28,5
966,27	-26,22
966,475	-23,47
966,679	-24,54
966,884	-23,18
967,088	-24,64
967,292	-26,41
967,497	-23,89
967,701	-24,35
967,906	-23,68
968,11	-20,29
968,314	-16,56
968,518	-17,71
968,723	-14,99
968,927	-13,06
969,131	-11,69
969,335	-8,8
969,539	-9,76
969,744	-9,4
969,948	-6,56
970,152	-4,53
970,356	-2,79
970,56	-1,96
970,764	-3,77
970,968	-3,45
971,172	-3,55
971,376	-2,31
971,58	-0,41
971,784	-0,56
971,988	-2,06
972,192	0,67
972,395	1
972,599	-0,54
972,803	-3,17
973,007	-2,29
973,21	-4,67
973,414	-5,19
973,618	-6,24
973,822	-6,95
974,025	-6,76
974,229	-6,91
974,432	-10,49
974,636	-13,41
974,84	-12,49
975,043	-12,39
975,247	-14,67
975,45	-15,86
975,654	-15,29
975,857	-12,95
976,06	-13,64
976,264	-15,45
976,467	-15,25
976,671	-14,11
976,874	-12,76
977,077	-13,11
977,28	-12,82
977,484	-15,57
977,687	-16,5
977,89	-16,42
978,093	-15,69
978,297	-14,64
978,5	-16,59
978,703	-16,19
978,906	-16,23
979,109	-15,83
979,312	-14,49
979,515	-13,89
979,718	-14,01
979,921	-13,71
980,124	-15,04
980,327	-14,84
980,53	-16,04
980,733	-13,98
980,936	-11,12
981,138	-12,37
981,341	-12,28
981,544	-11,89
981,747	-12,12
981,949	-13,58
982,152	-12,82
982,355	-13,12
982,558	-9,84
982,76	-12,23
982,963	-14,65
983,165	-15,43
983,368	-13,99
983,571	-15,33
983,773	-11,83
983,976	-11,5
984,178	-11,3
984,381	-12,88
984,583	-15,86
984,785	-14,37
984,988	-12,24
985,19	-11,51
985,392	-12,36
985,595	-14,02
985,797	-13,75
985,999	-11,63
986,202	-9,07
986,404	-9,46
986,606	-6,86
986,808	-6,1
987,01	-5,17
987,212	-6,73
987,415	-8,51
987,617	-7,76
987,819	-8,89
988,021	-7,73
988,223	-8,64
988,425	-10,34
988,627	-9,7
988,829	-14,51
989,031	-12,97
989,232	-13,91
989,434	-12,45
989,636	-14,18
989,838	-13,78
990,04	-13,07
990,242	-14,36
990,443	-15,35
990,645	-12,49
990,847	-9,85
991,048	-10,12
991,25	-12,53
991,452	-11,67
991,653	-12,58
991,855	-13,76
992,057	-15,35
992,258	-14,99
992,46	-17,18
992,661	-15,59
992,863	-16,9
993,064	-16,38
993,265	-17,36
993,467	-16,93
993,668	-14,95
993,87	-14,61
994,071	-14,78
994,272	-15,02
994,473	-14,74
994,675	-13,57
994,876	-13,58
995,077	-12,64
995,278	-12,68
995,48	-10,04
995,681	-10,99
995,882	-9,67
996,083	-10,6
996,284	-13,79
996,485	-13,33
996,686	-14,85
996,887	-17,01
997,088	-20,17
997,289	-21,82
997,49	-22,14
997,691	-22,95
997,892	-22,91
998,092	-18,46
998,293	-17,52
998,494	-18,84
998,695	-17,1
998,896	-16,59
999,096	-16,91
999,297	-17,18
999,498	-18,99
999,698	-22,36
999,899	-24,08
1000,1	-26,06
1000,3	-25,63
1000,501	-25,33
1000,701	-25,19
1000,902	-26,27
1001,102	-26,83
1001,303	-25,62
1001,503	-26,61
1001,704	-27,06
1001,904	-28,4
1002,105	-27,85
1002,305	-26,99
1002,505	-27,95
1002,706	-29,37
1002,906	-28,61
1003,106	-29,52
1003,306	-27,04
1003,507	-26,87
1003,707	-26,84
1003,907	-24,7
1004,107	-22,67
1004,307	-24,84
1004,507	-24,11
1004,707	-22,82
1004,907	-24,55
1005,107	-25,24
1005,308	-24,46
1005,507	-26,46
1005,707	-23,96
1005,907	-24,39
1006,107	-21,72
1006,307	-21,24
1006,507	-21,72
1006,707	-22,37
1006,907	-21,65
1007,106	-21,42
1007,306	-21,01
1007,506	-20,6
1007,706	-20,29
1007,905	-21,42
1008,105	-20,03
1008,305	-19,59
1008,504	-18,63
1008,704	-13,47
1008,903	-10,51
1009,103	-9,83
1009,303	-10,88
1009,502	-10,79
1009,702	-11,23
1009,901	-10,1
1010,1	-12,95
1010,3	-12,71
1010,499	-13,67
1010,699	-14,75
1010,898	-16,13
1011,097	-16,92
1011,296	-17,03
1011,496	-18,41
1011,695	-17,66
1011,894	-19,72
1012,093	-16,17
1012,293	-17,16
1012,492	-16,99
1012,691	-17,03
1012,89	-16,66
1013,089	-18,17
1013,288	-18,61
1013,487	-17,78
1013,686	-17,97
1013,885	-18,47
1014,084	-17,31
1014,283	-19,49
1014,482	-20,78
1014,681	-22
1014,88	-26,09
1015,078	-25,42
1015,277	-26,42
1015,476	-26,44
1015,675	-26,13
1015,873	-24,61
1016,072	-26,37
1016,271	-23,56
1016,47	-25,66
1016,668	-24,12
1016,867	-26,25
1017,065	-27,6
1017,264	-27,06
1017,463	-26,61
1017,661	-25,8
1017,86	-25,55
1018,058	-22,84
1018,256	-24,41
1018,455	-25,29
1018,653	-24,82
1018,852	-23,35
1019,05	-24,63
1019,248	-25,4
1019,447	-25,56
1019,645	-25,96
1019,843	-27,48
1020,041	-25,89
1020,24	-26,72
1020,438	-21,67
1020,636	-21,73
1020,834	-22,46
1021,032	-20,67
1021,23	-21,6
1021,428	-19,75
1021,626	-16,45
1021,824	-17,09
1022,022	-18,31
1022,22	-16,12
1022,418	-16,77
1022,616	-18,02
1022,814	-19,13
1023,012	-17,54
1023,21	-15,54
1023,408	-15,46
1023,606	-15,94
1023,803	-12,51
1024,001	-11,51
1024,199	-14,43
1024,397	-13,74
1024,594	-12,88
1024,792	-14,74
1024,99	-13,82
1025,187	-12,69
1025,385	-10,6
1025,582	-10,78
1025,78	-11,29
1025,977	-10,26
1026,175	-11,41
1026,372	-10,3
1026,57	-12,97
1026,767	-11,44
1026,965	-10,95
1027,162	-10,95
1027,359	-10,47
1027,557	-11,3
1027,754	-14,05
1027,951	-14,97
1028,148	-12,55
1028,346	-14,94
1028,543	-16,84
1028,74	-16,55
1028,937	-18,29
1029,134	-18,92
1029,331	-19,44
1029,528	-20,03
1029,725	-21,13
1029,923	-24,92
1030,12	-22,22
1030,317	-21,92
1030,513	-20,31
1030,71	-20,12
1030,907	-17,46
1031,104	-19,22
1031,301	-19,62
1031,498	-18,65
1031,695	-18,89
1031,892	-19,74
1032,088	-19,7
1032,285	-20,63
1032,482	-21,66
1032,678	-24,63
1032,875	-25,58
1033,072	-25,19
1033,268	-25,02
1033,465	-26,72
1033,662	-28,51
1033,858	-28,03
1034,055	-27,27
1034,251	-25,45
1034,448	-24,9
1034,644	-24,57
1034,84	-21,5
1035,037	-19,33
1035,233	-18,37
1035,43	-16,93
1035,626	-16,63
1035,822	-15,21
1036,019	-14,92
1036,215	-18,46
1036,411	-18,7
1036,607	-20,65
1036,803	-23,03
1037	-23,36
1037,196	-23,68
1037,392	-24,46
1037,588	-27,41
1037,784	-25,62
1037,98	-25,64
1038,176	-25,56
1038,372	-25,85
1038,568	-24,18
1038,764	-20,85
1038,96	-19,42
1039,156	-21,19
1039,352	-23,01
1039,547	-20,34
1039,743	-19,68
1039,939	-17,86
1040,135	-18,15
1040,331	-20,97
1040,526	-18,91
1040,722	-19,07
1040,918	-20,48
1041,113	-23,57
1041,309	-23,69
1041,505	-26,28
1041,7	-25,95
1041,896	-26,15
1042,091	-26,24
1042,287	-25,4
1042,482	-24,42
1042,678	-24,4
1042,873	-22,59
1043,069	-24,01
1043,264	-23,45
1043,459	-22,4
1043,655	-20,42
1043,85	-21,83
1044,045	-20,23
1044,24	-20,49
1044,436	-18,19
1044,631	-19,52
1044,826	-20,87
1045,021	-23,61
1045,216	-21,64
