Data from FLMT021711__22__17-07-22-300.txt Node

Date: Tue Nov 05 17:07:22 CET 2024
User: Etudiants TP
Spectrometer: FLMT02171
Trigger mode: 0
Integration Time (sec): 1.000000E-1
Scans to average: 5
Electric dark correction enabled: true
Nonlinearity correction enabled: false
Boxcar width: 15
XAxis mode: Wavelengths
Number of Pixels in Spectrum: 3648
>>>>>Begin Spectral Data<<<<<
194.658	-45.13
194.923	-44.79
195.188	-36.57
195.453	-35.17
195.717	-30.7
195.982	-28.74
196.247	-26.3
196.512	-28.19
196.777	-25.85
197.042	-24.75
197.307	-25.06
197.572	-20.99
197.837	-20.93
198.101	-18.9
198.366	-17.33
198.631	-16.94
198.896	-12.05
199.161	-7.04
199.425	-1.21
199.69	6.89
199.955	5.55
200.22	2.16
200.484	1.82
200.749	1.93
201.014	3.88
201.278	4.38
201.543	5.58
201.807	5.07
202.072	7.39
202.337	8.63
202.601	8.86
202.866	8.73
203.13	10.79
203.395	8.57
203.659	8.42
203.924	7.6
204.189	7.39
204.453	7.58
204.717	9.42
204.982	10.01
205.246	11.83
205.511	14.39
205.775	13.19
206.04	18.45
206.304	18.36
206.568	21.1
206.833	22.41
207.097	23.27
207.361	25.42
207.626	28.17
207.89	29.11
208.154	29.95
208.419	31.93
208.683	33.04
208.947	35.77
209.211	35
209.476	35.83
209.74	36.4
210.004	35.43
210.268	34.97
210.532	37.15
210.796	37.98
211.061	38.46
211.325	39.1
211.589	36.88
211.853	37.7
212.117	37.86
212.381	38.87
212.645	39
212.909	39.32
213.173	36.53
213.437	36.52
213.701	37.12
213.965	37.96
214.229	33.07
214.493	33.22
214.757	31.68
215.021	31.62
215.285	34.44
215.549	37.65
215.813	35.6
216.077	35.17
216.34	37.24
216.604	36.91
216.868	37.01
217.132	36.92
217.396	35.93
217.659	35.84
217.923	31.4
218.187	32.48
218.451	31.72
218.714	30.21
218.978	30.21
219.242	32.02
219.505	32.35
219.769	34.27
220.033	34.03
220.296	36
220.56	35.59
220.824	33.91
221.087	34.45
221.351	34.93
221.614	35.58
221.878	36.82
222.142	34.65
222.405	35.25
222.669	37.46
222.932	34.28
223.196	33.3
223.459	30.05
223.722	28.79
223.986	28.22
224.249	26.85
224.513	26.54
224.776	25.73
225.04	26.62
225.303	26.25
225.566	25.61
225.83	27.07
226.093	30.3
226.356	29.39
226.62	27.97
226.883	27.81
227.146	28.44
227.409	27.84
227.673	26.13
227.936	25.06
228.199	24.84
228.462	22.02
228.725	22.11
228.989	22.6
229.252	23.69
229.515	28.8
229.778	26.99
230.041	25.46
230.304	23.55
230.567	22.8
230.83	20.49
231.093	22.32
231.356	22.3
231.619	28.59
231.882	27.3
232.145	30.06
232.408	29.53
232.671	29.43
232.934	29
233.197	26.25
233.46	24.2
233.723	26.61
233.986	24.82
234.249	22.82
234.512	24.08
234.775	27.77
235.037	27.93
235.3	28.05
235.563	27.32
235.826	28.05
236.089	30.78
236.351	31.45
236.614	33.47
236.877	34.19
237.14	36.17
237.402	35.4
237.665	30.26
237.928	28.77
238.19	26.99
238.453	29.54
238.716	29.81
238.978	30.13
239.241	30.02
239.503	32.09
239.766	27.96
240.029	26.85
240.291	27.98
240.554	27.51
240.816	26.42
241.079	28.19
241.341	27.87
241.604	27.53
241.866	24.77
242.129	26.16
242.391	27.76
242.653	25.95
242.916	25.43
243.178	25
243.441	24.57
243.703	23.84
243.965	21.99
244.228	21.03
244.49	19.99
244.752	20.86
245.015	20.74
245.277	22.2
245.539	21.39
245.801	22.21
246.064	22.45
246.326	21.29
246.588	21.51
246.85	23.17
247.112	23.12
247.374	24.9
247.637	25.59
247.899	24.14
248.161	23.92
248.423	20.14
248.685	20.53
248.947	21.21
249.209	21.01
249.471	22.42
249.733	24.56
249.995	23.15
250.257	21.98
250.519	21.1
250.781	23.57
251.043	21.13
251.305	22.17
251.567	24.2
251.829	25.1
252.091	25.32
252.353	21.46
252.615	23.41
252.876	20.81
253.138	19.56
253.4	15.33
253.662	15.96
253.924	18.19
254.185	20.35
254.447	21.04
254.709	21.81
254.971	22.6
255.232	24.93
255.494	23.05
255.756	21.34
256.017	22.06
256.279	22.82
256.541	22.38
256.802	23.35
257.064	23.65
257.326	22.82
257.587	23.83
257.849	23.48
258.11	26.96
258.372	27.64
258.633	28.58
258.895	27.98
259.156	28.11
259.418	27.64
259.679	23.44
259.941	21.28
260.202	23.89
260.464	27.37
260.725	24.98
260.987	25.29
261.248	25.41
261.509	26.1
261.771	25.42
262.032	26.46
262.293	25.33
262.555	25.49
262.816	23.65
263.077	23.62
263.338	21.39
263.6	22.29
263.861	21.03
264.122	20.93
264.383	23.44
264.645	24.83
264.906	23.59
265.167	23.71
265.428	23.33
265.689	23.57
265.95	21.25
266.211	22.04
266.473	22.38
266.734	19.19
266.995	17.24
267.256	17.51
267.517	19.85
267.778	23.42
268.039	24.04
268.3	22.37
268.561	20.7
268.822	24.1
269.083	21.76
269.344	19.72
269.604	19.39
269.865	19.44
270.126	15.1
270.387	15.87
270.648	16.79
270.909	17.3
271.17	14.75
271.43	12.3
271.691	9.56
271.952	9.06
272.213	10.41
272.473	8.04
272.734	9.22
272.995	10.98
273.256	11.31
273.516	12.98
273.777	11.86
274.038	13.72
274.298	10.64
274.559	9.39
274.82	14.51
275.08	16.56
275.341	17.61
275.601	16.36
275.862	14.18
276.122	15.3
276.383	16.32
276.643	16.05
276.904	13.76
277.164	17.42
277.425	19.54
277.685	23.26
277.946	23.46
278.206	26.19
278.467	28.05
278.727	27.08
278.987	25.68
279.248	25.69
279.508	26.97
279.768	29.44
280.029	30.9
280.289	28.57
280.549	27.57
280.81	26.43
281.07	24.37
281.33	25.68
281.59	24.21
281.851	24.64
282.111	24.75
282.371	24.24
282.631	26.12
282.891	24.53
283.151	24.63
283.412	22.86
283.672	21.62
283.932	22.19
284.192	22.29
284.452	19.95
284.712	18.4
284.972	17.3
285.232	13.77
285.492	14.92
285.752	12.41
286.012	17.69
286.272	18.12
286.532	15.16
286.792	16.81
287.052	19.96
287.312	20.44
287.571	19.13
287.831	18.56
288.091	16.54
288.351	16.95
288.611	19.54
288.871	20.85
289.13	21.33
289.39	17.47
289.65	18.81
289.91	18.06
290.17	19.79
290.429	23.06
290.689	19.96
290.949	16.96
291.208	16.11
291.468	18.66
291.728	19.46
291.987	21.09
292.247	20.3
292.506	22.93
292.766	26.35
293.026	26.72
293.285	28.42
293.545	29.64
293.804	30.73
294.064	27.54
294.323	26.33
294.583	27.88
294.842	26.81
295.102	26.27
295.361	26.98
295.621	28.08
295.88	28.99
296.139	28.94
296.399	29.81
296.658	25.81
296.917	24.56
297.177	21.81
297.436	24.3
297.695	22.37
297.955	23.44
298.214	22.26
298.473	22.6
298.732	25.1
298.992	28.33
299.251	29.23
299.51	25.72
299.769	26.55
300.028	25.39
300.287	25.49
300.547	25.72
300.806	23.49
301.065	26.11
301.324	27.8
301.583	24.56
301.842	21.07
302.101	19.73
302.36	19.46
302.619	18.06
302.878	19.35
303.137	16.9
303.396	17.12
303.655	18.23
303.914	16.32
304.173	17.69
304.432	16.13
304.691	19.2
304.95	16.55
305.208	21.35
305.467	20.73
305.726	20.94
305.985	20.94
306.244	22.71
306.503	22.62
306.761	22.36
307.02	19.74
307.279	19.14
307.537	20.92
307.796	18.94
308.055	18.24
308.314	20.15
308.572	18.41
308.831	20.83
309.09	20.82
309.348	21.22
309.607	20.82
309.865	23.65
310.124	23.08
310.382	23.63
310.641	23.98
310.9	22.58
311.158	24.93
311.417	25.4
311.675	26.69
311.933	26.2
312.192	28.18
312.45	28.56
312.709	27.53
312.967	28.62
313.226	27.61
313.484	27.63
313.742	26.46
314.001	25.38
314.259	22.92
314.517	22.79
314.776	23.51
315.034	26
315.292	25.03
315.55	23.59
315.809	23.41
316.067	22.4
316.325	20.38
316.583	21.55
316.841	18.96
317.1	16.95
317.358	13.98
317.616	13.5
317.874	12.73
318.132	12.49
318.39	13.51
318.648	13.28
318.906	12.77
319.164	11.81
319.422	9.71
319.68	8.01
319.938	9.33
320.196	8.28
320.454	9.3
320.712	9.65
320.97	9.65
321.228	7.24
321.486	8.96
321.744	10.08
322.002	12.18
322.26	12.03
322.517	11.89
322.775	10.02
323.033	9.25
323.291	11.02
323.549	13.28
323.806	14.51
324.064	15.93
324.322	17.35
324.58	15.43
324.837	17.82
325.095	15.83
325.353	17.11
325.61	18.28
325.868	17.48
326.126	19.09
326.383	17.46
326.641	16.47
326.898	17.39
327.156	16.68
327.413	18.16
327.671	18.28
327.928	19.03
328.186	18.36
328.443	17.63
328.701	20.61
328.958	22.13
329.216	23.86
329.473	21.74
329.731	22.37
329.988	21.33
330.245	22.9
330.503	23.53
330.76	23.01
331.017	23.95
331.275	21.95
331.532	20.99
331.789	19.3
332.047	18.98
332.304	16.88
332.561	17.43
332.818	16.09
333.076	18.1
333.333	18.69
333.59	19.79
333.847	21.42
334.104	21.35
334.361	21.19
334.618	21.31
334.876	19.71
335.133	21.05
335.39	19.69
335.647	19.95
335.904	17.77
336.161	15.48
336.418	15.5
336.675	11.99
336.932	12.57
337.189	11.47
337.446	11.11
337.703	9.67
337.96	7.83
338.216	8.91
338.473	6.55
338.73	7.14
338.987	6.88
339.244	9.55
339.501	7.71
339.757	7.62
340.014	9.38
340.271	9.37
340.528	10.36
340.785	14.22
341.041	14.49
341.298	12.85
341.555	13.2
341.811	12.55
342.068	10.41
342.325	10.5
342.581	12.19
342.838	13.99
343.094	12.43
343.351	12.05
343.608	11.1
343.864	12.64
344.121	14.99
344.377	15.18
344.634	14.76
344.89	13.78
345.147	13.62
345.403	13.77
345.66	15.23
345.916	16.71
346.172	13.97
346.429	12.66
346.685	12.65
346.942	12.12
347.198	8.74
347.454	10.01
347.711	12.27
347.967	8.66
348.223	10.23
348.48	8.82
348.736	11.09
348.992	10.43
349.248	12
349.504	11.5
349.761	11.28
350.017	10.32
350.273	10.28
350.529	9.28
350.785	8.27
351.041	8.09
351.297	9.06
351.554	7.74
351.81	6.07
352.066	5.2
352.322	4.18
352.578	5.46
352.834	5.8
353.09	6.81
353.346	6.59
353.602	3.37
353.858	2.37
354.114	1.2
354.369	3.43
354.625	5.62
354.881	4.61
355.137	7.19
355.393	7.94
355.649	6.42
355.905	7.36
356.16	7.24
356.416	8.96
356.672	2.86
356.928	3.64
357.183	3.17
357.439	3.86
357.695	3.51
357.951	8.18
358.206	6.91
358.462	6.95
358.718	5.01
358.973	6.91
359.229	8.03
359.484	8.95
359.74	11.77
359.996	11.58
360.251	14.55
360.507	13.75
360.762	13.21
361.018	14.07
361.273	13.29
361.529	15.82
361.784	14.7
362.04	17.18
362.295	16.73
362.55	15.13
362.806	16.89
363.061	16.66
363.316	16.17
363.572	17.35
363.827	19.76
364.082	17.68
364.338	17.28
364.593	17.73
364.848	18.56
365.104	18.41
365.359	19.71
365.614	19.65
365.869	16.22
366.124	17.31
366.38	15.89
366.635	18.72
366.89	18.14
367.145	17
367.4	19.53
367.655	19.47
367.91	19.75
368.165	18.11
368.42	16.21
368.675	16.73
368.93	18.07
369.185	16.95
369.44	17.41
369.695	20.04
369.95	18.6
370.205	17.03
370.46	16.98
370.715	16.73
370.97	17.56
371.225	17.91
371.48	17.83
371.734	17.48
371.989	18.47
372.244	18.21
372.499	19.55
372.754	18.45
373.008	15.7
373.263	11.8
373.518	13.28
373.773	12.81
374.027	11.44
374.282	14.44
374.537	14.65
374.791	15.77
375.046	15.69
375.301	14.13
375.555	11.98
375.81	14.4
376.064	15.94
376.319	18.17
376.573	16.88
376.828	12.18
377.082	16.09
377.337	14.34
377.591	12.7
377.846	13.38
378.1	16.11
378.355	16.69
378.609	16.28
378.863	13.26
379.118	14.34
379.372	13.52
379.627	11.39
379.881	9.67
380.135	9.3
380.389	8.21
380.644	9.66
380.898	11.82
381.152	13.1
381.407	13.36
381.661	15.69
381.915	16.56
382.169	15.7
382.423	15.19
382.677	11.8
382.932	12.48
383.186	13.32
383.44	14.57
383.694	15.8
383.948	13.81
384.202	13.29
384.456	16.57
384.71	18.96
384.964	16.53
385.218	18.08
385.472	18.01
385.726	17.42
385.98	17.4
386.234	17.4
386.488	14.12
386.742	16.1
386.996	13.37
387.249	14.56
387.503	16.82
387.757	19.55
388.011	21.01
388.265	22.65
388.518	22.79
388.772	23.88
389.026	24.51
389.28	22
389.533	21.19
389.787	23.55
390.041	22.64
390.295	22.38
390.548	23.95
390.802	26.61
391.055	25.65
391.309	25.75
391.563	23.05
391.816	23.16
392.07	21.26
392.323	20.77
392.577	22.62
392.83	24.32
393.084	29.4
393.337	32.3
393.591	33.52
393.844	34.64
394.098	36.62
394.351	39.99
394.604	41.17
394.858	43.49
395.111	43
395.364	41.44
395.618	41.8
395.871	39.06
396.124	37.72
396.378	37.06
396.631	36.52
396.884	33.44
397.137	34.94
397.391	35.04
397.644	32.76
397.897	32.58
398.15	33
398.403	34.76
398.657	31.59
398.91	31.15
399.163	31.02
399.416	30.95
399.669	29.88
399.922	30.13
400.175	27.76
400.428	25.66
400.681	24.52
400.934	19.74
401.187	19.35
401.44	19.82
401.693	17.58
401.946	15.05
402.199	11.14
402.452	9.69
402.704	7.05
402.957	7.9
403.21	8.04
403.463	7.54
403.716	9.72
403.969	11.28
404.221	8.86
404.474	10.8
404.727	15.49
404.98	16.62
405.232	16.94
405.485	17.65
405.738	19.54
405.99	19.84
406.243	20.33
406.496	22.74
406.748	22.64
407.001	22.26
407.253	22.67
407.506	23.11
407.759	24.23
408.011	23.49
408.264	24.03
408.516	26.11
408.769	25.51
409.021	25.74
409.274	25.05
409.526	27.73
409.778	27.28
410.031	30.97
410.283	30.54
410.536	34.65
410.788	32.3
411.04	32.72
411.293	32.84
411.545	32.76
411.797	31.07
412.049	31.7
412.302	31.95
412.554	32.4
412.806	32.21
413.058	29.86
413.311	29.95
413.563	29.56
413.815	29.57
414.067	28.45
414.319	27.08
414.571	29.12
414.823	27.64
415.075	26.78
415.328	28.61
415.58	31.52
415.832	32.05
416.084	32.73
416.336	30.11
416.588	33.99
416.84	32.5
417.091	34.96
417.343	29.2
417.595	31.41
417.847	31.49
418.099	33.21
418.351	33.85
418.603	37.11
418.855	37.58
419.106	39.56
419.358	39.42
419.61	39.7
419.862	40.44
420.114	39.41
420.365	38.82
420.617	38.31
420.869	38.81
421.12	39.37
421.372	38.68
421.624	38.82
421.875	38.4
422.127	36.59
422.379	35.92
422.63	37.99
422.882	37.2
423.133	36.63
423.385	36.43
423.636	38.25
423.888	39.97
424.139	42.43
424.391	38.47
424.642	37.56
424.894	35.97
425.145	39.19
425.396	37.38
425.648	39.73
425.899	37.89
426.151	37.39
426.402	36
426.653	37.24
426.905	36.36
427.156	34.01
427.407	34.22
427.658	35.46
427.91	32.96
428.161	31.17
428.412	33.07
428.663	34.6
428.914	36.12
429.166	40.12
429.417	40.32
429.668	39.9
429.919	39.03
430.17	38.83
430.421	39.19
430.672	42.8
430.923	42.85
431.174	41.63
431.425	41.68
431.676	41.25
431.927	38.8
432.178	40.07
432.429	41.48
432.68	41.62
432.931	44.12
433.182	46.6
433.433	44.49
433.683	48.05
433.934	48.24
434.185	46.75
434.436	45.95
434.687	46.23
434.937	49.5
435.188	49.32
435.439	48.25
435.69	51.04
435.94	53.56
436.191	53.02
436.442	53.47
436.692	52.21
436.943	48.49
437.194	48.08
437.444	50.69
437.695	54.75
437.945	55.74
438.196	54.59
438.447	54.41
438.697	55.12
438.948	55.6
439.198	53.74
439.449	50.62
439.699	53.12
439.949	54.88
440.2	55.52
440.45	57.14
440.701	57.15
440.951	57.18
441.201	59.61
441.452	56.89
441.702	56.64
441.952	59.76
442.203	61.39
442.453	61.2
442.703	63.19
442.953	64.24
443.204	65.89
443.454	65.03
443.704	65.4
443.954	65
444.204	65.58
444.455	67.97
444.705	70.67
444.955	71.67
445.205	72.48
445.455	70.6
445.705	72.03
445.955	73.68
446.205	72.42
446.455	74.2
446.705	76.26
446.955	78.52
447.205	82.45
447.455	85.38
447.705	85.7
447.955	86.46
448.205	88
448.454	88.15
448.704	90.49
448.954	89.7
449.204	92.97
449.454	94.02
449.704	94.12
449.953	93.49
450.203	96.49
450.453	96.33
450.703	99.6
450.952	100.64
451.202	103.43
451.452	105.41
451.701	109.79
451.951	113.88
452.201	113.99
452.45	114.25
452.7	116.33
452.949	115.91
453.199	117.55
453.448	118.37
453.698	121.84
453.947	123.13
454.197	122.14
454.446	120.67
454.696	124.31
454.945	124.38
455.195	123.17
455.444	124.31
455.693	126.3
455.943	125.34
456.192	126.23
456.442	125.95
456.691	126.46
456.94	125.49
457.189	124.75
457.439	127.42
457.688	129.97
457.937	129.08
458.186	128.73
458.436	128.07
458.685	128.7
458.934	126.3
459.183	123.95
459.432	125.32
459.681	125.27
459.93	123.36
460.179	122.16
460.429	120.44
460.678	122.76
460.927	124.72
461.176	123.34
461.425	121.21
461.674	121.82
461.923	122.28
462.172	122.13
462.42	118.63
462.669	119.35
462.918	117.33
463.167	113.88
463.416	110.99
463.665	109.78
463.914	109.19
464.162	106.48
464.411	106.78
464.66	106.98
464.909	105.43
465.158	102.87
465.406	101.5
465.655	102.08
465.904	103.14
466.152	102.94
466.401	102.29
466.65	103.72
466.898	102.26
467.147	96.93
467.395	94.79
467.644	97.37
467.893	96.48
468.141	95.7
468.39	92.61
468.638	90.25
468.887	88.79
469.135	88.07
469.384	87.33
469.632	87.35
469.88	86.33
470.129	87.47
470.377	84.83
470.626	86.95
470.874	88.87
471.122	88.76
471.371	87.29
471.619	86.69
471.867	89.45
472.115	89.11
472.364	88.17
472.612	90.57
472.86	89.86
473.108	89.46
473.356	89.64
473.605	87.29
473.853	83.75
474.101	83.31
474.349	82.63
474.597	84.67
474.845	84.12
475.093	82.81
475.341	78.85
475.589	79.26
475.837	79.82
476.085	81.62
476.333	79.57
476.581	81.55
476.829	81.45
477.077	83.86
477.325	83.2
477.573	85.15
477.821	84.24
478.069	86.76
478.317	86.13
478.564	87.92
478.812	87.11
479.06	87.03
479.308	85.22
479.555	84.53
479.803	81.61
480.051	82.42
480.299	81.36
480.546	81.18
480.794	79.06
481.042	78.87
481.289	78.51
481.537	80.67
481.784	79.78
482.032	81.64
482.28	81.28
482.527	80.9
482.775	80.66
483.022	82.25
483.27	84.78
483.517	87.7
483.765	86.19
484.012	86.1
484.259	83.02
484.507	84.72
484.754	84.22
485.002	84.89
485.249	82.91
485.496	86.08
485.744	84.03
485.991	83.83
486.238	82.39
486.486	86.72
486.733	88.28
486.98	91.54
487.227	90.07
487.474	93.43
487.722	95.53
487.969	95.33
488.216	95.24
488.463	95.75
488.71	96.28
488.957	96.52
489.204	96.45
489.451	98.16
489.699	97.8
489.946	96.02
490.193	95.64
490.44	96.26
490.687	98.29
490.934	96.02
491.18	92.9
491.427	93.98
491.674	98.17
491.921	100.46
492.168	98.69
492.415	97.26
492.662	99.6
492.909	101.85
493.155	100.03
493.402	99.63
493.649	98.15
493.896	100.41
494.142	96.91
494.389	96.26
494.636	94.69
494.883	94.01
495.129	92.46
495.376	92.33
495.623	94.11
495.869	96.79
496.116	98.53
496.362	98.72
496.609	101.78
496.855	106.81
497.102	106.86
497.348	107.22
497.595	109.07
497.841	113.64
498.088	114.19
498.334	114.86
498.581	113.55
498.827	113.75
499.074	115.56
499.32	117.34
499.566	121.15
499.813	122.78
500.059	122.75
500.305	121.98
500.552	121.57
500.798	121.98
501.044	126.13
501.29	126.24
501.537	124.06
501.783	127.28
502.029	130.59
502.275	130.25
502.521	130.15
502.767	131.92
503.013	134.13
503.26	132.15
503.506	129.29
503.752	130.53
503.998	128.45
504.244	129.84
504.49	128.4
504.736	130.27
504.982	130.76
505.228	132.61
505.474	133.97
505.72	134.98
505.966	134.19
506.211	138.27
506.457	139.19
506.703	136.7
506.949	134.36
507.195	131.35
507.441	128.83
507.686	131.2
507.932	131.95
508.178	133.7
508.424	132.08
508.669	130.11
508.915	132.31
509.161	134.56
509.406	134.66
509.652	135.18
509.898	137.73
510.143	140.41
510.389	140.14
510.634	137.23
510.88	140.86
511.125	144.41
511.371	144.96
511.616	147.59
511.862	143.75
512.107	140.06
512.353	140.13
512.598	139.32
512.844	138.01
513.089	135.7
513.335	136.97
513.58	136.08
513.825	135.71
514.071	135.28
514.316	135.11
514.561	136.27
514.806	136.39
515.052	138.27
515.297	137.75
515.542	137.86
515.787	138.97
516.033	140.87
516.278	141.08
516.523	139.13
516.768	137.85
517.013	134.34
517.258	132.81
517.503	133.33
517.748	132.73
517.993	133.12
518.238	132.4
518.483	129.71
518.728	127.39
518.973	126.06
519.218	125.75
519.463	127.22
519.708	127.67
519.953	126.49
520.198	126.57
520.443	127.33
520.688	129.91
520.933	128.2
521.177	128.88
521.422	127.18
521.667	128.61
521.912	128.54
522.157	124.93
522.401	128.28
522.646	128.85
522.891	128.22
523.135	128.33
523.38	126.59
523.625	125.12
523.869	127.33
524.114	128.17
524.358	127.54
524.603	130.03
524.848	128.24
525.092	126.05
525.337	126.64
525.581	127.62
525.826	129.29
526.07	129.74
526.315	131.05
526.559	130.05
526.803	127.38
527.048	129.56
527.292	129.69
527.537	129.43
527.781	129.46
528.025	127.22
528.269	126.7
528.514	125.44
528.758	125.32
529.002	125.76
529.247	129.26
529.491	128.21
529.735	133.2
529.979	131.4
530.223	132.46
530.467	129.88
530.712	128.38
530.956	127.95
531.2	127.45
531.444	124.29
531.688	125.72
531.932	123.73
532.176	123.12
532.42	123.74
532.664	125
532.908	122.34
533.152	120.16
533.396	119.79
533.64	119.06
533.884	116.67
534.128	116.28
534.371	117.58
534.615	118.2
534.859	115.89
535.103	115.69
535.347	116.17
535.59	117.03
535.834	114.1
536.078	115.43
536.322	114.8
536.565	117.77
536.809	115.48
537.053	118.48
537.296	115.56
537.54	115.61
537.784	114.11
538.027	115.91
538.271	112.87
538.514	112.01
538.758	114.33
539.001	113.9
539.245	113.13
539.488	115.16
539.732	117.19
539.975	117.24
540.219	119.31
540.462	121.29
540.706	123.96
540.949	122.37
541.192	122.86
541.436	128.34
541.679	132.76
541.922	133.41
542.166	129.5
542.409	132.29
542.652	131.52
542.895	132.67
543.139	132.77
543.382	135.75
543.625	135.28
543.868	135.8
544.111	133.27
544.354	132.69
544.598	130.57
544.841	131.09
545.084	129.48
545.327	129.59
545.57	130.91
545.813	134.45
546.056	135.96
546.299	134.87
546.542	136.2
546.785	138.87
547.028	138.14
547.271	137.07
547.514	137.67
547.756	133.95
547.999	132.69
548.242	131.69
548.485	131.31
548.728	131.82
548.971	126.83
549.213	126.62
549.456	125.29
549.699	125.45
549.942	124.57
550.184	124.75
550.427	123.54
550.67	123.29
550.912	119.94
551.155	121.79
551.398	121.36
551.64	119.72
551.883	118.78
552.125	117.62
552.368	117.85
552.61	116.72
552.853	117.75
553.095	115.66
553.338	115.09
553.58	114.66
553.823	114.25
554.065	116.02
554.308	112.94
554.55	111.67
554.792	109
555.035	107.63
555.277	107.6
555.519	108.74
555.762	107.1
556.004	105.83
556.246	102.1
556.488	102.69
556.731	99.25
556.973	99.67
557.215	99.24
557.457	99.62
557.699	101.6
557.941	98.6
558.183	99.79
558.426	102.05
558.668	99.26
558.91	100.45
559.152	101.99
559.394	102.36
559.636	104.33
559.878	104.33
560.12	103.6
560.362	104.11
560.604	104.46
560.845	104.23
561.087	102.82
561.329	104.51
561.571	102.44
561.813	103.33
562.055	103.54
562.297	105.06
562.538	106.08
562.78	109.07
563.022	107.35
563.264	108.08
563.505	110.52
563.747	111
563.989	110.35
564.23	109.89
564.472	109.83
564.714	111.73
564.955	112.49
565.197	108.41
565.438	111.09
565.68	112.42
565.921	110.37
566.163	111.85
566.404	109.87
566.646	111.84
566.887	113.99
567.129	114.95
567.37	113.56
567.612	114.71
567.853	113.55
568.094	114.41
568.336	114.24
568.577	116.15
568.818	116.5
569.06	115.04
569.301	112.77
569.542	113.5
569.783	114.96
570.025	114.13
570.266	114.21
570.507	114.75
570.748	114.76
570.989	113.54
571.23	116.6
571.472	117.4
571.713	118.05
571.954	118.43
572.195	117.55
572.436	120.11
572.677	123.15
572.918	124.51
573.159	123.43
573.4	122.22
573.641	122.43
573.882	122.93
574.123	120.43
574.364	116.11
574.604	116.47
574.845	115.56
575.086	116.24
575.327	115.26
575.568	115.51
575.809	115.4
576.049	114.08
576.29	111.6
576.531	116.98
576.771	119.23
577.012	121.79
577.253	121.08
577.494	121.01
577.734	120.35
577.975	120.76
578.215	120.97
578.456	121.58
578.697	121.31
578.937	122.84
579.178	121.44
579.418	119.62
579.659	120.22
579.899	116.29
580.14	115.46
580.38	114.24
580.62	113.96
580.861	117.12
581.101	116.95
581.342	117.38
581.582	115.47
581.822	117.8
582.063	117.64
582.303	120.71
582.543	120.79
582.783	123.28
583.024	125.07
583.264	127.6
583.504	127.44
583.744	129.37
583.984	126.52
584.224	127.44
584.465	125.56
584.705	125.63
584.945	127.81
585.185	128.14
585.425	130.89
585.665	130.66
585.905	129.54
586.145	129.52
586.385	128.22
586.625	131.34
586.865	133.25
587.105	134.87
587.345	137.45
587.585	139.14
587.824	139.09
588.064	140.58
588.304	138.83
588.544	140.06
588.784	139.43
589.024	141.78
589.263	141.3
589.503	140.83
589.743	141.98
589.982	142.43
590.222	142.91
590.462	141.37
590.701	139.91
590.941	142.03
591.181	141
591.42	140.52
591.66	143.15
591.899	146.59
592.139	147.18
592.378	148.35
592.618	146.64
592.857	145.73
593.097	147.29
593.336	148.9
593.576	150.31
593.815	152.55
594.055	152.12
594.294	152.33
594.533	151.44
594.773	150.35
595.012	151.55
595.251	152.8
595.491	154.68
595.73	158.41
595.969	158.56
596.208	160.29
596.447	164.21
596.687	165.31
596.926	166.34
597.165	164.07
597.404	165.67
597.643	164.02
597.882	164.35
598.121	164.52
598.36	165.4
598.599	166.59
598.838	167.99
599.077	165.96
599.316	165.82
599.555	165.46
599.794	165.86
600.033	169.27
600.272	170.94
600.511	169.97
600.75	170.38
600.989	170.88
601.228	170.03
601.466	170.9
601.705	171.55
601.944	172.29
602.183	175.57
602.422	175.05
602.66	173.21
602.899	171.64
603.138	171.23
603.376	172.01
603.615	172.44
603.854	171.08
604.092	171.43
604.331	172.66
604.569	173.1
604.808	172.49
605.047	174.06
605.285	173.02
605.524	174.27
605.762	171.69
606	173.19
606.239	174.38
606.477	174.17
606.716	171.42
606.954	171.61
607.193	168.32
607.431	164.87
607.669	163.25
607.908	162.61
608.146	165.13
608.384	163.95
608.622	163.75
608.861	162.43
609.099	162.04
609.337	160.87
609.575	159.1
609.813	160.79
610.052	160.89
610.29	157.73
610.528	154.96
610.766	151.85
611.004	151.5
611.242	150.23
611.48	150.03
611.718	146.97
611.956	146.85
612.194	145.01
612.432	145.18
612.67	144.71
612.908	145.46
613.146	144.28
613.384	142.26
613.621	140.08
613.859	139.23
614.097	138.17
614.335	138.44
614.573	140.21
614.811	141.46
615.048	139.8
615.286	139.54
615.524	137.6
615.761	135.82
615.999	135.3
616.237	134.48
616.474	136.21
616.712	136.86
616.95	133.81
617.187	130.75
617.425	132.99
617.662	134.22
617.9	132.85
618.137	131.15
618.375	128.81
618.612	125.87
618.85	126.65
619.087	129.81
619.325	130.4
619.562	129.32
619.799	126.78
620.037	126.13
620.274	124.29
620.511	125.23
620.749	123.03
620.986	121.21
621.223	119.16
621.461	117.5
621.698	118.12
621.935	115.96
622.172	113.96
622.409	115.86
622.647	114.69
622.884	112.93
623.121	114.42
623.358	113.09
623.595	113.09
623.832	113.21
624.069	110.91
624.306	113.18
624.543	115.17
624.78	115.14
625.017	114.49
625.254	117.74
625.491	120.61
625.728	123.62
625.965	124.58
626.202	122.93
626.438	120.89
626.675	120.2
626.912	121.6
627.149	121.54
627.386	122.1
627.622	121.03
627.859	120.44
628.096	121.58
628.333	121.51
628.569	122
628.806	124.26
629.043	122.53
629.279	123.88
629.516	124.87
629.752	122.13
629.989	122.93
630.225	121.44
630.462	120.81
630.699	121.02
630.935	120.84
631.171	116.56
631.408	117.15
631.644	114.5
631.881	111.29
632.117	107.44
632.354	107.46
632.59	104.67
632.826	103.91
633.063	101.28
633.299	100.57
633.535	98.25
633.771	96.68
634.008	98.12
634.244	98.4
634.48	98.06
634.716	99.3
634.953	99.06
635.189	99.76
635.425	101.32
635.661	103.45
635.897	102.35
636.133	102.14
636.369	101.3
636.605	97.81
636.841	98.65
637.077	99.98
637.313	99.19
637.549	98.33
637.785	96.12
638.021	94.67
638.257	93.67
638.493	95.62
638.729	94.05
638.965	97.08
639.2	97.64
639.436	97.66
639.672	96.16
639.908	94.38
640.144	97.99
640.379	100.98
640.615	99.82
640.851	102.65
641.086	103.19
641.322	100.92
641.558	99.01
641.793	99.66
642.029	95.97
642.264	93.94
642.5	91.9
642.736	88.04
642.971	88.3
643.207	86.63
643.442	84.3
643.678	84.13
643.913	85.46
644.148	82.55
644.384	82.84
644.619	84.52
644.855	86.44
645.09	87.72
645.325	88.16
645.561	87.81
645.796	85.9
646.031	87.72
646.266	85.17
646.502	84.58
646.737	86.41
646.972	86.59
647.207	86.32
647.442	82.72
647.678	79.49
647.913	81.91
648.148	82.59
648.383	81.2
648.618	80.48
648.853	81.72
649.088	82.47
649.323	84.99
649.558	85.57
649.793	86.71
650.028	88.22
650.263	84.95
650.498	86.93
650.733	86.21
650.968	84.81
651.202	84.99
651.437	83.63
651.672	80.45
651.907	77.67
652.142	77.28
652.376	77.73
652.611	79.64
652.846	80.56
653.081	79.29
653.315	78.63
653.55	77.61
653.785	77.39
654.019	77.75
654.254	75.86
654.488	77.21
654.723	73.69
654.958	71.39
655.192	69.26
655.427	65.53
655.661	66.1
655.896	68.52
656.13	69.59
656.364	66.01
656.599	63.46
656.833	70.69
657.068	73.2
657.302	72.01
657.536	69.29
657.771	71.18
658.005	72.72
658.239	74.5
658.474	73.38
658.708	74.57
658.942	74.62
659.176	73.69
659.41	71.03
659.645	69
659.879	66.73
660.113	63.4
660.347	64.25
660.581	62.11
660.815	62.26
661.049	59.98
661.283	57.5
661.517	56.78
661.751	54.96
661.985	56.07
662.219	58.96
662.453	57.44
662.687	57.96
662.921	56.84
663.155	55.72
663.389	50.12
663.622	49.42
663.856	51.49
664.09	43.75
664.324	41.34
664.558	41.52
664.791	42.46
665.025	41.21
665.259	40.9
665.492	38.89
665.726	40.97
665.96	40.84
666.193	39.11
666.427	40.54
666.661	40.97
666.894	40.01
667.128	39.09
667.361	40.83
667.595	38.49
667.828	37.9
668.062	36.79
668.295	36.83
668.529	37.47
668.762	37.94
668.995	37.84
669.229	39.64
669.462	38.25
669.695	39.6
669.929	39
670.162	38.66
670.395	35.96
670.629	37.46
670.862	39.78
671.095	36.45
671.328	36.94
671.561	34.68
671.795	35.19
672.028	36.16
672.261	36.12
672.494	37.55
672.727	36.65
672.96	37.15
673.193	35.16
673.426	40.03
673.659	39.79
673.892	40.05
674.125	40.11
674.358	40.33
674.591	39.97
674.824	40.75
675.057	39.78
675.29	39.56
675.523	40.45
675.755	38.25
675.988	38.74
676.221	40.42
676.454	39.11
676.687	39.92
676.919	37.44
677.152	37.02
677.385	34.95
677.617	36.27
677.85	37.72
678.083	35.14
678.315	37.43
678.548	35.16
678.78	35.71
679.013	35.79
679.246	35.39
679.478	35.54
679.711	32.02
679.943	33.69
680.175	30.34
680.408	33.52
680.64	29.08
680.873	29.28
681.105	28.92
681.338	31.03
681.57	30.35
681.802	31.19
682.034	31.01
682.267	33.78
682.499	34.28
682.731	33.47
682.964	32.41
683.196	30.28
683.428	29.11
683.66	27.3
683.892	29.49
684.124	32.7
684.356	35.38
684.589	37.27
684.821	35.73
685.053	34.31
685.285	36.05
685.517	36.82
685.749	38.61
685.981	39.47
686.213	40.05
686.445	40.75
686.676	38.08
686.908	39.44
687.14	37.44
687.372	38.13
687.604	36.16
687.836	37.74
688.068	37.2
688.299	36.83
688.531	34.73
688.763	38.57
688.995	36.82
689.226	39.71
689.458	38
689.69	37.45
689.921	35.42
690.153	36.94
690.384	39.97
690.616	38.05
690.848	38.25
691.079	35.12
691.311	33.14
691.542	29.3
691.774	27.33
692.005	30.22
692.237	33.17
692.468	31.64
692.699	30.76
692.931	29.96
693.162	27.07
693.393	25.82
693.625	25.01
693.856	24.82
694.087	25.86
694.319	28
694.55	27.32
694.781	25.83
695.012	24.51
695.243	22.59
695.475	22.94
695.706	24.24
695.937	22
696.168	21.38
696.399	19.04
696.63	19.55
696.861	18.77
697.092	23.59
697.323	24.72
697.554	24.8
697.785	26.08
698.016	27.84
698.247	27.07
698.478	27.29
698.709	28.58
698.94	32.79
699.171	32.21
699.401	28.48
699.632	29.8
699.863	27.18
700.094	26.65
700.325	29.63
700.555	29.94
700.786	31.38
701.017	32.91
701.247	30.81
701.478	30.81
701.709	32.24
701.939	32.52
702.17	34.59
702.401	36.91
702.631	37.15
702.862	36.17
703.092	34.54
703.323	36.02
703.553	37.02
703.784	36.25
704.014	37.02
704.244	32.4
704.475	31.95
704.705	30.97
704.936	31.45
705.166	29.98
705.396	30.5
705.627	30.81
705.857	31.26
706.087	29.34
706.317	26.95
706.548	26.79
706.778	26.36
707.008	27.9
707.238	28.84
707.468	26.96
707.698	25.01
707.928	23.18
708.158	20.91
708.389	21.3
708.619	19.23
708.849	17.22
709.079	17
709.309	13.93
709.539	12.77
709.768	12.31
709.998	13.27
710.228	13.04
710.458	12.87
710.688	11.2
710.918	10.52
711.148	9.43
711.378	10.84
711.607	10.66
711.837	11.13
712.067	10.71
712.297	10.93
712.526	10.59
712.756	12.47
712.986	10.8
713.215	8.46
713.445	9.38
713.674	10.36
713.904	9.47
714.134	10.87
714.363	10.97
714.593	11.06
714.822	11.81
715.052	12.36
715.281	14.04
715.511	13.02
715.74	13.35
715.969	12.58
716.199	12.3
716.428	13.32
716.657	12.14
716.887	14.2
717.116	12.13
717.345	13.68
717.575	13.65
717.804	14.16
718.033	13.42
718.262	12.79
718.492	12.99
718.721	12.9
718.95	12.96
719.179	10.87
719.408	11.84
719.637	9.21
719.866	5.61
720.095	7.06
720.324	6.99
720.553	3.44
720.782	2.06
721.011	2.28
721.24	0.8
721.469	-0.39
721.698	0.09
721.927	-0.6
722.156	-2.74
722.385	-2.71
722.613	0.05
722.842	1.28
723.071	4.86
723.3	6.96
723.529	6.46
723.757	8.4
723.986	5.63
724.215	5.2
724.443	5.77
724.672	7.84
724.901	7.81
725.129	10.27
725.358	14.08
725.586	11.48
725.815	11.41
726.043	10.35
726.272	10.61
726.5	9.69
726.729	11.48
726.957	9.67
727.186	7.7
727.414	8.76
727.642	12.43
727.871	14.91
728.099	14.48
728.327	13.68
728.556	15.67
728.784	15.68
729.012	14.87
729.241	18.19
729.469	16.7
729.697	13.76
729.925	12.46
730.153	10.01
730.381	9.06
730.61	8.37
730.838	6.33
731.066	7.64
731.294	8.53
731.522	5.98
731.75	1.66
731.978	1.65
732.206	-0.92
732.434	-4.23
732.662	-2.16
732.89	-4.48
733.118	-4.97
733.346	-6.15
733.573	-5.27
733.801	-4.92
734.029	1.36
734.257	2.58
734.485	5.44
734.712	5.67
734.94	2.08
735.168	5.45
735.396	6.81
735.623	5
735.851	4.84
736.078	6.57
736.306	5.76
736.534	5.63
736.761	6.71
736.989	6.3
737.216	4.58
737.444	3.08
737.671	4.8
737.899	8.76
738.126	7.56
738.354	8.18
738.581	9.15
738.809	11.84
739.036	9.55
739.263	10.74
739.491	10.62
739.718	11
739.945	15.24
740.173	16.54
740.4	16.68
740.627	14.99
740.854	15.17
741.081	13.12
741.309	11.72
741.536	6.84
741.763	5.42
741.99	7.5
742.217	6.61
742.444	5.95
742.671	7.01
742.898	7.15
743.125	5.3
743.352	3.05
743.579	2.67
743.806	2.53
744.033	4.93
744.26	7.59
744.487	8.95
744.714	8.77
744.941	7.23
745.167	10.11
745.394	8.97
745.621	8.7
745.848	8.35
746.075	11.03
746.301	13.98
746.528	18.25
746.755	17.11
746.981	16.27
747.208	18.26
747.435	20.48
747.661	20.39
747.888	20.53
748.114	19.1
748.341	21.17
748.567	24.7
748.794	22.85
749.02	22.73
749.247	19.55
749.473	18.28
749.7	18.17
749.926	18.07
750.152	20.82
750.379	20.94
750.605	22.73
750.831	23.05
751.058	21.82
751.284	20.88
751.51	22.29
751.737	24.69
751.963	24.04
752.189	23.62
752.415	23.09
752.641	23.11
752.867	23.19
753.094	21.48
753.32	20.59
753.546	17.73
753.772	19.45
753.998	18.68
754.224	17.74
754.45	18.36
754.676	17.99
754.902	16.97
755.128	16.73
755.354	16.18
755.579	16.14
755.805	18.24
756.031	16.6
756.257	17.01
756.483	15.68
756.709	13.62
756.934	14.87
757.16	11.93
757.386	12.19
757.612	10.21
757.837	8.18
758.063	10.15
758.289	11.54
758.514	9.09
758.74	4.92
758.965	1.9
759.191	0.81
759.416	1.71
759.642	3.84
759.868	4.04
760.093	6.21
760.318	4.31
760.544	4.41
760.769	2.99
760.995	2.78
761.22	1.06
761.445	2.86
761.671	4.8
761.896	7.7
762.121	7.62
762.347	6.32
762.572	3.82
762.797	3.31
763.022	3.75
763.248	7.15
763.473	9.32
763.698	9.54
763.923	8.77
764.148	8.95
764.373	9.72
764.598	10.44
764.823	12.65
765.048	9.76
765.273	7.13
765.498	7.08
765.723	7.08
765.948	9.09
766.173	9.26
766.398	11
766.623	7.64
766.848	6.04
767.073	4.55
767.298	5.29
767.522	5.34
767.747	6.65
767.972	5.52
768.197	7.45
768.421	5.11
768.646	3.26
768.871	1.31
769.095	1.13
769.32	3.47
769.545	3.09
769.769	5.02
769.994	6.66
770.218	3.89
770.443	5.06
770.667	6.31
770.892	7.11
771.116	7.13
771.341	8.61
771.565	9.41
771.79	8.57
772.014	7.59
772.238	7.26
772.463	8.99
772.687	11.07
772.911	10.8
773.136	9.43
773.36	8.79
773.584	11.07
773.808	10.14
774.033	10.33
774.257	10.07
774.481	8.66
774.705	7.07
774.929	8.16
775.153	6.81
775.377	7.9
775.602	7.71
775.826	8.44
776.05	11.29
776.274	9.64
776.498	11.67
776.722	9.85
776.945	9.92
777.169	9.81
777.393	8.26
777.617	7.11
777.841	7.74
778.065	9.5
778.289	8.09
778.512	5.37
778.736	5.44
778.96	4.85
779.184	7.17
779.407	6.03
779.631	5.55
779.855	4.05
780.078	4.51
780.302	2.53
780.526	-0.3
780.749	1.25
780.973	3.13
781.196	2.63
781.42	1.55
781.643	2.22
781.867	2.74
782.09	1.4
782.314	0.65
782.537	-0.04
782.76	-1.52
782.984	-1.78
783.207	-1.57
783.431	-2.11
783.654	-3.06
783.877	-4.72
784.1	-4.46
784.324	-5.15
784.547	-5.74
784.77	-10.2
784.993	-11.76
785.216	-12.24
785.44	-10.15
785.663	-9.86
785.886	-7.24
786.109	-7.36
786.332	-6.51
786.555	-6.75
786.778	-4.01
787.001	-2.74
787.224	-0.99
787.447	0.11
787.67	0.51
787.893	-0.64
788.116	-0.17
788.339	1.41
788.561	1.24
788.784	-1.96
789.007	-2.19
789.23	-3.49
789.453	-2.39
789.675	-3.71
789.898	-5.63
790.121	-6.29
790.344	-6.51
790.566	-4.95
790.789	-4.99
791.012	-5.27
791.234	-2.55
791.457	1.21
791.679	2
791.902	1.94
792.124	1.58
792.347	0.26
792.569	0.25
792.792	-2.36
793.014	-1.36
793.237	0.82
793.459	0.24
793.681	-0.71
793.904	-2.05
794.126	-3.72
794.348	-2.41
794.571	-0.75
794.793	-1.79
795.015	-1.68
795.237	-2.26
795.46	-1.33
795.682	-0.39
795.904	1.27
796.126	0.6
796.348	-0.71
796.57	2.51
796.792	3.55
797.014	7.13
797.237	9.45
797.459	11.05
797.681	11.91
797.903	10.43
798.124	10.75
798.346	20.14
798.568	21.93
798.79	25.33
799.012	26.46
799.234	27.82
799.456	28.74
799.678	30.66
799.899	28.44
800.121	24.61
800.343	24.19
800.565	23.95
800.786	24.34
801.008	25.92
801.23	24.48
801.451	23.34
801.673	22.36
801.895	22.97
802.116	24.32
802.338	25.07
802.559	24.71
802.781	23.53
803.002	25.36
803.224	28.1
803.445	27.01
803.667	27.11
803.888	24.98
804.109	24.39
804.331	22.72
804.552	23.08
804.773	25.12
804.995	21.9
805.216	10.64
805.437	8.66
805.658	5.96
805.88	5.52
806.101	4.59
806.322	3.47
806.543	2.42
806.764	1.91
806.985	2.67
807.207	4.44
807.428	5.19
807.649	2.72
807.87	2.02
808.091	2.97
808.312	3.89
808.533	8.61
808.754	9.58
808.975	8.53
809.195	10.51
809.416	11.89
809.637	10.89
809.858	9.17
810.079	8.12
810.3	9.2
810.52	8.82
810.741	6.24
810.962	4.63
811.183	3.29
811.403	3.58
811.624	2.37
811.845	3.87
812.065	4.03
812.286	5.37
812.506	6.11
812.727	5.26
812.948	6.14
813.168	8.3
813.389	8
813.609	9.51
813.83	9.33
814.05	8.02
814.27	8.86
814.491	12.51
814.711	11.01
814.931	7.96
815.152	6.59
815.372	3.69
815.592	2.97
815.813	2.43
816.033	-1.02
816.253	0.5
816.473	0.47
816.694	1.31
816.914	1.83
817.134	1.36
817.354	-0.4
817.574	0.38
817.794	-0.69
818.014	-0.78
818.234	-0.9
818.454	-1.85
818.674	-3.89
818.894	-6.64
819.114	-4.34
819.334	-4.57
819.554	-2.98
819.774	-0.43
819.994	-3.03
820.214	-2.94
820.433	-2.54
820.653	-2.3
820.873	0.42
821.093	0.88
821.312	-0.39
821.532	3.02
821.752	6.07
821.972	4.97
822.191	6.36
822.411	5.33
822.63	6.13
822.85	6.84
823.07	3.91
823.289	5.12
823.509	4.23
823.728	5.83
823.948	3.61
824.167	3.74
824.387	4.22
824.606	5.81
824.825	5.33
825.045	4.86
825.264	4.83
825.483	7.22
825.703	9.12
825.922	5.89
826.141	4.91
826.361	4.85
826.58	1.24
826.799	0.47
827.018	2.31
827.237	2.29
827.456	3.08
827.676	2.51
827.895	2.4
828.114	2.87
828.333	1.83
828.552	2.19
828.771	3.72
828.99	1.76
829.209	1.66
829.428	2.49
829.647	2.34
829.866	3.78
830.084	3.01
830.303	3.14
830.522	1.48
830.741	1.55
830.96	2.23
831.179	1.76
831.397	1.04
831.616	2.61
831.835	2.94
832.053	5.68
832.272	6.01
832.491	7.07
832.709	7.19
832.928	7.91
833.147	9.24
833.365	10.83
833.584	12.87
833.802	13.36
834.021	11.31
834.239	12.29
834.458	10.79
834.676	6.81
834.894	6.07
835.113	5.09
835.331	3.62
835.55	2.26
835.768	3.42
835.986	4.43
836.204	2.78
836.423	3.65
836.641	2.34
836.859	2.32
837.077	2.54
837.296	3.03
837.514	2.95
837.732	3.25
837.95	3.97
838.168	6.22
838.386	5
838.604	6.96
838.822	4.89
839.04	2.72
839.258	2.83
839.476	4.6
839.694	4.89
839.912	2.27
840.13	1.23
840.348	4.16
840.566	1.8
840.783	5.03
841.001	3.79
841.219	4.64
841.437	6.49
841.655	7.06
841.872	6.68
842.09	6.83
842.308	7.75
842.525	7.57
842.743	8.53
842.961	7.42
843.178	5.23
843.396	8.4
843.613	9.54
843.831	10.5
844.048	9.46
844.266	9.09
844.483	7.67
844.701	6.27
844.918	6.03
845.136	5.37
845.353	3.36
845.57	4.49
845.788	7.49
846.005	4.48
846.222	4.21
846.439	5.68
846.657	5.77
846.874	7.45
847.091	3.98
847.308	5.64
847.526	4.44
847.743	3.8
847.96	3.08
848.177	3.05
848.394	2.85
848.611	2.72
848.828	2.26
849.045	1.83
849.262	2.16
849.479	2.18
849.696	2.06
849.913	0.04
850.13	-4.66
850.347	-2.8
850.564	-3.06
850.78	-4.46
850.997	-5.68
851.214	-5.51
851.431	-4.06
851.647	-6.68
851.864	-4.88
852.081	-3.83
852.298	-7.21
852.514	-8.88
852.731	-5.73
852.948	-5.14
853.164	-6.3
853.381	-6.11
853.597	-7.39
853.814	-8.79
854.03	-11.24
854.247	-10.34
854.463	-9.2
854.68	-9.69
854.896	-9.46
855.113	-9.48
855.329	-9.59
855.545	-7.53
855.762	-7.79
855.978	-11.36
856.194	-14.19
856.411	-9.95
856.627	-6.78
856.843	-5
857.059	-3.28
857.275	-3.81
857.492	-3.43
857.708	0.95
857.924	2.82
858.14	3.49
858.356	2.96
858.572	2.18
858.788	1.11
859.004	3.89
859.22	2.88
859.436	2.03
859.652	0.28
859.868	-0.68
860.084	-0.09
860.3	-0.54
860.516	-0.51
860.731	-0.25
860.947	-1.9
861.163	-1.31
861.379	-0.43
861.595	2.57
861.81	3.08
862.026	4.44
862.242	3.8
862.457	3.68
862.673	5.42
862.889	6.41
863.104	5.15
863.32	5.26
863.535	7.51
863.751	3.34
863.966	5.62
864.182	8.9
864.397	6.24
864.613	4.48
864.828	3.02
865.044	4.7
865.259	6.04
865.474	5.89
865.69	7.39
865.905	8.87
866.12	7.41
866.336	7.69
866.551	9.92
866.766	9.71
866.981	8.44
867.196	9.21
867.412	10.49
867.627	10.02
867.842	8.72
868.057	8.11
868.272	5.47
868.487	4.67
868.702	3.02
868.917	3.08
869.132	3.66
869.347	4.18
869.562	3.13
869.777	3.74
869.992	2.5
870.207	0.62
870.422	0.43
870.636	-1.35
870.851	-4.09
871.066	-4.62
871.281	-4.26
871.495	-5.46
871.71	-2.91
871.925	-4.73
872.14	-6.32
872.354	-7.82
872.569	-9.39
872.783	-7.32
872.998	-6.82
873.213	-7.32
873.427	-6.87
873.642	-5.08
873.856	-5.32
874.071	-6.11
874.285	-6.13
874.5	-8.19
874.714	-9.32
874.928	-9.06
875.143	-9.39
875.357	-9.38
875.571	-10.35
875.786	-9.79
876	-6.36
876.214	-6
876.429	-9.55
876.643	-8.14
876.857	-6.85
877.071	-7.87
877.285	-8.41
877.499	-9.48
877.714	-6.55
877.928	-5.3
878.142	-5.04
878.356	-8.14
878.57	-7.54
878.784	-5.16
878.998	-6.43
879.212	-3.23
879.426	-3.41
879.639	-2.72
879.853	-4.38
880.067	-4.55
880.281	-5.81
880.495	-4.37
880.709	-2.51
880.922	-2.65
881.136	-0.32
881.35	2.03
881.564	2.06
881.777	1.83
881.991	3.15
882.205	4.98
882.418	4.38
882.632	1.94
882.845	2.46
883.059	4.08
883.273	3.09
883.486	1.56
883.7	4.84
883.913	3.89
884.126	5.23
884.34	1.03
884.553	-0.4
884.767	2.28
884.98	2.24
885.193	1.08
885.407	0.76
885.62	3.28
885.833	2.27
886.046	1.8
886.26	0.33
886.473	-0.38
886.686	0.04
886.899	2.05
887.112	2.01
887.326	-0.48
887.539	0.69
887.752	2.16
887.965	-0.64
888.178	-0.6
888.391	-1.22
888.604	-1.09
888.817	-2.84
889.03	-1.65
889.243	-3.42
889.455	-3.63
889.668	-3.01
889.881	-0.54
890.094	-1.25
890.307	-4.31
890.52	-2.76
890.732	-3.14
890.945	-1.88
891.158	-2.16
891.37	-4.96
891.583	-5.29
891.796	-2.99
892.008	-3.84
892.221	-5.94
892.434	-9.03
892.646	-9.7
892.859	-9.92
893.071	-7.99
893.284	-6.71
893.496	-7.89
893.709	-8.73
893.921	-7.75
894.133	-8.59
894.346	-10.54
894.558	-9.74
894.771	-10.37
894.983	-8.19
895.195	-7.89
895.407	-7.76
895.62	-9.57
895.832	-7.85
896.044	-7.02
896.256	-7.7
896.468	-9.05
896.681	-8.17
896.893	-6.17
897.105	-6.06
897.317	-5.67
897.529	-3.25
897.741	-2.21
897.953	-0.15
898.165	-1.37
898.377	-3.74
898.589	-4.02
898.801	-3.54
899.013	-1.6
899.224	1.57
899.436	3.01
899.648	2.35
899.86	0.33
900.072	3.68
900.283	5.78
900.495	7.53
900.707	8.61
900.919	7.27
901.13	8.61
901.342	7.88
901.554	6.9
901.765	6.9
901.977	5.77
902.188	5.08
902.4	3.31
902.611	2.82
902.823	1.16
903.034	-1.59
903.246	-1.71
903.457	-1.42
903.669	-2.4
903.88	-2.98
904.091	-4.62
904.303	-3.1
904.514	-2.48
904.725	0.11
904.936	1.22
905.148	2.44
905.359	3.88
905.57	4.11
905.781	1.31
905.992	1.14
906.204	1.74
906.415	0.95
906.626	-1.13
906.837	-0.45
907.048	-0.41
907.259	-1.4
907.47	-3.09
907.681	-4.12
907.892	-1.51
908.103	-3.29
908.314	-5.35
908.525	-3.81
908.735	-2.2
908.946	-2.68
909.157	-4.97
909.368	-3.48
909.579	-0.9
909.789	-2.38
910	-4.98
910.211	-3.03
910.421	-4.06
910.632	-2.66
910.843	-5.95
911.053	-3.95
911.264	-1.29
911.475	-1.96
911.685	-2.68
911.896	-2.57
912.106	-2.24
912.317	-3.86
912.527	-2.63
912.737	-3.16
912.948	-2.31
913.158	-2.07
913.369	-3.96
913.579	-3.5
913.789	-2.77
914	1.9
914.21	2.48
914.42	1.76
914.63	2.96
914.841	4.18
915.051	6.02
915.261	5.88
915.471	8.97
915.681	10.87
915.891	11.58
916.101	10.91
916.311	11.55
916.521	13.33
916.731	13.26
916.941	17.3
917.151	16.77
917.361	20.45
917.571	16.25
917.781	13.78
917.991	11.36
918.201	11.61
918.411	8.61
918.621	8.34
918.83	9.88
919.04	7.15
919.25	8.22
919.46	9.25
919.669	7.52
919.879	7.57
920.089	5.72
920.298	4.25
920.508	3.81
920.717	3.42
920.927	1.14
921.136	1.98
921.346	0.3
921.555	-2.5
921.765	-3.09
921.974	-5.6
922.184	-7.81
922.393	-8
922.603	-9.34
922.812	-7.89
923.021	-8.69
923.23	-9.46
923.44	-12.24
923.649	-12.63
923.858	-14.63
924.067	-13.08
924.277	-15.14
924.486	-11.6
924.695	-11.35
924.904	-9.46
925.113	-9.88
925.322	-9.16
925.531	-7.88
925.74	-9.56
925.949	-10.52
926.158	-9.16
926.367	-10.04
926.576	-9.18
926.785	-8.19
926.994	-9.13
927.203	-7.84
927.412	-7.18
927.621	-8.28
927.83	-6.72
928.038	-7.2
928.247	-7.53
928.456	-6.56
928.665	-5.63
928.873	-2.89
929.082	-0.38
929.291	-0.7
929.499	2
929.708	0.39
929.916	-0.22
930.125	-1.08
930.333	-0.92
930.542	0.84
930.75	3.69
930.959	3.11
931.167	2.01
931.376	2.17
931.584	3.09
931.793	3.97
932.001	3.99
932.209	2.8
932.418	0.63
932.626	-0.74
932.834	-2.94
933.042	-5.65
933.251	-6.29
933.459	-6.78
933.667	-7.7
933.875	-7.94
934.083	-7.89
934.291	-7.16
934.499	-4.98
934.707	-4.29
934.915	-4.67
935.123	-2.47
935.331	-5.46
935.539	-6.67
935.747	-7.39
935.955	-8.54
936.163	-8
936.371	-7.33
936.579	-5.14
936.787	-6.25
936.995	-8.56
937.202	-10.92
937.41	-10.63
937.618	-10.68
937.826	-10.93
938.033	-13.99
938.241	-15.1
938.449	-14.43
938.656	-11.87
938.864	-10.18
939.071	-9.74
939.279	-5.42
939.486	-2.52
939.694	-2.68
939.901	-3.51
940.109	-2.52
940.316	-1.74
940.524	-1.34
940.731	-2.59
940.939	-2.76
941.146	-2.94
941.353	-4.21
941.561	-4.2
941.768	-4.55
941.975	-4.32
942.182	-5.08
942.39	-5.32
942.597	-2.38
942.804	-2.59
943.011	-4.01
943.218	-2.36
943.425	-1.89
943.632	0.73
943.839	0.71
944.046	0.45
944.253	0.96
944.46	2.15
944.667	4.2
944.874	4.14
945.081	4.65
945.288	4.56
945.495	6.05
945.702	4.04
945.909	1.45
946.115	2.78
946.322	2.18
946.529	1.53
946.736	2.25
946.942	3.27
947.149	2.39
947.356	0.78
947.562	-0.67
947.769	-0.33
947.976	-1.71
948.182	-1.11
948.389	-1.09
948.595	0.22
948.802	0.44
949.008	-1.4
949.215	0.81
949.421	0.61
949.628	-0.36
949.834	0.1
950.04	-2.45
950.247	0.12
950.453	-0.14
950.659	-1.63
950.865	-0.44
951.072	-4.05
951.278	-2.22
951.484	-3.34
951.69	-4.15
951.896	-4.83
952.103	-4.4
952.309	-2.77
952.515	-4.31
952.721	-2.42
952.927	-1.36
953.133	-3.6
953.339	-3.74
953.545	-2.43
953.751	-1.44
953.957	0.86
954.163	0.19
954.369	1.11
954.574	0.6
954.78	0.65
954.986	0.97
955.192	1.62
955.398	1.05
955.603	-1.53
955.809	-1.3
956.015	-0.83
956.22	-1.36
956.426	0.84
956.632	-3.63
956.837	-2.1
957.043	-1.33
957.248	-0.61
957.454	0.02
957.66	-2.42
957.865	-2.46
958.07	-1.77
958.276	-3.62
958.481	-5.42
958.687	-6.26
958.892	-5.03
959.097	-5.39
959.303	-6
959.508	-5.74
959.713	-6.17
959.919	-7.76
960.124	-8.8
960.329	-8.25
960.534	-6.19
960.739	-5.89
960.945	-4.62
961.15	-5.42
961.355	-6.11
961.56	-8.65
961.765	-8.62
961.97	-7.45
962.175	-5.3
962.38	-9.12
962.585	-6.96
962.79	-9.77
962.995	-9.13
963.2	-10.28
963.404	-9.97
963.609	-12.15
963.814	-12.27
964.019	-13.49
964.224	-16.05
964.428	-14.38
964.633	-12.29
964.838	-9.83
965.042	-10.09
965.247	-11.35
965.452	-10.14
965.656	-8.73
965.861	-7.34
966.066	-8.18
966.27	-5.41
966.475	-2.19
966.679	-5.56
966.884	-4.13
967.088	-5.25
967.292	-7.02
967.497	-6.45
967.701	-7.06
967.906	-4.88
968.11	-2.9
968.314	-0.6
968.518	-2.74
968.723	1.32
968.927	-0.34
969.131	2.84
969.335	5.32
969.539	6.42
969.744	7.65
969.948	9.84
970.152	9.57
970.356	11.23
970.56	12.83
970.764	11.72
970.968	13.2
971.172	13.11
971.376	14.5
971.58	16.74
971.784	15.82
971.988	12.65
972.192	13.88
972.395	12.85
972.599	10.55
972.803	9.21
973.007	11.63
973.21	10.38
973.414	10.07
973.618	11.43
973.822	11.49
974.025	12.03
974.229	11.06
974.432	7.66
974.636	5.55
974.84	6.97
975.043	5.98
975.247	5.15
975.45	1.5
975.654	3.19
975.857	2.84
976.06	0.97
976.264	-0.52
976.467	1.25
976.671	0.11
976.874	0.62
977.077	0.18
977.28	-0.84
977.484	-2.95
977.687	-3.49
977.89	-4.2
978.093	-3.72
978.297	-1.24
978.5	-2.79
978.703	-1.89
978.906	-1.16
979.109	-1.98
979.312	-2.37
979.515	-2.93
979.718	-2.71
979.921	-3.65
980.124	-5.3
980.327	-5.47
980.53	-6
980.733	-3.25
980.936	-0.33
981.138	-2.84
981.341	-1.29
981.544	-0.95
981.747	0.46
981.949	-3.2
982.152	-2.34
982.355	-1.83
982.558	1.05
982.76	-0.93
982.963	-1.13
983.165	-0.1
983.368	-0.18
983.571	-0.54
983.773	2.61
983.976	2.89
984.178	3.54
984.381	3.53
984.583	0.36
984.785	1.12
984.988	4.11
985.19	5.36
985.392	5.03
985.595	2.92
985.797	3.23
985.999	5.04
986.202	7.36
986.404	7.99
986.606	10.34
986.808	9.52
987.01	9.49
987.212	6.7
987.415	6.37
987.617	5.96
987.819	5.08
988.021	5.69
988.223	5.46
988.425	3.77
988.627	4
988.829	0.04
989.031	2.54
989.232	1.32
989.434	2.08
989.636	2.68
989.838	1.93
990.04	2.24
990.242	0.71
990.443	-1.47
990.645	-0.02
990.847	2.57
991.048	1.23
991.25	-1.54
991.452	-3.87
991.653	-5.51
991.855	-5.25
992.057	-5.6
992.258	-5.12
992.46	-5.63
992.661	-4.97
992.863	-4.54
993.064	-3.37
993.265	-4.14
993.467	-5.74
993.668	-3.89
993.87	-4.02
994.071	-4.29
994.272	-4.58
994.473	-2.62
994.675	-0.4
994.876	-0.52
995.077	0.08
995.278	-0.08
995.48	1.83
995.681	-0.87
995.882	-0.54
996.083	-0.47
996.284	-4.06
996.485	-3.55
996.686	-3.74
996.887	-5.46
997.088	-7.66
997.289	-7.72
997.49	-8.06
997.691	-6.56
997.892	-6.24
998.092	-2.28
998.293	-2.88
998.494	-3.93
998.695	-5.21
998.896	-3.41
999.096	-6.26
999.297	-6.13
999.498	-7.28
999.698	-8.79
999.899	-10.99
1000.1	-13.07
1000.3	-12.02
1000.501	-11.59
1000.701	-11.62
1000.902	-12.1
1001.102	-11.41
1001.303	-9.1
1001.503	-11.38
1001.704	-11.08
1001.904	-12.12
1002.105	-12.97
1002.305	-12.45
1002.505	-13.17
1002.706	-13.21
1002.906	-13.16
1003.106	-13.17
1003.306	-11.81
1003.507	-10.26
1003.707	-10.74
1003.907	-8.48
1004.107	-5.99
1004.307	-8.13
1004.507	-5.99
1004.707	-7.61
1004.907	-8.24
1005.107	-9.11
1005.308	-8.24
1005.507	-9.31
1005.707	-6.9
1005.907	-5.66
1006.107	-2.29
1006.307	-1.36
1006.507	-1.89
1006.707	-1.7
1006.907	-1.38
1007.106	-2.88
1007.306	-4.1
1007.506	-4.9
1007.706	-5.09
1007.905	-6.15
1008.105	-4.41
1008.305	-5.03
1008.504	-4.45
1008.704	0.63
1008.903	1.37
1009.103	3.32
1009.303	0.33
1009.502	-0.13
1009.702	-1.08
1009.901	0.34
1010.1	-2.74
1010.3	-1.76
1010.499	-1.79
1010.699	-2.39
1010.898	-0.86
1011.097	-0.33
1011.296	-0.42
1011.496	-0.88
1011.695	-0.74
1011.894	-2.6
1012.093	0.91
1012.293	-0.21
1012.492	-0.16
1012.691	-0.92
1012.89	-0.96
1013.089	-3.59
1013.288	-2.26
1013.487	-0.61
1013.686	-0.21
1013.885	-1.03
1014.084	0.13
1014.283	0.16
1014.482	-0.21
1014.681	-0.74
1014.88	-4.58
1015.078	-3.83
1015.277	-6.54
1015.476	-5.84
1015.675	-6.1
1015.873	-6.42
1016.072	-7.32
1016.271	-4.51
1016.47	-7.61
1016.668	-6.65
1016.867	-8.27
1017.065	-11.03
1017.264	-10.95
1017.463	-10.75
1017.661	-10.82
1017.86	-10.48
1018.058	-9.91
1018.256	-13.47
1018.455	-14.07
1018.653	-13.5
1018.852	-11.77
1019.05	-13.31
1019.248	-13.19
1019.447	-14.38
1019.645	-15.23
1019.843	-17.88
1020.041	-15.3
1020.24	-16.5
1020.438	-13.65
1020.636	-13.1
1020.834	-15.8
1021.032	-14.6
1021.23	-16.16
1021.428	-14.17
1021.626	-9.27
1021.824	-8.8
1022.022	-8.8
1022.22	-7.03
1022.418	-5.87
1022.616	-6.85
1022.814	-8.15
1023.012	-7.79
1023.21	-4.95
1023.408	-5.55
1023.606	-6.54
1023.803	-2.63
1024.001	-3.07
1024.199	-5.74
1024.397	-4.19
1024.594	-4.22
1024.792	-5.38
1024.99	-5.24
1025.187	-4.81
1025.385	-2.28
1025.582	-0.9
1025.78	-1.44
1025.977	0.56
1026.175	0.58
1026.372	0.78
1026.57	-1.82
1026.767	0.02
1026.965	1.36
1027.162	2.78
1027.359	3.35
1027.557	3.86
1027.754	-0.17
1027.951	-1.3
1028.148	0.88
1028.346	-1.45
1028.543	-4.8
1028.74	-4.56
1028.937	-6.71
1029.134	-6.53
1029.331	-7.63
1029.528	-7.68
1029.725	-8.5
1029.923	-11.73
1030.12	-7.91
1030.317	-5.93
1030.513	-4.77
1030.71	-3.68
1030.907	-1.31
1031.104	-2.6
1031.301	-4.32
1031.498	-4.96
1031.695	-6.87
1031.892	-5.89
1032.088	-7.4
1032.285	-10.05
1032.482	-10.21
1032.678	-11.7
1032.875	-12.67
1033.072	-10.48
1033.268	-10.43
1033.465	-11.61
1033.662	-14.01
1033.858	-13.23
1034.055	-12.03
1034.251	-11.47
1034.448	-12.39
1034.644	-11.34
1034.84	-9.38
1035.037	-6.85
1035.233	-7.55
1035.43	-6.75
1035.626	-7.24
1035.822	-6.15
1036.019	-6.32
1036.215	-9.52
1036.411	-10.56
1036.607	-12.9
1036.803	-15.76
1037	-16.65
1037.196	-16.65
1037.392	-16.74
1037.588	-19.25
1037.784	-17.94
1037.98	-20.54
1038.176	-19.1
1038.372	-18.15
1038.568	-17.35
1038.764	-15.2
1038.96	-13.58
1039.156	-16.14
1039.352	-18.21
1039.547	-14.96
1039.743	-14.28
1039.939	-11.9
1040.135	-11.51
1040.331	-11.92
1040.526	-9.42
1040.722	-10.99
1040.918	-11.3
1041.113	-13.57
1041.309	-13.84
1041.505	-16.14
1041.7	-15.02
1041.896	-15.81
1042.091	-16.65
1042.287	-17.26
1042.482	-16.09
1042.678	-15.52
1042.873	-13.84
1043.069	-14.69
1043.264	-14.32
1043.459	-12.42
1043.655	-10.22
1043.85	-10.61
1044.045	-7.9
1044.24	-8.34
1044.436	-6.86
1044.631	-7.35
1044.826	-8.98
1045.021	-12.19
1045.216	-10.98
