Data from FLMT021711__18__17-07-01-084.txt Node

Date: Tue Nov 05 17:07:01 CET 2024
User: Etudiants TP
Spectrometer: FLMT02171
Trigger mode: 0
Integration Time (sec): 1.000000E-1
Scans to average: 5
Electric dark correction enabled: true
Nonlinearity correction enabled: false
Boxcar width: 15
XAxis mode: Wavelengths
Number of Pixels in Spectrum: 3648
>>>>>Begin Spectral Data<<<<<
194.658	-58.74
194.923	-57.24
195.188	-50.68
195.453	-49.67
195.717	-45.64
195.982	-43.14
196.247	-41.75
196.512	-44.53
196.777	-42.59
197.042	-40.63
197.307	-40.14
197.572	-36.33
197.837	-37.17
198.101	-33.82
198.366	-32.05
198.631	-30.76
198.896	-24.73
199.161	-18.07
199.425	-10.58
199.69	-1
199.955	-0.48
200.22	-3.54
200.484	-3.09
200.749	-4.73
201.014	-3.82
201.278	-3.13
201.543	-3.61
201.807	-3.89
202.072	-2.18
202.337	-1.72
202.601	-2.17
202.866	-2.84
203.13	-0.92
203.395	-2.93
203.659	-3.28
203.924	-3.99
204.189	-3.47
204.453	-2.44
204.717	-0.14
204.982	0.48
205.246	0.87
205.511	2.49
205.775	1.11
206.04	6.97
206.304	6
206.568	7.51
206.833	8.14
207.097	8.74
207.361	10.33
207.626	12.88
207.89	13.26
208.154	13.05
208.419	14.92
208.683	14.42
208.947	17.27
209.211	16.58
209.476	17.85
209.74	19.14
210.004	20.44
210.268	21.23
210.532	23.74
210.796	23.87
211.061	24.45
211.325	23.71
211.589	21.64
211.853	22.98
212.117	22.77
212.381	22.89
212.645	24.09
212.909	25.48
213.173	23.49
213.437	25.52
213.701	24.56
213.965	25.19
214.229	19.4
214.493	19.4
214.757	19.07
215.021	18.82
215.285	22.19
215.549	23.73
215.813	21.47
216.077	20.95
216.34	22.06
216.604	21.17
216.868	20.95
217.132	20.38
217.396	19.75
217.659	18.65
217.923	15.56
218.187	14.75
218.451	13.78
218.714	11.63
218.978	11.42
219.242	12.72
219.505	13.63
219.769	15.89
220.033	15.83
220.296	16.61
220.56	17.24
220.824	14.5
221.087	14.25
221.351	14.28
221.614	13.51
221.878	15.41
222.142	13.99
222.405	15.1
222.669	16.14
222.932	13.15
223.196	10.73
223.459	7.57
223.722	8.92
223.986	7.2
224.249	5.96
224.513	6.08
224.776	7.52
225.04	7.99
225.303	8.4
225.566	9.29
225.83	10.36
226.093	13.24
226.356	12.12
226.62	10.39
226.883	11.19
227.146	11.53
227.409	9.97
227.673	8.41
227.936	8.24
228.199	8.13
228.462	6.93
228.725	5.55
228.989	6.11
229.252	6.8
229.515	11.5
229.778	9.08
230.041	8.91
230.304	7.75
230.567	9.24
230.83	8.87
231.093	10.97
231.356	12.73
231.619	18.77
231.882	15.39
232.145	18.31
232.408	16.87
232.671	17.24
232.934	16.3
233.197	15.33
233.46	14.85
233.723	15.02
233.986	14.36
234.249	12.73
234.512	13.9
234.775	16.32
235.037	15.67
235.3	14.85
235.563	14.76
235.826	15.17
236.089	16.19
236.351	15.14
236.614	16.74
236.877	17.56
237.14	18.73
237.402	18.55
237.665	11.9
237.928	10.74
238.19	7.74
238.453	10.18
238.716	9.03
238.978	8.13
239.241	7.41
239.503	8.52
239.766	3.33
240.029	3.73
240.291	6.49
240.554	7.89
240.816	7.63
241.079	7.86
241.341	6.97
241.604	5.63
241.866	3.5
242.129	4.48
242.391	5.79
242.653	4.68
242.916	4.54
243.178	5
243.441	6.58
243.703	7.31
243.965	6.24
244.228	6.66
244.49	7.3
244.752	7.86
245.015	7.43
245.277	9.2
245.539	8.42
245.801	11.43
246.064	12.83
246.326	12.08
246.588	12.23
246.85	13.57
247.112	14.68
247.374	15.29
247.637	16.51
247.899	17.18
248.161	16.68
248.423	12.63
248.685	13.21
248.947	12.51
249.209	12.77
249.471	14.34
249.733	16.6
249.995	15.52
250.257	14.07
250.519	11.49
250.781	13.69
251.043	12.06
251.305	13.08
251.567	15.37
251.829	15.43
252.091	15.56
252.353	12.1
252.615	13.32
252.876	11.77
253.138	12.95
253.4	9.98
253.662	12.19
253.924	12.82
254.185	13.82
254.447	15.86
254.709	15.29
254.971	14.94
255.232	15.71
255.494	14.55
255.756	13.95
256.017	13.88
256.279	15.07
256.541	14.61
256.802	14.11
257.064	14.86
257.326	14.17
257.587	15.13
257.849	13.84
258.11	16.74
258.372	17.16
258.633	19
258.895	17.94
259.156	16.06
259.418	14.29
259.679	9.43
259.941	7.46
260.202	8.08
260.464	10.8
260.725	9.22
260.987	8.82
261.248	7.03
261.509	7.6
261.771	4.89
262.032	7.47
262.293	5.84
262.555	5.42
262.816	3.95
263.077	4
263.338	1.7
263.6	2.83
263.861	1.71
264.122	1.3
264.383	1.93
264.645	2.85
264.906	1.78
265.167	2.9
265.428	2.27
265.689	2.9
265.95	1.76
266.211	2.28
266.473	3.19
266.734	1.17
266.995	-0.17
267.256	2.29
267.517	4.84
267.778	8.32
268.039	9.79
268.3	9.38
268.561	7.57
268.822	10.02
269.083	7.51
269.344	5.83
269.604	5.55
269.865	6.44
270.126	2.63
270.387	4.47
270.648	5.07
270.909	5.91
271.17	4.98
271.43	3.23
271.691	0.31
271.952	1.33
272.213	2.49
272.473	0
272.734	0.5
272.995	2.31
273.256	1.54
273.516	4.33
273.777	1.62
274.038	3.06
274.298	0.61
274.559	-0.81
274.82	2.79
275.08	4.03
275.341	5.22
275.601	5.19
275.862	3.84
276.122	3.73
276.383	4.47
276.643	5.46
276.904	4.81
277.164	8.18
277.425	8.82
277.685	11.49
277.946	11.71
278.206	12.08
278.467	13.57
278.727	13.13
278.987	12.52
279.248	12.72
279.508	13.75
279.768	16.75
280.029	16.18
280.289	13.98
280.549	13.63
280.81	13.33
281.07	11.83
281.33	13.85
281.59	12.3
281.851	14.67
282.111	15.15
282.371	15.06
282.631	17.18
282.891	15.48
283.151	14.02
283.412	12.16
283.672	10.48
283.932	10.37
284.192	11.52
284.452	10.18
284.712	7.6
284.972	6.03
285.232	4.36
285.492	6.61
285.752	3.6
286.012	7.29
286.272	9.39
286.532	6.27
286.792	7.13
287.052	9.24
287.312	9.36
287.571	8.07
287.831	7.21
288.091	3.38
288.351	3.81
288.611	7.71
288.871	7.7
289.13	7.72
289.39	4.42
289.65	5.65
289.91	4.35
290.17	6.03
290.429	8.86
290.689	5.99
290.949	3.42
291.208	5.4
291.468	8.55
291.728	9.72
291.987	11.2
292.247	10.44
292.506	12.4
292.766	15.55
293.026	14.72
293.285	15.7
293.545	16.83
293.804	18.46
294.064	16.6
294.323	14.4
294.583	16.34
294.842	16.43
295.102	16.15
295.361	15.88
295.621	17.88
295.88	19.91
296.139	20.71
296.399	20.77
296.658	16.31
296.917	16.77
297.177	14.33
297.436	16.1
297.695	13.03
297.955	13.91
298.214	12.96
298.473	13.47
298.732	15.99
298.992	18.84
299.251	16.56
299.51	12.88
299.769	13.26
300.028	12.96
300.287	12.39
300.547	11.9
300.806	10.29
301.065	13.52
301.324	14.96
301.583	12.81
301.842	10.02
302.101	8.39
302.36	9.01
302.619	7.24
302.878	8.14
303.137	7
303.396	8.73
303.655	9.29
303.914	6.09
304.173	7.01
304.432	7.97
304.691	9.87
304.95	7.6
305.208	12.01
305.467	11.33
305.726	10.93
305.985	11.96
306.244	12.3
306.503	11.5
306.761	9.78
307.02	7.87
307.279	9.5
307.537	10.41
307.796	7.35
308.055	4.69
308.314	5.81
308.572	4.19
308.831	4.85
309.09	5.38
309.348	5.82
309.607	3.51
309.865	6.05
310.124	5.36
310.382	5.82
310.641	7.47
310.9	5.45
311.158	5.45
311.417	4.22
311.675	5.32
311.933	5.37
312.192	5.98
312.45	5.2
312.709	6.29
312.967	6.46
313.226	6.66
313.484	6.25
313.742	5.54
314.001	3.23
314.259	1.87
314.517	3.08
314.776	5.34
315.034	7.77
315.292	5.84
315.55	3.82
315.809	3.98
316.067	5.57
316.325	3.76
316.583	5.91
316.841	5.63
317.1	2.89
317.358	-0.1
317.616	1.69
317.874	0.99
318.132	1.08
318.39	0.71
318.648	-0.64
318.906	-0.69
319.164	-1.76
319.422	-2.6
319.68	-4.69
319.938	-3.83
320.196	-2.81
320.454	-2.25
320.712	-3.54
320.97	-3.71
321.228	-5.76
321.486	-4.19
321.744	-2.51
322.002	-1.12
322.26	-2.04
322.517	-2.77
322.775	-4.85
323.033	-7
323.291	-4.39
323.549	-2.03
323.806	-0.92
324.064	-1.84
324.322	-0.22
324.58	-1.11
324.837	-0.06
325.095	-1.91
325.353	-0.4
325.61	1.06
325.868	-0.05
326.126	2.38
326.383	2.4
326.641	2.14
326.898	3.6
327.156	4.82
327.413	6.59
327.671	6.75
327.928	8.6
328.186	8.66
328.443	7.92
328.701	12.38
328.958	13.34
329.216	13.16
329.473	11.62
329.731	12.85
329.988	13.2
330.245	16.48
330.503	16.62
330.76	15.43
331.017	17.68
331.275	15.49
331.532	14.64
331.789	14.42
332.047	15.13
332.304	13.35
332.561	13.88
332.818	13.26
333.076	16.53
333.333	17.84
333.59	17.31
333.847	18.55
334.104	16.82
334.361	16.52
334.618	15.14
334.876	12.3
335.133	11.83
335.39	10.28
335.647	11.67
335.904	8.64
336.161	7.31
336.418	7.39
336.675	2.92
336.932	3.94
337.189	4.47
337.446	5.71
337.703	4.19
337.96	0.14
338.216	-1.9
338.473	-4.01
338.73	-2.29
338.987	-2.92
339.244	-0.74
339.501	-0.9
339.757	-1.53
340.014	-0.63
340.271	-0.37
340.528	0.51
340.785	3.68
341.041	2.4
341.298	-1.22
341.555	-1.26
341.811	-1.74
342.068	-4.86
342.325	-4.49
342.581	-1.56
342.838	1.36
343.094	0.95
343.351	0.91
343.608	-1.32
343.864	0.46
344.121	1.12
344.377	0.33
344.634	0.14
344.89	-1.03
345.147	-1.8
345.403	-3.19
345.66	-2.28
345.916	0.76
346.172	0.02
346.429	-0.62
346.685	-2.77
346.942	-2.2
347.198	-4.26
347.454	-4.64
347.711	-3.21
347.967	-6.07
348.223	-5.09
348.48	-7.17
348.736	-4.33
348.992	-4.84
349.248	-1.18
349.504	-1.83
349.761	-1.27
350.017	0.75
350.273	1.04
350.529	-0.13
350.785	-0.61
351.041	-0.95
351.297	-0.03
351.554	-0.45
351.81	-2.9
352.066	-3.97
352.322	-3.41
352.578	-3.3
352.834	-4.32
353.09	-3.11
353.346	-2.27
353.602	-4.02
353.858	-6.26
354.114	-5.68
354.369	-4.43
354.625	-2.15
354.881	-3.65
355.137	-1.89
355.393	-0.48
355.649	-0.78
355.905	0.55
356.16	0.04
356.416	1.59
356.672	-4.82
356.928	-4.74
357.183	-5.13
357.439	-4.78
357.695	-4.97
357.951	-1.9
358.206	-2.23
358.462	-2.36
358.718	-3.51
358.973	-2.99
359.229	-1.92
359.484	-1.68
359.74	1.15
359.996	1.11
360.251	3.47
360.507	2.84
360.762	4.04
361.018	3.98
361.273	1.47
361.529	2.41
361.784	3.65
362.04	4.13
362.295	3.42
362.55	3.08
362.806	4.55
363.061	3.55
363.316	3.07
363.572	2.83
363.827	4.01
364.082	2.14
364.338	1.55
364.593	2.33
364.848	4.95
365.104	3.47
365.359	4.82
365.614	5.41
365.869	3.05
366.124	2.74
366.38	1.26
366.635	2.01
366.89	3.21
367.145	2.09
367.4	4.52
367.655	5.17
367.91	6.19
368.165	3.9
368.42	1.62
368.675	0.81
368.93	0.99
369.185	-0.06
369.44	0.29
369.695	3.56
369.95	2.73
370.205	1.45
370.46	0.89
370.715	-0.55
370.97	1.36
371.225	1.21
371.48	3.09
371.734	2.56
371.989	4.38
372.244	5.1
372.499	7.19
372.754	4.93
373.008	3.4
373.263	0.34
373.518	2.37
373.773	0.54
374.027	-0.79
374.282	1.57
374.537	1.6
374.791	2.14
375.046	1.68
375.301	1.53
375.555	0.69
375.81	1.19
376.064	3.1
376.319	7.36
376.573	7.02
376.828	5.04
377.082	9.15
377.337	6.84
377.591	3.33
377.846	4.25
378.1	6.8
378.355	6.86
378.609	7.61
378.863	5.04
379.118	5.77
379.372	3.7
379.627	2.97
379.881	1.96
380.135	0.8
380.389	-0.96
380.644	-0.36
380.898	1.09
381.152	2.83
381.407	1.73
381.661	5.17
381.915	6.83
382.169	7.39
382.423	6.31
382.677	4.3
382.932	3.83
383.186	3.88
383.44	4.09
383.694	6.28
383.948	4.14
384.202	2.35
384.456	5.16
384.71	7.58
384.964	5.83
385.218	7.78
385.472	6.98
385.726	6.31
385.98	5.56
386.234	6.15
386.488	4.39
386.742	5.65
386.996	4.74
387.249	6.62
387.503	7.08
387.757	7.63
388.011	8.38
388.265	7.96
388.518	8.8
388.772	9.98
389.026	10.33
389.28	6.6
389.533	4.04
389.787	6.27
390.041	3.79
390.295	4.71
390.548	4.39
390.802	6.35
391.055	4.81
391.309	3.06
391.563	1.52
391.816	2.61
392.07	2.19
392.323	2.29
392.577	2.18
392.83	3.43
393.084	9.51
393.337	13.64
393.591	14.09
393.844	15.17
394.098	17.78
394.351	20.3
394.604	21.21
394.858	22.75
395.111	22.51
395.364	20.86
395.618	22.75
395.871	21.99
396.124	23.09
396.378	22.61
396.631	21.83
396.884	19.44
397.137	20.81
397.391	22.37
397.644	18.73
397.897	20.87
398.15	19.74
398.403	21.98
398.657	21.46
398.91	21.4
399.163	22.93
399.416	23.2
399.669	20.84
399.922	20.06
400.175	17.81
400.428	17.19
400.681	17.26
400.934	11.8
401.187	10.07
401.44	10.37
401.693	9.54
401.946	7.13
402.199	2.92
402.452	1.84
402.704	-1.3
402.957	-2.71
403.21	-0.89
403.463	-2.45
403.716	-2.16
403.969	-1.95
404.221	-1.63
404.474	0.51
404.727	3.06
404.98	4.44
405.232	4.11
405.485	6.22
405.738	6.45
405.99	8.84
406.243	10.68
406.496	13.07
406.748	13.71
407.001	12.57
407.253	12.54
407.506	13.72
407.759	14.17
408.011	12.62
408.264	13.37
408.516	13.92
408.769	12.82
409.021	13.88
409.274	13.57
409.526	14.44
409.778	13.39
410.031	16.61
410.283	16.9
410.536	21.98
410.788	21
411.04	21.4
411.293	23.11
411.545	23.99
411.797	23.3
412.049	21.85
412.302	20.84
412.554	22.37
412.806	21.63
413.058	21.58
413.311	20.97
413.563	19.68
413.815	20.43
414.067	16.48
414.319	14.4
414.571	14.18
414.823	13.57
415.075	11.56
415.328	12.82
415.58	15.61
415.832	17.6
416.084	18.03
416.336	16.27
416.588	18.88
416.84	18.08
417.091	20.46
417.343	19.22
417.595	22.67
417.847	23.09
418.099	23.61
418.351	23.29
418.603	25.68
418.855	26.77
419.106	26.43
419.358	27.2
419.61	27.15
419.862	29
420.114	28.18
420.365	27.92
420.617	28.23
420.869	26.39
421.12	28.15
421.372	29.83
421.624	28
421.875	29.95
422.127	28.71
422.379	30.47
422.63	33.45
422.882	33.56
423.133	33.57
423.385	33.97
423.636	35.69
423.888	36.97
424.139	39.95
424.391	37.77
424.642	36.96
424.894	35.11
425.145	35.41
425.396	32.51
425.648	35.03
425.899	34.11
426.151	34.67
426.402	35.1
426.653	35.95
426.905	35.27
427.156	33.56
427.407	35.59
427.658	34.5
427.91	35.02
428.161	34.39
428.412	37.31
428.663	39.22
428.914	39.83
429.166	40.92
429.417	43.07
429.668	42.01
429.919	40.55
430.17	40.57
430.421	40.74
430.672	44.41
430.923	44.84
431.174	43.62
431.425	44.1
431.676	44.93
431.927	42.84
432.178	45.75
432.429	47.42
432.68	48.45
432.931	52.48
433.182	55.99
433.433	55.36
433.683	59.11
433.934	58.32
434.185	57.88
434.436	57.54
434.687	60.91
434.937	63.05
435.188	62.09
435.439	63.39
435.69	65.05
435.94	65.21
436.191	65.37
436.442	67.03
436.692	67.72
436.943	67.05
437.194	66.55
437.444	71.45
437.695	77.62
437.945	78.16
438.196	77.91
438.447	78.45
438.697	80.35
438.948	82.52
439.198	81.76
439.449	79.43
439.699	81.78
439.949	82.7
440.2	83.4
440.45	86.52
440.701	84.86
440.951	86.21
441.201	87.48
441.452	87.1
441.702	88.36
441.952	92.45
442.203	95.04
442.453	93.86
442.703	97.19
442.953	100.36
443.204	103.21
443.454	103.91
443.704	106.96
443.954	107.57
444.204	109.58
444.455	112.39
444.705	116.89
444.955	118.79
445.205	118.7
445.455	117.82
445.705	121.17
445.955	124.07
446.205	125.85
446.455	128.78
446.705	131.21
446.955	135.55
447.205	140.1
447.455	144.71
447.705	146.37
447.955	147.84
448.205	150.95
448.454	154.56
448.704	157.76
448.954	160.17
449.204	163.28
449.454	166.18
449.704	167.04
449.953	168.75
450.203	174.09
450.453	174.83
450.703	177.44
450.952	180.47
451.202	183.55
451.452	184.93
451.701	188.98
451.951	194.87
452.201	196.27
452.45	197.72
452.7	201.13
452.949	203.55
453.199	204.84
453.448	206.22
453.698	208.45
453.947	208.41
454.197	209.47
454.446	210.69
454.696	213.38
454.945	213.12
455.195	212.84
455.444	214.29
455.693	218.43
455.943	215.98
456.192	217.19
456.442	217.56
456.691	216.81
456.94	216.42
457.189	214.95
457.439	215.73
457.688	216.98
457.937	215.17
458.186	214.47
458.436	213.25
458.685	210.78
458.934	208.23
459.183	207.72
459.432	208.3
459.681	206.12
459.93	203.03
460.179	199.67
460.429	196.05
460.678	195.45
460.927	196.42
461.176	194.98
461.425	193.12
461.674	194.64
461.923	192.27
462.172	189.76
462.42	186.4
462.669	187.12
462.918	185.14
463.167	183.81
463.416	180.07
463.665	180.74
463.914	178.09
464.162	174.18
464.411	173.69
464.66	172.75
464.909	169.75
465.158	168.01
465.406	165.86
465.655	165.48
465.904	164.51
466.152	163.9
466.401	164.64
466.65	166.01
466.898	163.68
467.147	158.96
467.395	156.1
467.644	157.74
467.893	158.21
468.141	157.35
468.39	155.21
468.638	152.13
468.887	149.59
469.135	146.9
469.384	144.5
469.632	144.7
469.88	143.1
470.129	143.24
470.377	139.23
470.626	140.42
470.874	140.52
471.122	141.27
471.371	138.03
471.619	136.76
471.867	138.74
472.115	137.65
472.364	135.32
472.612	137.77
472.86	135.98
473.108	136.04
473.356	135.96
473.605	135.43
473.853	132.05
474.101	129.46
474.349	126.59
474.597	127.8
474.845	126.84
475.093	125.62
475.341	121.9
475.589	120.92
475.837	120
476.085	120.58
476.333	119.79
476.581	121.06
476.829	119.83
477.077	120.43
477.325	120.05
477.573	121.35
477.821	119.97
478.069	121.34
478.317	119.98
478.564	121.1
478.812	118.51
479.06	118.48
479.308	118.06
479.555	117.76
479.803	117.19
480.051	119.23
480.299	118.67
480.546	119.03
480.794	115.53
481.042	116.73
481.289	115.61
481.537	117.73
481.784	116.7
482.032	120.99
482.28	120.86
482.527	121.76
482.775	121.85
483.022	124.67
483.27	126.01
483.517	131.97
483.765	131.8
484.012	132.38
484.259	130.64
484.507	134.81
484.754	136.72
485.002	136.59
485.249	136.03
485.496	138.6
485.744	138.74
485.991	138.77
486.238	137.28
486.486	139.36
486.733	139.94
486.98	142.45
487.227	141.13
487.474	143.3
487.722	145.09
487.969	144.3
488.216	145.3
488.463	147.77
488.71	145.62
488.957	146.04
489.204	146.76
489.451	149.7
489.699	148.27
489.946	146.64
490.193	145.9
490.44	146.55
490.687	146.99
490.934	146.85
491.18	144.15
491.427	144.48
491.674	147.64
491.921	148.73
492.168	148.3
492.415	146.9
492.662	147.97
492.909	150.86
493.155	150.43
493.402	149.81
493.649	148.57
493.896	151.36
494.142	150.38
494.389	151.29
494.636	150.88
494.883	150.59
495.129	149.86
495.376	148.8
495.623	151.32
495.869	154.04
496.116	155.25
496.362	157.79
496.609	160.98
496.855	165.99
497.102	166.03
497.348	166.11
497.595	169.22
497.841	174
498.088	174.51
498.334	174.27
498.581	172.43
498.827	173.11
499.074	176.12
499.32	177.96
499.566	183.06
499.813	184.84
500.059	183.64
500.305	185.22
500.552	185.58
500.798	185.13
501.044	189.58
501.29	190.48
501.537	188.27
501.783	190.99
502.029	194.38
502.275	192.86
502.521	192.12
502.767	194.03
503.013	197.62
503.26	196.96
503.506	192.96
503.752	195.4
503.998	194.09
504.244	195.55
504.49	192.01
504.736	193.93
504.982	194.96
505.228	197.01
505.474	197.51
505.72	198.83
505.966	199.66
506.211	203.44
506.457	204.24
506.703	202.04
506.949	201.06
507.195	199.15
507.441	196.09
507.686	199.94
507.932	201.22
508.178	202.81
508.424	202.13
508.669	201.99
508.915	202.75
509.161	205.43
509.406	208.12
509.652	207.43
509.898	210.75
510.143	211.92
510.389	212.24
510.634	209.05
510.88	212.76
511.125	216.29
511.371	217.67
511.616	218.85
511.862	216.45
512.107	217.14
512.353	218.82
512.598	219.23
512.844	217.22
513.089	215.71
513.335	217.07
513.58	216.38
513.825	217.44
514.071	217.13
514.316	217.15
514.561	218.47
514.806	217.71
515.052	220.32
515.297	218.57
515.542	217.62
515.787	217.3
516.033	220
516.278	220.07
516.523	220.2
516.768	219.68
517.013	216.45
517.258	217.42
517.503	217.84
517.748	219.48
517.993	218.51
518.238	219.72
518.483	217.07
518.728	216.75
518.973	213.1
519.218	212.75
519.463	214.69
519.708	212.22
519.953	210.21
520.198	211.63
520.443	213.6
520.688	215.19
520.933	215.63
521.177	216.01
521.422	213.64
521.667	215.84
521.912	216.28
522.157	212.92
522.401	216.36
522.646	216.76
522.891	217.07
523.135	218.85
523.38	219.71
523.625	218.44
523.869	220.78
524.114	221.17
524.358	219.81
524.603	220.95
524.848	218.76
525.092	218.28
525.337	219.75
525.581	221.14
525.826	222.96
526.07	223.58
526.315	225
526.559	225.76
526.803	225.65
527.048	227.65
527.292	230.57
527.537	230.79
527.781	230.18
528.025	228.66
528.269	229.58
528.514	229.71
528.758	229.62
529.002	230.62
529.247	233.75
529.491	232.86
529.735	236.87
529.979	235.35
530.223	236.8
530.467	235.38
530.712	233.12
530.956	231.14
531.2	231.34
531.444	227.69
531.688	228.79
531.932	228.81
532.176	229.06
532.42	230.86
532.664	230.87
532.908	227.98
533.152	226.52
533.396	224.27
533.64	224.79
533.884	221.83
534.128	221.03
534.371	221.36
534.615	222.91
534.859	220.49
535.103	220.07
535.347	219.8
535.59	221.36
535.834	217.9
536.078	217.27
536.322	219.5
536.565	220.65
536.809	217.71
537.053	219.43
537.296	216.82
537.54	215.35
537.784	214.72
538.027	215.68
538.271	214.73
538.514	213.8
538.758	214.12
539.001	211.79
539.245	211.97
539.488	211.83
539.732	212.16
539.975	210.69
540.219	212.15
540.462	212.8
540.706	214.04
540.949	213.9
541.192	213.73
541.436	219.06
541.679	224.01
541.922	223.41
542.166	218.79
542.409	219.5
542.652	219.3
542.895	220.01
543.139	219.22
543.382	224.31
543.625	224.65
543.868	223.07
544.111	221.11
544.354	219.46
544.598	218.24
544.841	218.8
545.084	220.49
545.327	219.06
545.57	219.64
545.813	220.71
546.056	221.88
546.299	223
546.542	225.02
546.785	224.98
547.028	226.6
547.271	224.42
547.514	223.8
547.756	221.09
547.999	220.76
548.242	221.45
548.485	219.15
548.728	218.68
548.971	213.32
549.213	211.67
549.456	211.46
549.699	211.93
549.942	211.96
550.184	211.11
550.427	208.99
550.67	208.29
550.912	203.01
551.155	202.46
551.398	201.14
551.64	200.69
551.883	200.78
552.125	199.43
552.368	199.48
552.61	195.41
552.853	196.19
553.095	195.62
553.338	195.24
553.58	194.07
553.823	190.53
554.065	193.52
554.308	190.58
554.55	187.43
554.792	185.81
555.035	184.37
555.277	183.62
555.519	184.64
555.762	181.28
556.004	183.07
556.246	178.86
556.488	180.68
556.731	176.98
556.973	178.22
557.215	175.84
557.457	175.86
557.699	177.51
557.941	175.01
558.183	174.92
558.426	176.99
558.668	172.81
558.91	173.09
559.152	172.71
559.394	170.9
559.636	172.16
559.878	170.81
560.12	169.9
560.362	171.11
560.604	169.7
560.845	168.26
561.087	166.83
561.329	169.35
561.571	165.59
561.813	165.95
562.055	164.83
562.297	165.2
562.538	165.99
562.78	168.42
563.022	165.6
563.264	166.99
563.505	166.68
563.747	166.17
563.989	162.65
564.23	162.52
564.472	160.41
564.714	161.58
564.955	161.53
565.197	157.91
565.438	159.36
565.68	160.86
565.921	158.47
566.163	159.82
566.404	158.88
566.646	160.63
566.887	163.07
567.129	163.16
567.37	162.08
567.612	164.06
567.853	161.52
568.094	162.83
568.336	160.88
568.577	162.04
568.818	160.42
569.06	158.54
569.301	156.3
569.542	157.19
569.783	158.28
570.025	158.99
570.266	158.65
570.507	159.25
570.748	157.62
570.989	156.29
571.23	159.24
571.472	159.21
571.713	157.62
571.954	157.94
572.195	155.88
572.436	157.16
572.677	159.47
572.918	160.15
573.159	157.71
573.4	155.21
573.641	154.61
573.882	154.04
574.123	151.58
574.364	146.31
574.604	145.61
574.845	143.1
575.086	141.83
575.327	140.69
575.568	138.62
575.809	138.83
576.049	136.42
576.29	134.88
576.531	139
576.771	141.66
577.012	141.8
577.253	141.26
577.494	138.97
577.734	136.51
577.975	137.26
578.215	136.85
578.456	135.81
578.697	134.85
578.937	135.95
579.178	135.95
579.418	132.8
579.659	132.61
579.899	128.18
580.14	125.53
580.38	123.99
580.62	122.57
580.861	126.07
581.101	124.93
581.342	124.31
581.582	119.6
581.822	121.19
582.063	119.49
582.303	120.67
582.543	120.98
582.783	121.41
583.024	122.71
583.264	124.01
583.504	121.24
583.744	121.47
583.984	117.25
584.224	115.7
584.465	115.14
584.705	114.36
584.945	114.15
585.185	113.67
585.425	112.93
585.665	112.24
585.905	110.59
586.145	108.98
586.385	107.28
586.625	107.72
586.865	107.99
587.105	106.54
587.345	106.47
587.585	107.37
587.824	106.08
588.064	105.33
588.304	100.84
588.544	101.13
588.784	99.4
589.024	101.78
589.263	100.55
589.503	99.51
589.743	101.38
589.982	98.85
590.222	99.36
590.462	95.59
590.701	93.82
590.941	97.5
591.181	96.49
591.42	96.5
591.66	98.16
591.899	100.27
592.139	99.14
592.378	99.29
592.618	97.56
592.857	96.96
593.097	97.52
593.336	97.02
593.576	97.34
593.815	97.02
594.055	96.61
594.294	96.32
594.533	96.28
594.773	95.7
595.012	95.26
595.251	96.3
595.491	98.39
595.73	100.7
595.969	100.11
596.208	99.75
596.447	104.1
596.687	103.47
596.926	104.01
597.165	100.43
597.404	103.34
597.643	100.25
597.882	100.05
598.121	99.69
598.36	99.64
598.599	99.65
598.838	98.33
599.077	96.13
599.316	93.79
599.555	92.85
599.794	92.01
600.033	94.03
600.272	93.98
600.511	91.04
600.75	91.74
600.989	92.82
601.228	93.11
601.466	91.65
601.705	91.76
601.944	93.25
602.183	95.5
602.422	94.32
602.66	92.67
602.899	91.2
603.138	91.11
603.376	89.91
603.615	91.74
603.854	90.15
604.092	91.16
604.331	91.29
604.569	91.94
604.808	90.04
605.047	90.29
605.285	90.17
605.524	90.29
605.762	87.06
606	87.96
606.239	88.63
606.477	86.07
606.716	83.35
606.954	82.5
607.193	80.18
607.431	76.53
607.669	74.45
607.908	73.49
608.146	75.65
608.384	73.66
608.622	72.3
608.861	72.39
609.099	72.34
609.337	71.02
609.575	68.98
609.813	69.67
610.052	68.33
610.29	63.61
610.528	61.09
610.766	60.72
611.004	59.61
611.242	57.31
611.48	55.59
611.718	52.56
611.956	52.64
612.194	50.96
612.432	49.87
612.67	49.24
612.908	51.04
613.146	51.02
613.384	49.72
613.621	48.59
613.859	50.43
614.097	50.24
614.335	52.08
614.573	53.49
614.811	53.84
615.048	52.93
615.286	54.74
615.524	53.34
615.761	51.67
615.999	52.04
616.237	52.21
616.474	52.3
616.712	51.38
616.95	51.29
617.187	50.45
617.425	52.02
617.662	54.86
617.9	54.74
618.137	53.55
618.375	51.94
618.612	49.06
618.85	50.79
619.087	53.36
619.325	52.73
619.562	51.5
619.799	51.8
620.037	50.81
620.274	49.07
620.511	49.32
620.749	47.34
620.986	45.78
621.223	44.12
621.461	43.54
621.698	42.68
621.935	42.16
622.172	41.02
622.409	43.26
622.647	42.91
622.884	39.98
623.121	41.63
623.358	39.67
623.595	38.5
623.832	39.72
624.069	39.08
624.306	39.74
624.543	41.01
624.78	42.36
625.017	41.87
625.254	42.41
625.491	43.7
625.728	43.87
625.965	45.35
626.202	43.62
626.438	42.14
626.675	40.96
626.912	42.25
627.149	42.29
627.386	42.69
627.622	40.5
627.859	40.24
628.096	40.37
628.333	41.82
628.569	42.03
628.806	43.94
629.043	43.1
629.279	43.77
629.516	45.74
629.752	42.39
629.989	42.25
630.225	41.93
630.462	41.96
630.699	42.75
630.935	42.76
631.171	39.74
631.408	39.93
631.644	37.53
631.881	34.26
632.117	31.17
632.354	32.03
632.59	31.29
632.826	32.15
633.063	32.58
633.299	32.94
633.535	32.67
633.771	31.68
634.008	35.36
634.244	35.41
634.48	33.74
634.716	35.2
634.953	35.43
635.189	35.96
635.425	37.7
635.661	39.51
635.897	38.09
636.133	37.69
636.369	36.25
636.605	32.76
636.841	33.02
637.077	33.56
637.313	33.15
637.549	34.13
637.785	32.65
638.021	33.43
638.257	31.87
638.493	34.04
638.729	32.93
638.965	35.66
639.2	37.77
639.436	36.78
639.672	34.87
639.908	33.65
640.144	35.85
640.379	38.47
640.615	36.88
640.851	38.94
641.086	40.33
641.322	37.9
641.558	37.61
641.793	38.37
642.029	36.15
642.264	35.1
642.5	35.09
642.736	31.73
642.971	31.47
643.207	30.89
643.442	28.88
643.678	30.9
643.913	32.25
644.148	31.27
644.384	33.47
644.619	32.54
644.855	34.05
645.09	34.26
645.325	33.74
645.561	34.65
645.796	31.45
646.031	34.57
646.266	32.91
646.502	31.96
646.737	35.02
646.972	36.09
647.207	36.82
647.442	34.67
647.678	30.94
647.913	32.56
648.148	32.46
648.383	31.79
648.618	30.96
648.853	32.32
649.088	33.99
649.323	37.26
649.558	38.51
649.793	39.08
650.028	39.74
650.263	37.25
650.498	39.63
650.733	39.93
650.968	37.42
651.202	38.48
651.437	38.04
651.672	35.75
651.907	35.62
652.142	35.72
652.376	36.01
652.611	36.67
652.846	36.92
653.081	37.26
653.315	35.02
653.55	34.43
653.785	33.71
654.019	33.37
654.254	32.53
654.488	32.85
654.723	30.45
654.958	29.76
655.192	28.96
655.427	25.5
655.661	27.63
655.896	30.43
656.13	31.2
656.364	29.3
656.599	26.11
656.833	28.33
657.068	29.82
657.302	30.9
657.536	29.86
657.771	29.7
658.005	30.15
658.239	31.38
658.474	30.64
658.708	30.08
658.942	29.49
659.176	28.02
659.41	25.78
659.645	24.4
659.879	23.27
660.113	20.86
660.347	20.03
660.581	17.47
660.815	15.89
661.049	15.32
661.283	12.45
661.517	10.58
661.751	11.11
661.985	10.74
662.219	13.31
662.453	11.68
662.687	13.8
662.921	9.94
663.155	7.73
663.389	3.08
663.622	1.37
663.856	3.15
664.09	-0.08
664.324	-2.03
664.558	-1.83
664.791	-4.11
665.025	-4.41
665.259	-5.08
665.492	-4.79
665.726	-2.96
665.96	-3.63
666.193	-3.19
666.427	-1.67
666.661	-3.06
666.894	-3.1
667.128	-3.74
667.361	-1.84
667.595	-1.96
667.828	-1.29
668.062	-0.61
668.295	-0.39
668.529	0.02
668.762	1.03
668.995	-1.43
669.229	2.1
669.462	1.73
669.695	3.15
669.929	1.96
670.162	2.88
670.395	1.62
670.629	3.31
670.862	5.62
671.095	2.33
671.328	2.76
671.561	0.8
671.795	1
672.028	3.13
672.261	4.07
672.494	6.02
672.727	3.78
672.96	4.52
673.193	3.43
673.426	5.42
673.659	5.85
673.892	6.46
674.125	6.57
674.358	6.57
674.591	5.25
674.824	5.6
675.057	6.32
675.29	5.83
675.523	6.46
675.755	6.87
675.988	8.51
676.221	11.26
676.454	9.44
676.687	9.39
676.919	8.56
677.152	8.63
677.385	7.94
677.617	8.29
677.85	7.9
678.083	6.05
678.315	8.7
678.548	7.48
678.78	5.89
679.013	5.3
679.246	5.2
679.478	5.72
679.711	3.79
679.943	6.17
680.175	3.99
680.408	8.86
680.64	5.37
680.873	6.06
681.105	7.55
681.338	10.82
681.57	10.4
681.802	12
682.034	11.74
682.267	14.53
682.499	15.33
682.731	13.88
682.964	12
683.196	8.82
683.428	6.6
683.66	4.77
683.892	6.86
684.124	9.77
684.356	10.84
684.589	11.06
684.821	10.51
685.053	10.07
685.285	11.28
685.517	12.36
685.749	13.68
685.981	16.47
686.213	17.34
686.445	18.17
686.676	14.87
686.908	14.72
687.14	13.05
687.372	13.48
687.604	10.99
687.836	11.62
688.068	11.36
688.299	10.48
688.531	8.39
688.763	12.26
688.995	11.62
689.226	14.58
689.458	12.44
689.69	11.58
689.921	9.33
690.153	10.82
690.384	12.9
690.616	11.44
690.848	12.26
691.079	9.78
691.311	6.16
691.542	4.81
691.774	3.27
692.005	4.95
692.237	8.48
692.468	6.31
692.699	5.21
692.931	5.23
693.162	3.34
693.393	2.07
693.625	0.21
693.856	2.57
694.087	2.12
694.319	3.82
694.55	2.74
694.781	1.29
695.012	0.98
695.243	-1.32
695.475	-2.68
695.706	-2.5
695.937	-3.09
696.168	-3.48
696.399	-5.55
696.63	-7.85
696.861	-7.79
697.092	-2.5
697.323	-0.47
697.554	0.21
697.785	2.57
698.016	3.88
698.247	2.97
698.478	4.93
698.709	5.16
698.94	7.38
699.171	7.47
699.401	4
699.632	6.8
699.863	4.02
700.094	3.61
700.325	5.36
700.555	6.37
700.786	8.77
701.017	9.01
701.247	9.41
701.478	9.28
701.709	9.75
701.939	9.18
702.17	11.84
702.401	14.69
702.631	16.38
702.862	14.46
703.092	10.61
703.323	12.79
703.553	14.31
703.784	16.99
704.014	18.22
704.244	14.41
704.475	13.68
704.705	13.16
704.936	13.43
705.166	11.95
705.396	12.7
705.627	12.02
705.857	12.59
706.087	14.18
706.317	13.02
706.548	12.01
706.778	10.97
707.008	12.83
707.238	13.22
707.468	11.96
707.698	9.76
707.928	9.28
708.158	8.5
708.389	8.23
708.619	6.52
708.849	6.09
709.079	6.5
709.309	5.11
709.539	1.79
709.768	1.64
709.998	4.08
710.228	4.74
710.458	3.91
710.688	1.46
710.918	1.77
711.148	0.78
711.378	1.66
711.607	0.97
711.837	1.02
712.067	0.57
712.297	0.22
712.526	0.14
712.756	1.63
712.986	-0.56
713.215	-3.21
713.445	-2.68
713.674	-2.85
713.904	-2.88
714.134	-1
714.363	-1.64
714.593	-3.59
714.822	-4.35
715.052	-5.21
715.281	-4.74
715.511	-5.99
715.74	-4.92
715.969	-5.26
716.199	-4.59
716.428	-4.04
716.657	-3.45
716.887	-1.8
717.116	-5.13
717.345	-3.89
717.575	-4.64
717.804	-3.41
718.033	-5.82
718.262	-6.81
718.492	-6.12
718.721	-5.5
718.95	-5.87
719.179	-7.49
719.408	-6.86
719.637	-10.01
719.866	-12.24
720.095	-10.16
720.324	-11.3
720.553	-14.78
720.782	-15.68
721.011	-16.06
721.24	-18.01
721.469	-19.09
721.698	-16.65
721.927	-15.33
722.156	-16.16
722.385	-17.52
722.613	-14.24
722.842	-14.07
723.071	-12.77
723.3	-11.88
723.529	-13.36
723.757	-11.68
723.986	-15.28
724.215	-14.6
724.443	-13.25
724.672	-11.7
724.901	-11.88
725.129	-9.56
725.358	-5.97
725.586	-7.95
725.815	-7.87
726.043	-7.86
726.272	-8.81
726.5	-8.84
726.729	-6.69
726.957	-8.88
727.186	-10.87
727.414	-9.47
727.642	-8.32
727.871	-6.16
728.099	-5.68
728.327	-5.66
728.556	-4.9
728.784	-3.8
729.012	-5.82
729.241	-3.28
729.469	-3.46
729.697	-5.76
729.925	-5.87
730.153	-7.78
730.381	-8.01
730.61	-8.15
730.838	-11.66
731.066	-10.62
731.294	-10.47
731.522	-12.99
731.75	-16.35
731.978	-16.67
732.206	-17.91
732.434	-21.14
732.662	-20.17
732.89	-23.42
733.118	-24.81
733.346	-23.88
733.573	-22.72
733.801	-23.51
734.029	-18.35
734.257	-17.84
734.485	-14.37
734.712	-12.19
734.94	-13.56
735.168	-12.49
735.396	-12.61
735.623	-13.91
735.851	-13.29
736.078	-10.55
736.306	-9.31
736.534	-10.05
736.761	-10.11
736.989	-12.17
737.216	-11.41
737.444	-12.76
737.671	-11.21
737.899	-6.86
738.126	-7.1
738.354	-7.21
738.581	-7.44
738.809	-6.19
739.036	-7.48
739.263	-7.5
739.491	-8.55
739.718	-8.32
739.945	-2.6
740.173	-0.31
740.4	-1.18
740.627	-2.88
740.854	-2.77
741.081	-4.86
741.309	-5.51
741.536	-9
741.763	-10.24
741.99	-8.13
742.217	-7.94
742.444	-7.98
742.671	-4.78
742.898	-5.95
743.125	-8.5
743.352	-11.48
743.579	-11.89
743.806	-11.71
744.033	-9.53
744.26	-8.52
744.487	-9.44
744.714	-9.96
744.941	-10.28
745.167	-7.28
745.394	-7.9
745.621	-8.06
745.848	-7.81
746.075	-5.28
746.301	-1.49
746.528	3.34
746.755	0.6
746.981	-0.52
747.208	1.34
747.435	5.24
747.661	6.11
747.888	8.33
748.114	6
748.341	8.4
748.567	9.16
748.794	7.1
749.02	6.11
749.247	4.62
749.473	4.53
749.7	3.35
749.926	2.79
750.152	7.05
750.379	7.36
750.605	8.9
750.831	9.25
751.058	9.28
751.284	8.55
751.51	10.98
751.737	13.58
751.963	12.52
752.189	9.81
752.415	9.17
752.641	10.05
752.867	9.44
753.094	7.57
753.32	6.09
753.546	3.43
753.772	6.89
753.998	4.78
754.224	2.96
754.45	1.03
754.676	0.12
754.902	-1.96
755.128	-0.73
755.354	-0.97
755.579	0.09
755.805	1.97
756.031	0.21
756.257	-1
756.483	-1.23
756.709	-2.87
756.934	-2.68
757.16	-5.89
757.386	-5.36
757.612	-6.45
757.837	-7.54
758.063	-6.48
758.289	-4.68
758.514	-6.23
758.74	-9.07
758.965	-9.86
759.191	-7.35
759.416	-5.09
759.642	-4.16
759.868	-3.49
760.093	-1.29
760.318	-2.17
760.544	-1.4
760.769	-2.13
760.995	-2.44
761.22	-2.81
761.445	-1.37
761.671	0.14
761.896	4.24
762.121	4.71
762.347	3.17
762.572	0.04
762.797	1.11
763.022	1.69
763.248	6.29
763.473	6.77
763.698	7.08
763.923	7.86
764.148	9.13
764.373	8.38
764.598	8.94
764.823	10.7
765.048	7.95
765.273	4.57
765.498	3.61
765.723	3.79
765.948	4.19
766.173	2.93
766.398	4.76
766.623	2.06
766.848	1.35
767.073	-0.53
767.298	-1.94
767.522	-2.38
767.747	-1.94
767.972	-2.34
768.197	-1.84
768.421	-3.21
768.646	-5.52
768.871	-10.31
769.095	-9.9
769.32	-8.15
769.545	-7.69
769.769	-7.1
769.994	-5.56
770.218	-7.92
770.443	-6.85
770.667	-6.19
770.892	-5.97
771.116	-7.98
771.341	-5.46
771.565	-5.92
771.79	-5.47
772.014	-4.87
772.238	-5.81
772.463	-4.11
772.687	-3.27
772.911	-4.35
773.136	-6.85
773.36	-7.21
773.584	-4.62
773.808	-6.34
774.033	-7.48
774.257	-6.62
774.481	-7.33
774.705	-7.63
774.929	-6.41
775.153	-6.58
775.377	-5.92
775.602	-6.09
775.826	-3.37
776.05	-2.28
776.274	-2.39
776.498	-2.12
776.722	-3.1
776.945	-2.49
777.169	-3.39
777.393	-5.34
777.617	-5.11
777.841	-5.12
778.065	-2.98
778.289	-6.32
778.512	-6.26
778.736	-6.98
778.96	-7.72
779.184	-4.84
779.407	-5.48
779.631	-6.56
779.855	-7.21
780.078	-4.93
780.302	-8.27
780.526	-10.54
780.749	-9.23
780.973	-6.17
781.196	-6.12
781.42	-7.94
781.643	-7.53
781.867	-6.99
782.09	-9.25
782.314	-10.63
782.537	-10.5
782.76	-11.98
782.984	-10.99
783.207	-12.86
783.431	-12.66
783.654	-13.02
783.877	-14.23
784.1	-14.68
784.324	-16.24
784.547	-17.27
784.77	-20.16
784.993	-20.69
785.216	-20.58
785.44	-20.38
785.663	-20.75
785.886	-18.86
786.109	-19.42
786.332	-18.53
786.555	-17.76
786.778	-14.85
787.001	-14.21
787.224	-12.1
787.447	-10.79
787.67	-9.87
787.893	-10.77
788.116	-11.01
788.339	-9.79
788.561	-11.57
788.784	-15.03
789.007	-16.32
789.23	-16.5
789.453	-16.44
789.675	-19.05
789.898	-21.21
790.121	-21.95
790.344	-21.47
790.566	-21.46
790.789	-22.2
791.012	-21.35
791.234	-18.03
791.457	-15.53
791.679	-15
791.902	-15.61
792.124	-15.84
792.347	-17.77
792.569	-18.38
792.792	-19.75
793.014	-18.31
793.237	-18.25
793.459	-18.65
793.681	-19.19
793.904	-21.1
794.126	-22.01
794.348	-22.42
794.571	-21.73
794.793	-23.42
795.015	-22.61
795.237	-22.49
795.46	-20.93
795.682	-21.47
795.904	-17.86
796.126	-19.13
796.348	-18.54
796.57	-12.36
796.792	-12.33
797.014	-9.47
797.237	-8.72
797.459	-6.89
797.681	-5.13
797.903	-6.81
798.124	-7.01
798.346	4.29
798.568	5.92
798.79	9.1
799.012	10.04
799.234	11.61
799.456	12.34
799.678	13.6
799.899	11.17
800.121	9.65
800.343	8.81
800.565	9.2
800.786	10.11
801.008	11.31
801.23	11.96
801.451	12.88
801.673	12.71
801.895	12.31
802.116	14.06
802.338	14.77
802.559	15.92
802.781	13.75
803.002	16.62
803.224	17.05
803.445	14.29
803.667	15.89
803.888	14.96
804.109	15.27
804.331	14.12
804.552	13.09
804.773	14.84
804.995	13.37
805.216	0.61
805.437	-1.22
805.658	-3.21
805.88	-4.17
806.101	-3.35
806.322	-2.32
806.543	-3.03
806.764	-4.26
806.985	-2.76
807.207	-0.99
807.428	-1.86
807.649	-4.08
807.87	-5.97
808.091	-6.74
808.312	-7.67
808.533	-3.65
808.754	-1.86
808.975	-5.13
809.195	-3.91
809.416	-2.27
809.637	-2.53
809.858	-5.05
810.079	-5.66
810.3	-5.35
810.52	-6.89
810.741	-8.54
810.962	-9.43
811.183	-9.04
811.403	-7.86
811.624	-7.34
811.845	-5.05
812.065	-4.34
812.286	-3.68
812.506	-2.97
812.727	-2.12
812.948	-1.52
813.168	-1.3
813.389	-2.97
813.609	-0.57
813.83	-1.87
814.05	-4.01
814.27	-3.66
814.491	-0.56
814.711	-0.91
814.931	-2.42
815.152	-2.18
815.372	-4.73
815.592	-6.06
815.813	-5.96
816.033	-7.71
816.253	-7.19
816.473	-7.84
816.694	-5.43
816.914	-4.96
817.134	-6.41
817.354	-7.4
817.574	-7.15
817.794	-8.15
818.014	-10.38
818.234	-11.59
818.454	-13.42
818.674	-16.71
818.894	-19.82
819.114	-18.02
819.334	-19.21
819.554	-18.05
819.774	-16.65
819.994	-18.74
820.214	-17.61
820.433	-16.88
820.653	-16.22
820.873	-13.14
821.093	-11.42
821.312	-13.39
821.532	-10.43
821.752	-8.31
821.972	-9.05
822.191	-8.44
822.411	-9.04
822.63	-8.05
822.85	-8.5
823.07	-10.73
823.289	-9.24
823.509	-11.19
823.728	-9.33
823.948	-9.06
824.167	-8.76
824.387	-9.34
824.606	-8.29
824.825	-7.95
825.045	-8.13
825.264	-8.5
825.483	-7.11
825.703	-5.3
825.922	-6.29
826.141	-7.87
826.361	-7.12
826.58	-11.05
826.799	-11.9
827.018	-11.33
827.237	-11.9
827.456	-9.84
827.676	-10.2
827.895	-11.7
828.114	-9.67
828.333	-11.1
828.552	-11.06
828.771	-10.86
828.99	-12.33
829.209	-12.32
829.428	-10.97
829.647	-11.27
829.866	-10.6
830.084	-10.94
830.303	-11.36
830.522	-11.85
830.741	-11.85
830.96	-11.41
831.179	-9.65
831.397	-9.74
831.616	-8.73
831.835	-8.69
832.053	-8.49
832.272	-7.78
832.491	-7.21
832.709	-9.32
832.928	-7.48
833.147	-8.43
833.365	-6.26
833.584	-4.1
833.802	-2.04
834.021	-1.61
834.239	-1.96
834.458	-3.91
834.676	-6.42
834.894	-8
835.113	-8.12
835.331	-7.16
835.55	-6.89
835.768	-5.17
835.986	-4.31
836.204	-5.01
836.423	-2.23
836.641	-1.89
836.859	-3.3
837.077	-2.42
837.296	-2.12
837.514	-3.74
837.732	-4.51
837.95	-6.14
838.168	-4.21
838.386	-6.15
838.604	-3.46
838.822	-2.27
839.04	-3.74
839.258	-2.72
839.476	0.92
839.694	0.69
839.912	-0.77
840.13	-1.61
840.348	1.11
840.566	-2.63
840.783	-1.72
841.001	-3.16
841.219	-1.78
841.437	-0.79
841.655	0.69
841.872	0.33
842.09	-0.89
842.308	-0.51
842.525	-0.78
842.743	-1
842.961	-2.23
843.178	-4.78
843.396	-2.23
843.613	-0.46
843.831	1.06
844.048	-0.51
844.266	0.82
844.483	-0.11
844.701	-0.98
844.918	-2.06
845.136	-1.18
845.353	-4.28
845.57	-4.94
845.788	-1.76
846.005	-3.51
846.222	-7.17
846.439	-6.14
846.657	-4.58
846.874	-3.94
847.091	-6.24
847.308	-5.22
847.526	-6.17
847.743	-7.01
847.96	-9.07
848.177	-8.84
848.394	-9.59
848.611	-10.2
848.828	-10.93
849.045	-12.09
849.262	-12.32
849.479	-10.72
849.696	-11.74
849.913	-13.09
850.13	-17.08
850.347	-15.64
850.564	-16.84
850.78	-17.13
850.997	-18.31
851.214	-16.66
851.431	-15.75
851.647	-17.5
851.864	-17
852.081	-14.9
852.298	-17.32
852.514	-16.99
852.731	-15.79
852.948	-12.33
853.164	-12.78
853.381	-13.6
853.597	-14.57
853.814	-17.25
854.03	-18.97
854.247	-18.46
854.463	-18.52
854.68	-19.32
854.896	-18.28
855.113	-18.18
855.329	-17.53
855.545	-14.82
855.762	-14.5
855.978	-17.22
856.194	-18.64
856.411	-14.3
856.627	-11.83
856.843	-11.5
857.059	-9.84
857.275	-10.64
857.492	-11.25
857.708	-8.36
857.924	-8.23
858.14	-4.82
858.356	-4.73
858.572	-5.33
858.788	-6.52
859.004	-4.02
859.22	-8.17
859.436	-8.24
859.652	-9.34
859.868	-9.75
860.084	-9.5
860.3	-8.53
860.516	-7.34
860.731	-6.35
860.947	-8.1
861.163	-6.31
861.379	-3.75
861.595	-3.85
861.81	-2.96
862.026	-2.29
862.242	-3.48
862.457	-4.1
862.673	-2.47
862.889	-3.11
863.104	-3.74
863.32	-4.56
863.535	-2.88
863.751	-6.65
863.966	-4.37
864.182	-2.78
864.397	-4.21
864.613	-5.07
864.828	-6.57
865.044	-5.56
865.259	-3.54
865.474	-3.39
865.69	-1.44
865.905	0.47
866.12	-0.61
866.336	-2.07
866.551	-1.69
866.766	-2.97
866.981	-4.71
867.196	-4.44
867.412	-3.12
867.627	-2.54
867.842	-3.16
868.057	-3.73
868.272	-3.46
868.487	-3.58
868.702	-5.4
868.917	-7.38
869.132	-6.11
869.347	-5.51
869.562	-6.8
869.777	-8.14
869.992	-8.67
870.207	-8.7
870.422	-8.71
870.636	-11.08
870.851	-11.6
871.066	-13.45
871.281	-13.43
871.495	-14.92
871.71	-13.12
871.925	-15.28
872.14	-16.39
872.354	-18.87
872.569	-20.21
872.783	-18.69
872.998	-17.5
873.213	-18.18
873.427	-15.02
873.642	-14.6
873.856	-15.3
874.071	-16.75
874.285	-17.42
874.5	-20.02
874.714	-20.36
874.928	-20.25
875.143	-21.67
875.357	-20.98
875.571	-21.3
875.786	-21.19
876	-18.63
876.214	-16.73
876.429	-17.91
876.643	-16.02
876.857	-15
877.071	-15.18
877.285	-16.33
877.499	-17.57
877.714	-14.29
877.928	-12.71
878.142	-14.82
878.356	-17.96
878.57	-16.81
878.784	-15.21
878.998	-16.28
879.212	-13.09
879.426	-14.87
879.639	-14.14
879.853	-14.12
880.067	-15.92
880.281	-16.62
880.495	-14.33
880.709	-11.45
880.922	-10.54
881.136	-7.49
881.35	-7.11
881.564	-9.4
881.777	-9.69
881.991	-9.3
882.205	-6.37
882.418	-6.66
882.632	-9.73
882.845	-10.03
883.059	-8.63
883.273	-11.04
883.486	-12.68
883.7	-10.03
883.913	-8.49
884.126	-8.3
884.34	-12.05
884.553	-14.85
884.767	-11.33
884.98	-10.85
885.193	-11.57
885.407	-12.25
885.62	-10.94
885.833	-11.41
886.046	-10.8
886.26	-12.09
886.473	-12.39
886.686	-12.77
886.899	-10.9
887.112	-12.24
887.326	-14.93
887.539	-15.5
887.752	-14.66
887.965	-16.7
888.178	-14.84
888.391	-14.98
888.604	-15.98
888.817	-17.95
889.03	-15.93
889.243	-16.63
889.455	-19.03
889.668	-19.23
889.881	-15.93
890.094	-16.98
890.307	-18.82
890.52	-18.48
890.732	-17.65
890.945	-16.9
891.158	-16.15
891.37	-17.99
891.583	-17.21
891.796	-15.8
892.008	-16.55
892.221	-17.22
892.434	-19.93
892.646	-19.77
892.859	-20.84
893.071	-19.46
893.284	-17.54
893.496	-18.25
893.709	-18.01
893.921	-16.59
894.133	-16.35
894.346	-17.35
894.558	-15.81
894.771	-16.44
894.983	-14.64
895.195	-13.87
895.407	-12.25
895.62	-16.85
895.832	-15.43
896.044	-12.94
896.256	-13.7
896.468	-15.44
896.681	-12.72
896.893	-12.41
897.105	-12.52
897.317	-13.4
897.529	-12.06
897.741	-10.38
897.953	-7.52
898.165	-9.19
898.377	-11.15
898.589	-9.77
898.801	-9.79
899.013	-8.03
899.224	-7.11
899.436	-3.96
899.648	-5.95
899.86	-7.42
900.072	-4.21
900.283	-4.16
900.495	-2.92
900.707	-2.2
900.919	-4.19
901.13	-2.02
901.342	-1.75
901.554	-2.8
901.765	-1.51
901.977	-4.36
902.188	-3.92
902.4	-5.64
902.611	-6.51
902.823	-7.68
903.034	-9.77
903.246	-12.7
903.457	-12.32
903.669	-12.94
903.88	-12.93
904.091	-11.94
904.303	-11.65
904.514	-13.52
904.725	-12.67
904.936	-11.85
905.148	-11.88
905.359	-9.76
905.57	-9.67
905.781	-10.6
905.992	-12.06
906.204	-10.17
906.415	-11.12
906.626	-14.44
906.837	-10.91
907.048	-13.15
907.259	-14.7
907.47	-16.4
907.681	-20.44
907.892	-17.93
908.103	-17.42
908.314	-19.41
908.525	-17.13
908.735	-14.92
908.946	-15.16
909.157	-15.47
909.368	-12.6
909.579	-11.06
909.789	-11.86
910	-13.86
910.211	-11.75
910.421	-11.91
910.632	-11.48
910.843	-14.7
911.053	-12.4
911.264	-9.15
911.475	-9.95
911.685	-10.43
911.896	-11.23
912.106	-11.93
912.317	-12.94
912.527	-11.41
912.737	-12.71
912.948	-11.3
913.158	-10.96
913.369	-14.97
913.579	-12.28
913.789	-11.67
914	-6.66
914.21	-5.7
914.42	-7.59
914.63	-9.53
914.841	-9.13
915.051	-7.71
915.261	-8.96
915.471	-6.91
915.681	-7.05
915.891	-8.3
916.101	-9.09
916.311	-7.44
916.521	-6.26
916.731	-7.2
916.941	-5.5
917.151	-7.6
917.361	-3.36
917.571	-6.43
917.781	-8.57
917.991	-10.26
918.201	-11.07
918.411	-12.91
918.621	-13.46
918.83	-12.74
919.04	-14.13
919.25	-11.76
919.46	-10.24
919.669	-12.29
919.879	-12.54
920.089	-14.03
920.298	-14.76
920.508	-16.4
920.717	-15.62
920.927	-16.84
921.136	-15.75
921.346	-15.89
921.555	-18.91
921.765	-18.23
921.974	-18.98
922.184	-21.53
922.393	-22.13
922.603	-23.15
922.812	-22.9
923.021	-23.61
923.23	-23.36
923.44	-25.92
923.649	-24.77
923.858	-26.43
924.067	-27.07
924.277	-28.3
924.486	-26.12
924.695	-25.62
924.904	-23.58
925.113	-22.12
925.322	-21.26
925.531	-21.61
925.74	-24.28
925.949	-25.34
926.158	-21.98
926.367	-21.88
926.576	-21.35
926.785	-21.55
926.994	-22.26
927.203	-21.45
927.412	-21.93
927.621	-21.62
927.83	-21.12
928.038	-20.44
928.247	-20.53
928.456	-20.71
928.665	-19.07
928.873	-17.47
929.082	-14.85
929.291	-12.83
929.499	-10.97
929.708	-12.42
929.916	-10.31
930.125	-12.15
930.333	-13.15
930.542	-10.94
930.75	-7.86
930.959	-8.1
931.167	-8.04
931.376	-8.93
931.584	-9.18
931.793	-8.13
932.001	-9.43
932.209	-11.32
932.418	-13.63
932.626	-15.43
932.834	-16.79
933.042	-19.86
933.251	-19.67
933.459	-19.24
933.667	-19.52
933.875	-18.82
934.083	-18.23
934.291	-16.75
934.499	-17.26
934.707	-18.64
934.915	-18.52
935.123	-16.14
935.331	-17.52
935.539	-18.9
935.747	-21.47
935.955	-22.39
936.163	-21.86
936.371	-22.83
936.579	-21.18
936.787	-22.12
936.995	-23.62
937.202	-26.47
937.41	-26.42
937.618	-27.43
937.826	-26.91
938.033	-30.17
938.241	-32.83
938.449	-29.11
938.656	-25.65
938.864	-24.97
939.071	-26.11
939.279	-23.37
939.486	-21.43
939.694	-21.5
939.901	-22.86
940.109	-23.3
940.316	-22.73
940.524	-23.69
940.731	-25.85
940.939	-25.07
941.146	-25.13
941.353	-26.35
941.561	-26.54
941.768	-26.56
941.975	-25.68
942.182	-25.03
942.39	-25.42
942.597	-22.38
942.804	-21.37
943.011	-21.88
943.218	-20.41
943.425	-20.12
943.632	-18.9
943.839	-19.22
944.046	-19.83
944.253	-20.37
944.46	-18.72
944.667	-14.25
944.874	-15.27
945.081	-15.49
945.288	-14.04
945.495	-11.55
945.702	-11.62
945.909	-13.14
946.115	-11.99
946.322	-11.48
946.529	-11.64
946.736	-11.96
946.942	-10.21
947.149	-10.25
947.356	-10.27
947.562	-10.46
947.769	-9.21
947.976	-9.98
948.182	-9.31
948.389	-10.28
948.595	-9.36
948.802	-9.43
949.008	-11.11
949.215	-11.16
949.421	-11.32
949.628	-12.28
949.834	-11.53
950.04	-11.73
950.247	-8.32
950.453	-5.53
950.659	-5.6
950.865	-5.29
951.072	-11.03
951.278	-10.53
951.484	-11.13
951.69	-13.97
951.896	-15.01
952.103	-15.61
952.309	-13.8
952.515	-13.91
952.721	-13.48
952.927	-12.63
953.133	-13.26
953.339	-13.54
953.545	-13.13
953.751	-12.48
953.957	-10.69
954.163	-12.65
954.369	-12.51
954.574	-13.69
954.78	-13.87
954.986	-13.78
955.192	-11.04
955.398	-12.6
955.603	-14
955.809	-13.14
956.015	-11.97
956.22	-11.63
956.426	-11.58
956.632	-14.77
956.837	-15.94
957.043	-14.87
957.248	-14.32
957.454	-12.82
957.66	-13.53
957.865	-13.9
958.07	-12.1
958.276	-13.74
958.481	-14.68
958.687	-16.1
958.892	-16.62
959.097	-16.39
959.303	-16.4
959.508	-15.81
959.713	-16.9
959.919	-17.33
960.124	-17.6
960.329	-17.76
960.534	-13.98
960.739	-13.51
960.945	-11.7
961.15	-12.42
961.355	-14.6
961.56	-18.31
961.765	-18.89
961.97	-19.5
962.175	-17.09
962.38	-19.29
962.585	-18.68
962.79	-20.6
962.995	-21.14
963.2	-21.98
963.404	-22.42
963.609	-24.72
963.814	-25.22
964.019	-27.84
964.224	-28.93
964.428	-28.12
964.633	-25.93
964.838	-25.54
965.042	-25.11
965.247	-26.68
965.452	-26.27
965.656	-26.13
965.861	-27.07
966.066	-27.8
966.27	-24.62
966.475	-22.59
966.679	-26.16
966.884	-27.12
967.088	-28.38
967.292	-28.83
967.497	-27.85
967.701	-27.22
967.906	-25.85
968.11	-23.03
968.314	-20.05
968.518	-22.7
968.723	-19.86
968.927	-18.81
969.131	-17.07
969.335	-15.06
969.539	-14.89
969.744	-13.46
969.948	-10.74
970.152	-9.39
970.356	-7.75
970.56	-8.38
970.764	-9.48
970.968	-6.2
971.172	-5.01
971.376	-3.79
971.58	-1.53
971.784	-1.01
971.988	-0.98
972.192	1.87
972.395	1.46
972.599	-1.65
972.803	-2.8
973.007	-0.34
973.21	0.14
973.414	-0.32
973.618	-0.9
973.822	-0.23
974.025	0.02
974.229	0.72
974.432	-2.77
974.636	-4.34
974.84	-2.66
975.043	-3.09
975.247	-6.08
975.45	-6.59
975.654	-5.45
975.857	-4.58
976.06	-6.47
976.264	-7
976.467	-6.29
976.671	-6
976.874	-4.47
977.077	-4.67
977.28	-6.8
977.484	-8.61
977.687	-10.02
977.89	-8.65
978.093	-8.75
978.297	-7.97
978.5	-10.27
978.703	-9.94
978.906	-7.98
979.109	-7.95
979.312	-6.76
979.515	-8.14
979.718	-8.17
979.921	-8.12
980.124	-10.62
980.327	-11.39
980.53	-12.02
980.733	-10.62
980.936	-9.13
981.138	-11.12
981.341	-11.06
981.544	-10.51
981.747	-10.11
981.949	-11.65
982.152	-10.35
982.355	-10.88
982.558	-8.99
982.76	-11.32
982.963	-12.63
983.165	-12.61
983.368	-12.5
983.571	-12.95
983.773	-10.33
983.976	-10.31
984.178	-10.03
984.381	-10.59
984.583	-13.47
984.785	-13.63
984.988	-10.46
985.19	-10.99
985.392	-13.08
985.595	-14.86
985.797	-15.49
985.999	-12.01
986.202	-10.44
986.404	-9.3
986.606	-6.9
986.808	-6.69
987.01	-4.71
987.212	-5.59
987.415	-6.23
987.617	-5.4
987.819	-5.88
988.021	-7.44
988.223	-9
988.425	-10.35
988.627	-9.61
988.829	-13.09
989.031	-11.23
989.232	-11.31
989.434	-9.13
989.636	-8.9
989.838	-10.37
990.04	-10.35
990.242	-10.12
990.443	-12.15
990.645	-10.82
990.847	-8.27
991.048	-7.19
991.25	-9.04
991.452	-8.43
991.653	-8.55
991.855	-8.81
992.057	-8.38
992.258	-9.84
992.46	-10.39
992.661	-9.41
992.863	-11.16
993.064	-12.17
993.265	-13.56
993.467	-14.64
993.668	-14.91
993.87	-15.11
994.071	-15
994.272	-13.04
994.473	-10.9
994.675	-10.65
994.876	-9.72
995.077	-8.66
995.278	-6.58
995.48	-6.38
995.681	-9.32
995.882	-7.8
996.083	-6.38
996.284	-9.73
996.485	-10.36
996.686	-11.56
996.887	-12.44
997.088	-15.03
997.289	-16.73
997.49	-18.56
997.691	-18.38
997.892	-18.54
998.092	-14.82
998.293	-14.94
998.494	-15.77
998.695	-16.62
998.896	-15.54
999.096	-13.48
999.297	-12.08
999.498	-12.62
999.698	-13.96
999.899	-14.24
1000.1	-17.6
1000.3	-16.72
1000.501	-16.83
1000.701	-17.85
1000.902	-18.33
1001.102	-19.25
1001.303	-17.31
1001.503	-21.28
1001.704	-20.42
1001.904	-20.17
1002.105	-20.57
1002.305	-20.54
1002.505	-21.26
1002.706	-21.06
1002.906	-20.24
1003.106	-21.55
1003.306	-20.53
1003.507	-19.19
1003.707	-18.83
1003.907	-17.44
1004.107	-16.79
1004.307	-17.57
1004.507	-16.61
1004.707	-16.61
1004.907	-17.39
1005.107	-19.03
1005.308	-20.11
1005.507	-21.36
1005.707	-20.91
1005.907	-20.78
1006.107	-18.29
1006.307	-15.28
1006.507	-16.03
1006.707	-16.01
1006.907	-14.66
1007.106	-14.14
1007.306	-15.15
1007.506	-15.52
1007.706	-13.97
1007.905	-16.48
1008.105	-15.63
1008.305	-17.82
1008.504	-17.19
1008.704	-12.15
1008.903	-11.27
1009.103	-10.45
1009.303	-11.04
1009.502	-10.59
1009.702	-10.7
1009.901	-10.26
1010.1	-13.89
1010.3	-11.84
1010.499	-12.88
1010.699	-13.54
1010.898	-14.57
1011.097	-14.46
1011.296	-13.22
1011.496	-14.06
1011.695	-14.89
1011.894	-15.45
1012.093	-12.34
1012.293	-12.78
1012.492	-13.28
1012.691	-12.76
1012.89	-12.86
1013.089	-14.93
1013.288	-14.06
1013.487	-13.39
1013.686	-13.89
1013.885	-14.93
1014.084	-12.74
1014.283	-12.48
1014.482	-12.35
1014.681	-12.54
1014.88	-16.65
1015.078	-16.37
1015.277	-18.11
1015.476	-17.95
1015.675	-18.6
1015.873	-17.59
1016.072	-19.19
1016.271	-17.09
1016.47	-20.36
1016.668	-19.77
1016.867	-20.07
1017.065	-21.41
1017.264	-21.69
1017.463	-21.99
1017.661	-23.07
1017.86	-23.34
1018.058	-21.79
1018.256	-23.41
1018.455	-25.36
1018.653	-25.17
1018.852	-25.5
1019.05	-27.5
1019.248	-28.47
1019.447	-30.19
1019.645	-30.45
1019.843	-30.81
1020.041	-30.28
1020.24	-31.36
1020.438	-29.13
1020.636	-29.04
1020.834	-32.39
1021.032	-30.41
1021.23	-30.26
1021.428	-29.99
1021.626	-27.09
1021.824	-26.68
1022.022	-28.62
1022.22	-25.77
1022.418	-25.34
1022.616	-25.32
1022.814	-25.49
1023.012	-26.32
1023.21	-24.18
1023.408	-24.72
1023.606	-26.18
1023.803	-21.05
1024.001	-20.12
1024.199	-23.96
1024.397	-23.64
1024.594	-21.47
1024.792	-22.92
1024.99	-21.49
1025.187	-21.96
1025.385	-18.83
1025.582	-18.76
1025.78	-18.62
1025.977	-19.31
1026.175	-17.64
1026.372	-17.02
1026.57	-19.88
1026.767	-18.03
1026.965	-18.17
1027.162	-16.98
1027.359	-18.25
1027.557	-17.23
1027.754	-19.86
1027.951	-19.9
1028.148	-18.01
1028.346	-19.68
1028.543	-20.66
1028.74	-20.4
1028.937	-22.57
1029.134	-22.4
1029.331	-22.69
1029.528	-22.66
1029.725	-22.52
1029.923	-26.18
1030.12	-22.73
1030.317	-20.91
1030.513	-19.81
1030.71	-19.31
1030.907	-17.17
1031.104	-18.11
1031.301	-17.84
1031.498	-17.81
1031.695	-16.96
1031.892	-17.32
1032.088	-16.96
1032.285	-20.29
1032.482	-19.94
1032.678	-20.97
1032.875	-22.41
1033.072	-21.48
1033.268	-21.89
1033.465	-21.2
1033.662	-22.84
1033.858	-23.6
1034.055	-24.18
1034.251	-22.33
1034.448	-22.83
1034.644	-23.02
1034.84	-21.07
1035.037	-19.52
1035.233	-18.96
1035.43	-17.67
1035.626	-18.69
1035.822	-18.08
1036.019	-19.03
1036.215	-22.67
1036.411	-23.54
1036.607	-24.74
1036.803	-28.08
1037	-29.18
1037.196	-31.19
1037.392	-31.88
1037.588	-33.23
1037.784	-33.61
1037.98	-34.3
1038.176	-33.84
1038.372	-33.27
1038.568	-33.11
1038.764	-32.06
1038.96	-29.37
1039.156	-30.65
1039.352	-31.81
1039.547	-29.85
1039.743	-28.95
1039.939	-27.06
1040.135	-27.29
1040.331	-29.07
1040.526	-28.17
1040.722	-28.95
1040.918	-30.17
1041.113	-32.63
1041.309	-32.63
1041.505	-35.12
1041.7	-33.01
1041.896	-32.81
1042.091	-32.17
1042.287	-31.38
1042.482	-29.97
1042.678	-30.31
1042.873	-28.69
1043.069	-29.33
1043.264	-27.86
1043.459	-25.85
1043.655	-26.17
1043.85	-26.49
1044.045	-24.77
1044.24	-25.4
1044.436	-23.65
1044.631	-24.07
1044.826	-24.36
1045.021	-28.48
1045.216	-24.94
