Data from FLMT021711__15__17-06-45-284.txt Node

Date: Tue Nov 05 17:06:45 CET 2024
User: Etudiants TP
Spectrometer: FLMT02171
Trigger mode: 0
Integration Time (sec): 1.000000E-1
Scans to average: 5
Electric dark correction enabled: true
Nonlinearity correction enabled: false
Boxcar width: 15
XAxis mode: Wavelengths
Number of Pixels in Spectrum: 3648
>>>>>Begin Spectral Data<<<<<
194.658	-51.47
194.923	-50.07
195.188	-43.29
195.453	-45.08
195.717	-39.97
195.982	-37.99
196.247	-36.9
196.512	-39.65
196.777	-39.39
197.042	-38.16
197.307	-38.91
197.572	-33.67
197.837	-34.01
198.101	-32.04
198.366	-30.03
198.631	-28.37
198.896	-24.07
199.161	-17.53
199.425	-11.51
199.69	-3.13
199.955	-3.94
200.22	-5.64
200.484	-6.02
200.749	-6.52
201.014	-5.98
201.278	-5.98
201.543	-4.95
201.807	-5.68
202.072	-4.86
202.337	-5.31
202.601	-4.85
202.866	-6.42
203.13	-5.61
203.395	-8.64
203.659	-8.66
203.924	-9.78
204.189	-9.72
204.453	-9.12
204.717	-6.04
204.982	-4.61
205.246	-2.75
205.511	0.28
205.775	-2.38
206.04	2.46
206.304	2.81
206.568	4.58
206.833	4.24
207.097	5.28
207.361	4.77
207.626	8.2
207.89	8.17
208.154	8.27
208.419	10.26
208.683	9.78
208.947	12.26
209.211	10.95
209.476	12.43
209.74	12.18
210.004	11.14
210.268	11.49
210.532	14.38
210.796	15.03
211.061	15.86
211.325	17.01
211.589	16.47
211.853	18.94
212.117	18.38
212.381	18.26
212.645	19.39
212.909	19.54
213.173	17.08
213.437	15.26
213.701	14.48
213.965	16.31
214.229	12.57
214.493	14.14
214.757	12.24
215.021	12.06
215.285	16.26
215.549	19.98
215.813	17.4
216.077	16.49
216.34	18.93
216.604	17.03
216.868	18.95
217.132	19.59
217.396	19.25
217.659	18.63
217.923	15.59
218.187	16.75
218.451	16.32
218.714	13.54
218.978	13.74
219.242	15.68
219.505	16.79
219.769	17.77
220.033	17.68
220.296	18.43
220.56	19.27
220.824	16.67
221.087	16.29
221.351	16.01
221.614	17.43
221.878	18.33
222.142	15.32
222.405	15.63
222.669	15.91
222.932	13.35
223.196	13.53
223.459	9.63
223.722	9.92
223.986	8.85
224.249	8.88
224.513	8.51
224.776	7.63
225.04	6.56
225.303	5.9
225.566	5.85
225.83	7.26
226.093	9.34
226.356	7.14
226.62	5.88
226.883	7.22
227.146	6.53
227.409	5.07
227.673	2.11
227.936	1.17
228.199	1.78
228.462	0.51
228.725	0.08
228.989	-0.49
229.252	1.54
229.515	7.69
229.778	7.39
230.041	7.05
230.304	6.97
230.567	7.26
230.83	5.45
231.093	7.93
231.356	7.18
231.619	13.31
231.882	11.16
232.145	12.39
232.408	11.48
232.671	10.4
232.934	10.24
233.197	9.06
233.46	8.55
233.723	10.7
233.986	7.86
234.249	6.21
234.512	9.55
234.775	13.66
235.037	13.28
235.3	13.76
235.563	12.88
235.826	13.19
236.089	15.69
236.351	14.8
236.614	15.95
236.877	15.84
237.14	18.37
237.402	15.91
237.665	9.65
237.928	8.88
238.19	6.75
238.453	8.02
238.716	7.36
238.978	7.23
239.241	5.38
239.503	6.58
239.766	1.91
240.029	0.4
240.291	3.18
240.554	2.74
240.816	2.46
241.079	3.99
241.341	2.62
241.604	2.07
241.866	-0.34
242.129	1.9
242.391	3.4
242.653	1.54
242.916	-0.44
243.178	-0.87
243.441	0.81
243.703	1.58
243.965	0.13
244.228	-0.26
244.49	-0.49
244.752	1.75
245.015	1.54
245.277	2.33
245.539	2.18
245.801	4.13
246.064	2.58
246.326	1.24
246.588	2.11
246.85	3.9
247.112	3.92
247.374	6.63
247.637	9
247.899	8.63
248.161	8.81
248.423	5.96
248.685	5.93
248.947	5.42
249.209	4.81
249.471	7.49
249.733	7.31
249.995	7.62
250.257	6.85
250.519	6.13
250.781	9.8
251.043	8.01
251.305	9.69
251.567	9.8
251.829	10.1
252.091	11.15
252.353	7.82
252.615	8.23
252.876	5.38
253.138	4.52
253.4	2.06
253.662	3.63
253.924	6.11
254.185	8.1
254.447	9.52
254.709	8.95
254.971	10.1
255.232	11.16
255.494	9.84
255.756	6.92
256.017	7.75
256.279	8.9
256.541	8.58
256.802	8.86
257.064	9.55
257.326	8.95
257.587	7.94
257.849	8.85
258.11	10.43
258.372	11.61
258.633	12.21
258.895	10.18
259.156	8.97
259.418	8.08
259.679	4.1
259.941	2.81
260.202	4.59
260.464	6.88
260.725	6.45
260.987	6.4
261.248	6.11
261.509	6.15
261.771	5.12
262.032	5.68
262.293	5.27
262.555	5.87
262.816	4.7
263.077	1.57
263.338	-0.41
263.6	-0.24
263.861	-0.75
264.122	-1.42
264.383	0.79
264.645	1.46
264.906	0.88
265.167	2.69
265.428	0.88
265.689	2.45
265.95	-0.2
266.211	1.08
266.473	0.18
266.734	-2.5
266.995	-4.86
267.256	-2.59
267.517	-1.7
267.778	2.25
268.039	2.95
268.3	1.59
268.561	-1.01
268.822	1.04
269.083	-1.38
269.344	-1.38
269.604	-1.02
269.865	-0.3
270.126	-4.03
270.387	-3.65
270.648	-3.08
270.909	-3.79
271.17	-3.51
271.43	-6.11
271.691	-7.97
271.952	-8.68
272.213	-6.72
272.473	-9.27
272.734	-8.33
272.995	-6.97
273.256	-7.04
273.516	-3.23
273.777	-4.83
274.038	-1.68
274.298	-5.38
274.559	-5.98
274.82	-2.13
275.08	-0
275.341	1.46
275.601	0.85
275.862	-0.6
276.122	-0.4
276.383	0.53
276.643	3.69
276.904	2.66
277.164	6.64
277.425	6.65
277.685	9.84
277.946	9.56
278.206	11.15
278.467	12.83
278.727	12.64
278.987	11.99
279.248	12.1
279.508	14.73
279.768	16.75
280.029	18.88
280.289	15.59
280.549	13.97
280.81	12.92
281.07	11.97
281.33	13.39
281.59	11.56
281.851	13.79
282.111	13.74
282.371	13.91
282.631	15.51
282.891	14.72
283.151	12.93
283.412	10.29
283.672	9.78
283.932	10.15
284.192	11.12
284.452	8.4
284.712	5.67
284.972	4.4
285.232	1.74
285.492	4.36
285.752	2.44
286.012	8.58
286.272	9.44
286.532	7.06
286.792	7.7
287.052	10.45
287.312	10.37
287.571	8.55
287.831	7.92
288.091	5.19
288.351	5.3
288.611	9.69
288.871	10.04
289.13	11.04
289.39	7.41
289.65	7.5
289.91	4.84
290.17	5.78
290.429	8.09
290.689	5.53
290.949	4.5
291.208	6.83
291.468	10.16
291.728	12.22
291.987	13.12
292.247	11.98
292.506	15.12
292.766	16.9
293.026	16.58
293.285	18.51
293.545	18.63
293.804	17.16
294.064	12.53
294.323	10.75
294.583	12.04
294.842	11.81
295.102	10.76
295.361	9.98
295.621	11.82
295.88	12.93
296.139	12.07
296.399	13.91
296.658	9.09
296.917	9.55
297.177	6.49
297.436	7.05
297.695	6.86
297.955	8.91
298.214	7.69
298.473	8.52
298.732	10
298.992	10.5
299.251	9.43
299.51	5.79
299.769	5.35
300.028	4.52
300.287	4.59
300.547	3.4
300.806	2.31
301.065	4.74
301.324	4.41
301.583	3.33
301.842	1.69
302.101	0.68
302.36	2.01
302.619	0.59
302.878	1.34
303.137	-0.95
303.396	1.74
303.655	1.84
303.914	-0.77
304.173	0.64
304.432	-0.53
304.691	3.06
304.95	0.81
305.208	5.03
305.467	5.02
305.726	3.27
305.985	3.54
306.244	4.04
306.503	3.49
306.761	3.48
307.02	1.22
307.279	1.78
307.537	3.39
307.796	0.69
308.055	-1
308.314	-0.78
308.572	-2.02
308.831	-0.58
309.09	-0.33
309.348	0.71
309.607	-0.81
309.865	3.44
310.124	2.34
310.382	3.39
310.641	5.41
310.9	3.06
311.158	5.22
311.417	4.7
311.675	6.19
311.933	7.17
312.192	9.17
312.45	8.94
312.709	7.8
312.967	7.44
313.226	6.21
313.484	6.08
313.742	5.39
314.001	2.92
314.259	1.35
314.517	2.12
314.776	4.33
315.034	6.72
315.292	4.49
315.55	3.17
315.809	3.72
316.067	3.8
316.325	2.18
316.583	4.56
316.841	3.33
317.1	1.93
317.358	-0.49
317.616	-0.24
317.874	-2.04
318.132	-2.47
318.39	-3.36
318.648	-5.39
318.906	-5.37
319.164	-6.12
319.422	-7.09
319.68	-8.76
319.938	-8.57
320.196	-9.12
320.454	-7.9
320.712	-9.2
320.97	-8.71
321.228	-10.55
321.486	-9.57
321.744	-7.63
322.002	-5.03
322.26	-6.17
322.517	-7.27
322.775	-10.4
323.033	-11.8
323.291	-9.5
323.549	-8.74
323.806	-8.19
324.064	-7.62
324.322	-5.54
324.58	-7.07
324.837	-5.35
325.095	-6.71
325.353	-5.08
325.61	-4.95
325.868	-5.83
326.126	-3.05
326.383	-3.95
326.641	-4.4
326.898	-2.8
327.156	-2.76
327.413	-1.89
327.671	-1.55
327.928	-0.77
328.186	-1.87
328.443	-2.08
328.701	2.52
328.958	3.93
329.216	4.55
329.473	3.32
329.731	4.42
329.988	3.87
330.245	6.94
330.503	8.54
330.76	9.15
331.017	11.46
331.275	9.31
331.532	9.51
331.789	8.54
332.047	8.45
332.304	5.58
332.561	6.86
332.818	5.43
333.076	5.73
333.333	6.62
333.59	8.63
333.847	9.83
334.104	8.89
334.361	7.37
334.618	6.88
334.876	5.26
335.133	6.81
335.39	4.41
335.647	6.39
335.904	3.72
336.161	2.27
336.418	2.46
336.675	-1.02
336.932	-0.15
337.189	-0.26
337.446	0.05
337.703	-0.56
337.96	-2.8
338.216	-2.46
338.473	-5.48
338.73	-5.35
338.987	-5.74
339.244	-3.1
339.501	-5.45
339.757	-3.83
340.014	-2.38
340.271	-0.61
340.528	-0.98
340.785	3.24
341.041	4.6
341.298	1.25
341.555	-0.07
341.811	-0.39
342.068	-2.31
342.325	-2.76
342.581	-1.08
342.838	0.25
343.094	-0.66
343.351	-0.01
343.608	-2.71
343.864	0.28
344.121	2.74
344.377	1.71
344.634	0.78
344.89	0.17
345.147	0.78
345.403	-0.07
345.66	-0.06
345.916	1.06
346.172	-1.08
346.429	-1.02
346.685	-2.83
346.942	-3.31
347.198	-6.81
347.454	-4.85
347.711	-6.16
347.967	-8.73
348.223	-7.99
348.48	-9.27
348.736	-7.39
348.992	-7.14
349.248	-3.89
349.504	-4.89
349.761	-4.96
350.017	-5.13
350.273	-3.61
350.529	-3.83
350.785	-3.73
351.041	-4.42
351.297	-1.73
351.554	-3.28
351.81	-4.53
352.066	-6.29
352.322	-6.58
352.578	-5.73
352.834	-7.14
353.09	-7.05
353.346	-6.12
353.602	-7.4
353.858	-8.39
354.114	-9.17
354.369	-8.36
354.625	-5.91
354.881	-6.54
355.137	-3.96
355.393	-4.46
355.649	-2.88
355.905	-2.22
356.16	-1.98
356.416	0.03
356.672	-5.77
356.928	-5.91
357.183	-5.03
357.439	-4.29
357.695	-6.54
357.951	-2.61
358.206	-3.34
358.462	-4.23
358.718	-6.26
358.973	-4.8
359.229	-6.54
359.484	-5.63
359.74	-3.92
359.996	-3.85
360.251	-0.95
360.507	-1.91
360.762	-1.86
361.018	-0.85
361.273	-2.77
361.529	-1.46
361.784	-1.04
362.04	-0.12
362.295	-1.06
362.55	-1.72
362.806	-0.21
363.061	-0.75
363.316	-0.56
363.572	-0.06
363.827	1.91
364.082	0.03
364.338	-0.48
364.593	-1.22
364.848	-0.49
365.104	-3.34
365.359	-0.76
365.614	1.05
365.869	-2.88
366.124	-2.65
366.38	-3.57
366.635	-1.72
366.89	-1.17
367.145	-0.98
367.4	2.51
367.655	1.94
367.91	1.71
368.165	0.3
368.42	-1.17
368.675	0.09
368.93	0.97
369.185	-0.64
369.44	-0.64
369.695	1.89
369.95	1.29
370.205	1.78
370.46	1.52
370.715	1.04
370.97	2.71
371.225	2.57
371.48	2.4
371.734	0.77
371.989	0.28
372.244	-0.51
372.499	2.08
372.754	-0.66
373.008	-2.89
373.263	-6.18
373.518	-4.6
373.773	-4.3
374.027	-4.21
374.282	-1.16
374.537	-1.18
374.791	-0.61
375.046	-2.62
375.301	-4.6
375.555	-5.97
375.81	-3.7
376.064	-3.14
376.319	-0.87
376.573	-3.48
376.828	-6.8
377.082	-2.34
377.337	-3.91
377.591	-7.98
377.846	-5.91
378.1	-3.93
378.355	-3.33
378.609	-4.81
378.863	-8.55
379.118	-5.67
379.372	-7.31
379.627	-7.21
379.881	-7.41
380.135	-6.87
380.389	-7.46
380.644	-4.57
380.898	-3.61
381.152	-3.99
381.407	-4.22
381.661	-1.88
381.915	-0.4
382.169	-0.87
382.423	-1.19
382.677	-3.14
382.932	-1.64
383.186	-0.94
383.44	-0.14
383.694	1.14
383.948	0.07
384.202	-1.13
384.456	1.75
384.71	2.62
384.964	1.24
385.218	1.73
385.472	3.88
385.726	2.87
385.98	2.27
386.234	2.4
386.488	-0.22
386.742	2.62
386.996	-0.46
387.249	1.15
387.503	1.92
387.757	3.06
388.011	3.91
388.265	5.24
388.518	4.53
388.772	6.21
389.026	8.35
389.28	6.28
389.533	4.41
389.787	5.94
390.041	4.13
390.295	4.1
390.548	3.04
390.802	5.39
391.055	4.79
391.309	3.81
391.563	2.29
391.816	2.51
392.07	0.99
392.323	2.08
392.577	3.33
392.83	3.57
393.084	9.51
393.337	11.76
393.591	12.61
393.844	13.1
394.098	15.4
394.351	20.54
394.604	21.34
394.858	22.18
395.111	21.9
395.364	19.73
395.618	20.53
395.871	18.17
396.124	15.87
396.378	14.88
396.631	15.2
396.884	12.75
397.137	13.13
397.391	14.76
397.644	11.9
397.897	13.19
398.15	13.94
398.403	16.44
398.657	15.34
398.91	13.66
399.163	15.34
399.416	15.11
399.669	13.73
399.922	14.23
400.175	11.8
400.428	11.25
400.681	11.91
400.934	6.8
401.187	5.73
401.44	4.53
401.693	2.12
401.946	-0.74
402.199	-4.22
402.452	-4.92
402.704	-7.19
402.957	-8.62
403.21	-6.93
403.463	-7.97
403.716	-7.99
403.969	-5.3
404.221	-3.7
404.474	-2.41
404.727	0.88
404.98	2.61
405.232	2
405.485	2.61
405.738	3.89
405.99	3.93
406.243	4.55
406.496	5.6
406.748	5.1
407.001	3.36
407.253	3.1
407.506	3.27
407.759	4.17
408.011	3.3
408.264	3.7
408.516	3.23
408.769	1.02
409.021	2.42
409.274	2.59
409.526	4.96
409.778	4.64
410.031	6.92
410.283	7
410.536	11.64
410.788	11.07
411.04	10.23
411.293	11.18
411.545	13.14
411.797	10.93
412.049	8.55
412.302	8.87
412.554	7.87
412.806	7.03
413.058	6.28
413.311	7.59
413.563	6.91
413.815	7.05
414.067	5.31
414.319	4.26
414.571	7.96
414.823	7.01
415.075	6.76
415.328	8.18
415.58	10.93
415.832	12.25
416.084	13.01
416.336	13.46
416.588	17.58
416.84	15
417.091	17.31
417.343	14.76
417.595	17.52
417.847	17.14
418.099	17.98
418.351	17.89
418.603	21.04
418.855	23.83
419.106	25.66
419.358	25.99
419.61	27.36
419.862	29.61
420.114	27.45
420.365	28.59
420.617	29.26
420.869	27.6
421.12	25.92
421.372	26.86
421.624	25.86
421.875	26.28
422.127	24.37
422.379	23.45
422.63	25.83
422.882	24.8
423.133	24.48
423.385	24.84
423.636	26.62
423.888	28.5
424.139	29.8
424.391	28.4
424.642	26.99
424.894	25.55
425.145	26.82
425.396	23.55
425.648	26.31
425.899	25.64
426.151	24.91
426.402	23.81
426.653	22.82
426.905	22.39
427.156	21.03
427.407	20.87
427.658	20.6
427.91	19.91
428.161	19.38
428.412	21.39
428.663	23.33
428.914	25.21
429.166	26.9
429.417	27.24
429.668	26.01
429.919	24.82
430.17	24.46
430.421	24.63
430.672	26.95
430.923	27.84
431.174	26.67
431.425	25.86
431.676	25.49
431.927	23.42
432.178	26.29
432.429	27.26
432.68	27.43
432.931	30.6
433.182	34.4
433.433	32.45
433.683	33.36
433.934	33.57
434.185	32.93
434.436	33.13
434.687	34.28
434.937	37.16
435.188	36.38
435.439	35.83
435.69	37.8
435.94	36.53
436.191	36.71
436.442	36.07
436.692	35.88
436.943	33.09
437.194	32.8
437.444	36.07
437.695	40.51
437.945	41.75
438.196	41.07
438.447	42.27
438.697	41.93
438.948	42.72
439.198	41.37
439.449	38.55
439.699	40.12
439.949	39.82
440.2	41.93
440.45	44.07
440.701	42.03
440.951	41.88
441.201	44.11
441.452	43.29
441.702	44.43
441.952	45.3
442.203	46.83
442.453	44.54
442.703	45.93
442.953	47.95
443.204	49.95
443.454	49.85
443.704	52.48
443.954	50.01
444.204	53.48
444.455	55.52
444.705	58.92
444.955	60.91
445.205	61.51
445.455	60.14
445.705	62
445.955	63.88
446.205	64.83
446.455	67.58
446.705	69.98
446.955	72.75
447.205	75.31
447.455	77.07
447.705	76.62
447.955	77.01
448.205	77.96
448.454	79.27
448.704	82.04
448.954	82.31
449.204	84.95
449.454	85.69
449.704	86.42
449.953	87.38
450.203	92.99
450.453	90.81
450.703	92.9
450.952	93.08
451.202	96.02
451.452	95.42
451.701	99.26
451.951	101.42
452.201	103.07
452.45	102.86
452.7	105.76
452.949	105.58
453.199	106.05
453.448	105.85
453.698	107.82
453.947	107.45
454.197	106
454.446	103.69
454.696	106.32
454.945	106.76
455.195	106.58
455.444	106.33
455.693	108.89
455.943	107.63
456.192	108.54
456.442	107.31
456.691	106.26
456.94	104.79
457.189	102.88
457.439	104.81
457.688	105.21
457.937	102.25
458.186	102.99
458.436	102.31
458.685	102.27
458.934	100.19
459.183	99.8
459.432	101.18
459.681	99.72
459.93	95.45
460.179	93.58
460.429	90.87
460.678	91.73
460.927	93.77
461.176	93.06
461.425	90.87
461.674	91.55
461.923	91.12
462.172	90.22
462.42	86.98
462.669	87.49
462.918	86
463.167	84.79
463.416	81.65
463.665	81.78
463.914	81.65
464.162	78.3
464.411	77.33
464.66	77.58
464.909	76.43
465.158	75.03
465.406	74.17
465.655	74.14
465.904	74.32
466.152	73.8
466.401	73.72
466.65	73.36
466.898	70.72
467.147	65.59
467.395	64.96
467.644	68.08
467.893	66.08
468.141	64.81
468.39	62.52
468.638	58.44
468.887	55.74
469.135	54.85
469.384	54.67
469.632	54.09
469.88	52.97
470.129	53.53
470.377	49.86
470.626	50.69
470.874	52.45
471.122	52.62
471.371	49.55
471.619	47.22
471.867	50.28
472.115	50.19
472.364	47.73
472.612	49.87
472.86	47.94
473.108	46.44
473.356	46.42
473.605	43.95
473.853	40.66
474.101	38.36
474.349	37.7
474.597	40.54
474.845	39.85
475.093	37.3
475.341	33.32
475.589	32.74
475.837	32.5
476.085	33.09
476.333	32.08
476.581	32.91
476.829	32.34
477.077	32.77
477.325	33.67
477.573	36.06
477.821	33.74
478.069	35.17
478.317	34.35
478.564	34.4
478.812	32.65
479.06	31.85
479.308	29.66
479.555	28.77
479.803	27.81
480.051	29.93
480.299	29.17
480.546	29.21
480.794	27.75
481.042	28.29
481.289	28.05
481.537	29.34
481.784	29.83
482.032	32.57
482.28	32.19
482.527	31.61
482.775	32.67
483.022	34.09
483.27	36.63
483.517	39.85
483.765	38.92
484.012	39.82
484.259	38.01
484.507	40.14
484.754	40.48
485.002	38.83
485.249	36.9
485.496	40.47
485.744	40.25
485.991	39.27
486.238	39.03
486.486	41.48
486.733	43.01
486.98	45.79
487.227	44.29
487.474	46.56
487.722	47.98
487.969	46.97
488.216	47.04
488.463	47.39
488.71	44.68
488.957	44.61
489.204	44.44
489.451	44.88
489.699	42.28
489.946	39.11
490.193	38.95
490.44	38.48
490.687	39.07
490.934	37.04
491.18	32.25
491.427	33.33
491.674	35.12
491.921	36.49
492.168	36.07
492.415	33.04
492.662	34.32
492.909	35.93
493.155	34
493.402	32.56
493.649	31.95
493.896	31.98
494.142	28.6
494.389	27.24
494.636	27.15
494.883	24.88
495.129	21.85
495.376	20.14
495.623	19.94
495.869	22.21
496.116	23.16
496.362	24.82
496.609	26.53
496.855	30.5
497.102	29.52
497.348	29.72
497.595	31.76
497.841	35.56
498.088	34.1
498.334	32.59
498.581	31.25
498.827	33.05
499.074	33.88
499.32	35.29
499.566	37.62
499.813	37.16
500.059	36.25
500.305	36.7
500.552	35.89
500.798	35.69
501.044	38.64
501.29	38.32
501.537	36.57
501.783	38.69
502.029	42.12
502.275	37.95
502.521	38.33
502.767	40.02
503.013	42.22
503.26	39.97
503.506	36.04
503.752	35.76
503.998	33.87
504.244	35.25
504.49	32.8
504.736	34.55
504.982	34.34
505.228	35.88
505.474	35.68
505.72	37.22
505.966	37.88
506.211	40.53
506.457	39.48
506.703	36.25
506.949	33.96
507.195	32.97
507.441	29.65
507.686	31.53
507.932	30.67
508.178	32.96
508.424	31.55
508.669	30.18
508.915	30.77
509.161	32.92
509.406	34.44
509.652	33.86
509.898	38.25
510.143	38.68
510.389	36.77
510.634	33.23
510.88	37.71
511.125	41.05
511.371	42.58
511.616	45.04
511.862	41.53
512.107	39.52
512.353	40.2
512.598	40.65
512.844	38.58
513.089	35.52
513.335	35.32
513.58	35.06
513.825	35.2
514.071	36.38
514.316	36.86
514.561	37.74
514.806	37.03
515.052	39.57
515.297	38.94
515.542	41.23
515.787	40.43
516.033	42.23
516.278	41.44
516.523	40.24
516.768	39.05
517.013	36.17
517.258	35.03
517.503	34.75
517.748	35.2
517.993	35.13
518.238	35.91
518.483	34.05
518.728	31.86
518.973	30.66
519.218	29.23
519.463	31.01
519.708	30.46
519.953	27.79
520.198	26.45
520.443	28.68
520.688	33.25
520.933	32.94
521.177	32.39
521.422	30.73
521.667	32.74
521.912	33.24
522.157	29.19
522.401	31.08
522.646	31.72
522.891	31.69
523.135	30.67
523.38	30.5
523.625	28.97
523.869	31.63
524.114	33.67
524.358	31.85
524.603	31.8
524.848	30.3
525.092	29.11
525.337	29.99
525.581	32.45
525.826	33.37
526.07	33.99
526.315	36.42
526.559	33.97
526.803	32.74
527.048	35.08
527.292	35.84
527.537	37.46
527.781	38.31
528.025	35.26
528.269	34.51
528.514	35.88
528.758	34.81
529.002	35.26
529.247	37.63
529.491	37.57
529.735	42.57
529.979	41.16
530.223	41.49
530.467	39.29
530.712	37.14
530.956	37.39
531.2	38.31
531.444	37.15
531.688	38.24
531.932	38.4
532.176	39.13
532.42	40.4
532.664	42.47
532.908	41.63
533.152	39.69
533.396	39.01
533.64	37.54
533.884	35.46
534.128	36.85
534.371	38.67
534.615	39.8
534.859	39.07
535.103	38.55
535.347	38.34
535.59	39.34
535.834	36.76
536.078	37.2
536.322	39.47
536.565	41.14
536.809	38.15
537.053	39.46
537.296	37.5
537.54	37.58
537.784	36.95
538.027	40.02
538.271	39.42
538.514	36.57
538.758	36.6
539.001	33.77
539.245	32.89
539.488	33.78
539.732	35.74
539.975	36.51
540.219	36.98
540.462	37.24
540.706	39.28
540.949	39.63
541.192	39.27
541.436	42.92
541.679	46.67
541.922	47.04
542.166	42.96
542.409	43.65
542.652	43.67
542.895	45.76
543.139	47.08
543.382	50.88
543.625	50.58
543.868	50.52
544.111	49.18
544.354	47.43
544.598	45.73
544.841	47.68
545.084	47.35
545.327	45.83
545.57	45.82
545.813	48.81
546.056	48.99
546.299	49.61
546.542	52.81
546.785	55.13
547.028	55.58
547.271	54.17
547.514	52.88
547.756	51.82
547.999	52.1
548.242	51.72
548.485	50.28
548.728	51.21
548.971	48.68
549.213	48.73
549.456	47.17
549.699	48.04
549.942	48.22
550.184	47.68
550.427	46.73
550.67	46.66
550.912	41.4
551.155	41.88
551.398	41.82
551.64	42.13
551.883	42.6
552.125	42.36
552.368	41.62
552.61	39.2
552.853	41.45
553.095	40.34
553.338	38.24
553.58	40.14
553.823	38.21
554.065	39.01
554.308	35.04
554.55	33.47
554.792	32.22
555.035	31.13
555.277	29.05
555.519	28.65
555.762	26.46
556.004	27.77
556.246	24.91
556.488	25.17
556.731	21.82
556.973	23.37
557.215	21.63
557.457	22.05
557.699	24.82
557.941	21.12
558.183	20.78
558.426	23.19
558.668	19.25
558.91	19.85
559.152	20.59
559.394	20.46
559.636	22.06
559.878	22.13
560.12	22.03
560.362	23.21
560.604	23.23
560.845	22.8
561.087	21.61
561.329	24.07
561.571	21.55
561.813	23.52
562.055	22.05
562.297	22.55
562.538	24.19
562.78	27.68
563.022	25.47
563.264	27.56
563.505	27.43
563.747	28.32
563.989	26
564.23	26.26
564.472	23.95
564.714	26.54
564.955	26.74
565.197	22.73
565.438	25.96
565.68	28.75
565.921	28.4
566.163	30.15
566.404	28.86
566.646	29.44
566.887	31.06
567.129	30.91
567.37	29.82
567.612	31.73
567.853	29.3
568.094	29.24
568.336	29.18
568.577	29.22
568.818	29.95
569.06	28.79
569.301	26.17
569.542	27.95
569.783	29.92
570.025	29.56
570.266	29.39
570.507	31.76
570.748	32.36
570.989	31.79
571.23	33.56
571.472	34.95
571.713	33.48
571.954	34.74
572.195	32.87
572.436	34.37
572.677	37.26
572.918	37.98
573.159	34.36
573.4	32.83
573.641	33.27
573.882	34.39
574.123	32.21
574.364	28.59
574.604	29.29
574.845	28.41
575.086	28.23
575.327	28.79
575.568	28.55
575.809	29.72
576.049	30.03
576.29	27.95
576.531	32.54
576.771	35.18
577.012	37.54
577.253	37.33
577.494	37.01
577.734	35.5
577.975	35.24
578.215	32.93
578.456	31.13
578.697	32.06
578.937	33.45
579.178	33.9
579.418	33.37
579.659	32.71
579.899	30.77
580.14	30.06
580.38	29.04
580.62	30.22
580.861	33.19
581.101	33.59
581.342	33.08
581.582	29.91
581.822	31.72
582.063	31.12
582.303	32.13
582.543	32.98
582.783	34.78
583.024	36.92
583.264	38.51
583.504	36.83
583.744	38.21
583.984	35.5
584.224	36.37
584.465	33.86
584.705	34.18
584.945	35.63
585.185	36.26
585.425	37.81
585.665	39.5
585.905	40.77
586.145	40.1
586.385	38.66
586.625	40.96
586.865	41.03
587.105	41.61
587.345	42
587.585	42.19
587.824	42.02
588.064	41.61
588.304	39.85
588.544	39.98
588.784	37.79
589.024	41.12
589.263	41.58
589.503	40.08
589.743	42.89
589.982	42.47
590.222	41.15
590.462	38.45
590.701	36.79
590.941	38.45
591.181	37.13
591.42	36.58
591.66	38.23
591.899	41.4
592.139	41.34
592.378	41.91
592.618	40.31
592.857	39.11
593.097	38.98
593.336	38.73
593.576	38.85
593.815	39.56
594.055	38.84
594.294	38.74
594.533	37.4
594.773	36.45
595.012	37.82
595.251	37.9
595.491	41.35
595.73	44.04
595.969	45.33
596.208	46.51
596.447	49.89
596.687	49.83
596.926	50.95
597.165	47.09
597.404	48.13
597.643	47.11
597.882	47.14
598.121	47.77
598.36	49.69
598.599	51.31
598.838	52.25
599.077	49.59
599.316	49.32
599.555	47.89
599.794	47.88
600.033	49.26
600.272	52.02
600.511	50.79
600.75	52.45
600.989	52.69
601.228	51.88
601.466	51.6
601.705	52.07
601.944	54.4
602.183	55.4
602.422	54.25
602.66	53.46
602.899	51.86
603.138	51.43
603.376	50.58
603.615	51.87
603.854	51.06
604.092	52.53
604.331	53.47
604.569	55.34
604.808	55.12
605.047	56.98
605.285	57.72
605.524	58.04
605.762	55.78
606	57.26
606.239	56.98
606.477	57.43
606.716	54.06
606.954	53.79
607.193	51.94
607.431	49.38
607.669	45.98
607.908	45.14
608.146	46.32
608.384	45.68
608.622	46.31
608.861	45.73
609.099	45.23
609.337	43.7
609.575	44.46
609.813	45.38
610.052	45.35
610.29	41.08
610.528	38.67
610.766	37.35
611.004	36.53
611.242	34.89
611.48	34.29
611.718	33.3
611.956	32.67
612.194	32.34
612.432	31.43
612.67	29.91
612.908	31.24
613.146	28.76
613.384	26.25
613.621	25.08
613.859	25.14
614.097	24.72
614.335	24.76
614.573	25.96
614.811	27.32
615.048	27.31
615.286	27.99
615.524	26.86
615.761	24.23
615.999	24.01
616.237	24.81
616.474	26.87
616.712	28.23
616.95	27.1
617.187	26.08
617.425	28.2
617.662	30.12
617.9	30.15
618.137	28.86
618.375	28.38
618.612	27.5
618.85	28.23
619.087	29.24
619.325	29.08
619.562	26.46
619.799	24.93
620.037	25.35
620.274	24.07
620.511	26.47
620.749	25.3
620.986	25.38
621.223	23.11
621.461	25.21
621.698	26.74
621.935	24.96
622.172	23.43
622.409	25.99
622.647	27.28
622.884	25.41
623.121	29.47
623.358	27.77
623.595	26.27
623.832	26.05
624.069	25.56
624.306	26.19
624.543	27.15
624.78	26.53
625.017	26.56
625.254	27.9
625.491	30.55
625.728	31.62
625.965	32.61
626.202	33.22
626.438	32.22
626.675	32.8
626.912	35.68
627.149	37.61
627.386	38.35
627.622	36.79
627.859	36.54
628.096	36.32
628.333	36.46
628.569	37.48
628.806	38.14
629.043	36.96
629.279	37.89
629.516	40.86
629.752	37.61
629.989	37.14
630.225	35.3
630.462	33.86
630.699	34.1
630.935	33.9
631.171	32.68
631.408	31.3
631.644	29.32
631.881	26.47
632.117	25.4
632.354	25.6
632.59	24.57
632.826	24.76
633.063	24.52
633.299	24.11
633.535	21.58
633.771	20
634.008	20.97
634.244	20.17
634.48	18.56
634.716	19.39
634.953	19.21
635.189	19.56
635.425	21.66
635.661	23.24
635.897	21.65
636.133	20.8
636.369	20.22
636.605	19.41
636.841	18.43
637.077	19.23
637.313	17.41
637.549	19.59
637.785	19.51
638.021	21.42
638.257	21.69
638.493	21.7
638.729	22.08
638.965	25.82
639.2	29.21
639.436	28.65
639.672	28.35
639.908	26.64
640.144	29.14
640.379	31.89
640.615	30.61
640.851	32.37
641.086	34.14
641.322	33.18
641.558	34.01
641.793	34.36
642.029	32.05
642.264	31.63
642.5	30.55
642.736	26.97
642.971	27.36
643.207	26.21
643.442	24.48
643.678	24.57
643.913	25.43
644.148	24.12
644.384	26.76
644.619	27.64
644.855	27.46
645.09	27.74
645.325	26.26
645.561	26.16
645.796	24.28
646.031	25.64
646.266	23.37
646.502	20.63
646.737	23.46
646.972	24.14
647.207	23.47
647.442	21.46
647.678	18.03
647.913	20.61
648.148	21.1
648.383	21.7
648.618	21.23
648.853	21.78
649.088	24.3
649.323	26.55
649.558	28.15
649.793	30.34
650.028	31.68
650.263	29.84
650.498	33
650.733	33.92
650.968	33.18
651.202	34.51
651.437	33.36
651.672	30.49
651.907	31.24
652.142	32.64
652.376	32.06
652.611	34.01
652.846	36.98
653.081	37.74
653.315	37.07
653.55	36.55
653.785	36.47
654.019	36.24
654.254	34.65
654.488	36.55
654.723	33.42
654.958	32.44
655.192	30.16
655.427	27.43
655.661	27.24
655.896	29.7
656.13	30.05
656.364	26.56
656.599	25.16
656.833	26.98
657.068	27.47
657.302	28.57
657.536	27.29
657.771	28.12
658.005	28
658.239	29.54
658.474	27.26
658.708	29.4
658.942	29.06
659.176	27.12
659.41	24.24
659.645	25
659.879	23.85
660.113	18.79
660.347	19.19
660.581	17.81
660.815	17.24
661.049	17.49
661.283	14.66
661.517	15.33
661.751	14.95
661.985	14.73
662.219	15.96
662.453	14.89
662.687	16.45
662.921	14.38
663.155	14.31
663.389	9.52
663.622	8.74
663.856	9.49
664.09	6.96
664.324	6.47
664.558	5.6
664.791	5.43
665.025	4.52
665.259	5.69
665.492	4.49
665.726	6.75
665.96	7.24
666.193	6.3
666.427	6.55
666.661	6.11
666.894	3.7
667.128	3.79
667.361	6.89
667.595	5.24
667.828	4.81
668.062	5.19
668.295	3.89
668.529	4.58
668.762	3.88
668.995	3.27
669.229	6.51
669.462	7.26
669.695	8.7
669.929	6.11
670.162	5.78
670.395	1.52
670.629	3.66
670.862	5.88
671.095	3.1
671.328	2.45
671.561	0.73
671.795	1.43
672.028	1.5
672.261	2.72
672.494	2.31
672.727	2.16
672.96	2.29
673.193	-0.83
673.426	2.53
673.659	4.49
673.892	5.17
674.125	5.93
674.358	5.41
674.591	3.78
674.824	4.33
675.057	4.29
675.29	2.46
675.523	5.48
675.755	5.64
675.988	6.99
676.221	9.64
676.454	7.65
676.687	8.3
676.919	6.94
677.152	8.11
677.385	8.61
677.617	11.4
677.85	11.82
678.083	10.85
678.315	13.53
678.548	13.21
678.78	12.23
679.013	11.96
679.246	13.43
679.478	13.44
679.711	12.17
679.943	13.48
680.175	10.16
680.408	15.42
680.64	11.89
680.873	11.48
681.105	13.31
681.338	16.27
681.57	14.86
681.802	16.6
682.034	16.01
682.267	18.6
682.499	20.18
682.731	17.05
682.964	15.67
683.196	13.27
683.428	9.99
683.66	9.52
683.892	11.14
684.124	13.1
684.356	16.18
684.589	16.09
684.821	14.19
685.053	14.43
685.285	14.74
685.517	15.27
685.749	15.52
685.981	17.9
686.213	17.66
686.445	16.2
686.676	13.08
686.908	13.45
687.14	12.42
687.372	12.61
687.604	8.87
687.836	11.07
688.068	11.22
688.299	10.38
688.531	8.34
688.763	12.19
688.995	10.62
689.226	12.92
689.458	10.35
689.69	9.59
689.921	8.43
690.153	8.43
690.384	9.43
690.616	10.17
690.848	9.99
691.079	7.24
691.311	4.84
691.542	1.21
691.774	0.1
692.005	3.56
692.237	5.42
692.468	3.05
692.699	3.05
692.931	3.78
693.162	-0.64
693.393	-1.06
693.625	-0.94
693.856	1.28
694.087	1.81
694.319	2.12
694.55	2.92
694.781	3.17
695.012	2.17
695.243	0.53
695.475	-0.67
695.706	0.14
695.937	-0.49
696.168	-1.33
696.399	-2.67
696.63	-1.67
696.861	-2.18
697.092	2.49
697.323	4.81
697.554	6.45
697.785	5.97
698.016	6.97
698.247	6.89
698.478	8.32
698.709	9.32
698.94	10.68
699.171	8.71
699.401	5.9
699.632	8.82
699.863	4.92
700.094	4.06
700.325	8.1
700.555	9.32
700.786	10.93
701.017	10.21
701.247	9.76
701.478	9.59
701.709	9.63
701.939	7.76
702.17	9.26
702.401	10.69
702.631	12.21
702.862	10.19
703.092	5.86
703.323	8.57
703.553	9.72
703.784	9.31
704.014	10.97
704.244	7.25
704.475	7.32
704.705	7.18
704.936	7.76
705.166	5.9
705.396	6.53
705.627	7.17
705.857	8.51
706.087	9.95
706.317	8.62
706.548	7.48
706.778	6.37
707.008	7.92
707.238	8.21
707.468	6.3
707.698	4.61
707.928	3.4
708.158	2.87
708.389	2.24
708.619	1.82
708.849	1.31
709.079	3.13
709.309	1.43
709.539	0.01
709.768	0.34
709.998	2.69
710.228	3.28
710.458	1.41
710.688	-0.13
710.918	0.55
711.148	-0.25
711.378	0.53
711.607	-1.34
711.837	-1.52
712.067	-0.24
712.297	0.99
712.526	-0.08
712.756	1.19
712.986	-1.61
713.215	-3.53
713.445	-2.8
713.674	-2.14
713.904	-2.39
714.134	0.18
714.363	-0.13
714.593	-1.88
714.822	-1.65
715.052	-1.61
715.281	-1.41
715.511	-2.36
715.74	-2.27
715.969	-4.01
716.199	-4.35
716.428	-3.63
716.657	-4.23
716.887	-4.25
717.116	-6.28
717.345	-3.11
717.575	-2.49
717.804	-2.62
718.033	-3.84
718.262	-5.23
718.492	-4.36
718.721	-3.37
718.95	-3.4
719.179	-5.75
719.408	-5.67
719.637	-8.42
719.866	-11.37
720.095	-9.28
720.324	-10.72
720.553	-13.37
720.782	-15.27
721.011	-15.22
721.24	-17.17
721.469	-17.92
721.698	-16.24
721.927	-15.98
722.156	-16.24
722.385	-16.48
722.613	-14.55
722.842	-13.41
723.071	-9.88
723.3	-9.47
723.529	-10.83
723.757	-9.91
723.986	-12.3
724.215	-13.35
724.443	-13.85
724.672	-11.58
724.901	-10.53
725.129	-7.9
725.358	-3.8
725.586	-6.06
725.815	-6.79
726.043	-7.41
726.272	-9.2
726.5	-10.14
726.729	-8.32
726.957	-9.35
727.186	-12.09
727.414	-10.14
727.642	-8.88
727.871	-6.78
728.099	-7.13
728.327	-8.13
728.556	-6.28
728.784	-5.71
729.012	-7.23
729.241	-6.84
729.469	-8.02
729.697	-9.02
729.925	-9.18
730.153	-9.88
730.381	-9.26
730.61	-8.87
730.838	-10.58
731.066	-9.8
731.294	-9.13
731.522	-11.22
731.75	-14.56
731.978	-15.28
732.206	-17.66
732.434	-21.07
732.662	-20.37
732.89	-21.64
733.118	-22.28
733.346	-21.16
733.573	-19.54
733.801	-19.54
734.029	-14.67
734.257	-13.9
734.485	-11.59
734.712	-9.93
734.94	-11.54
735.168	-9.47
735.396	-8.42
735.623	-10.1
735.851	-9.88
736.078	-7.05
736.306	-6.88
736.534	-6.64
736.761	-6.43
736.989	-8.74
737.216	-9.59
737.444	-11.66
737.671	-11.42
737.899	-7.74
738.126	-8.58
738.354	-7.91
738.581	-6.77
738.809	-5.56
739.036	-7.19
739.263	-6.32
739.491	-7.36
739.718	-6.34
739.945	-1.87
740.173	-0.93
740.4	-0.14
740.627	-2.46
740.854	-2.03
741.081	-4.1
741.309	-4.92
741.536	-8
741.763	-9.1
741.99	-6.85
742.217	-5.26
742.444	-6.3
742.671	-4.44
742.898	-4.51
743.125	-7.39
743.352	-10.02
743.579	-9.74
743.806	-11.11
744.033	-8.09
744.26	-7.48
744.487	-6.84
744.714	-6.07
744.941	-6.38
745.167	-3.14
745.394	-5.11
745.621	-5.51
745.848	-4.55
746.075	-2.77
746.301	-0.9
746.528	2.52
746.755	-0.22
746.981	-1.55
747.208	-0.72
747.435	0.59
747.661	1.2
747.888	1.35
748.114	-0.1
748.341	3.35
748.567	4.88
748.794	3.55
749.02	1.07
749.247	-2.5
749.473	-0.94
749.7	-2.11
749.926	-2.45
750.152	0.38
750.379	1.29
750.605	2.21
750.831	3.28
751.058	1.68
751.284	0.39
751.51	1.97
751.737	2.95
751.963	2.14
752.189	1.57
752.415	2.31
752.641	1.35
752.867	-0.95
753.094	-2.49
753.32	-2.96
753.546	-4.9
753.772	-2.65
753.998	-4.08
754.224	-5.95
754.45	-7.2
754.676	-7.27
754.902	-6.97
755.128	-6.63
755.354	-8.52
755.579	-8.18
755.805	-6.92
756.031	-6.43
756.257	-6.66
756.483	-9.02
756.709	-10.17
756.934	-9.38
757.16	-10.62
757.386	-9.48
757.612	-10.66
757.837	-11.48
758.063	-9.47
758.289	-7.9
758.514	-8.9
758.74	-10.83
758.965	-13.15
759.191	-12.83
759.416	-13.23
759.642	-10.2
759.868	-7.91
760.093	-5.33
760.318	-7.54
760.544	-7.83
760.769	-8.74
760.995	-8.22
761.22	-7.31
761.445	-6.1
761.671	-4.14
761.896	-3.04
762.121	-3.19
762.347	-3.26
762.572	-4.69
762.797	-5.08
763.022	-5.59
763.248	-1.87
763.473	-0.33
763.698	0.44
763.923	0.78
764.148	-0.42
764.373	-1.15
764.598	-0.68
764.823	1.04
765.048	-1.64
765.273	-3.01
765.498	-4.6
765.723	-4.91
765.948	-3.7
766.173	-3.88
766.398	-1.93
766.623	-6.24
766.848	-9.2
767.073	-10.48
767.298	-10.56
767.522	-9.63
767.747	-8.47
767.972	-9.31
768.197	-9.17
768.421	-9.99
768.646	-11.27
768.871	-13.73
769.095	-13.14
769.32	-12.3
769.545	-12.81
769.769	-11.27
769.994	-8.91
770.218	-11.94
770.443	-11.22
770.667	-11.07
770.892	-11.48
771.116	-11.43
771.341	-9.18
771.565	-9.02
771.79	-9.5
772.014	-9.31
772.238	-10.9
772.463	-9.43
772.687	-8.77
772.911	-9.84
773.136	-11.27
773.36	-9.55
773.584	-6.43
773.808	-6.16
774.033	-5.76
774.257	-4.89
774.481	-6.25
774.705	-7.79
774.929	-8.7
775.153	-7.81
775.377	-7.02
775.602	-8.92
775.826	-6.32
776.05	-4.78
776.274	-5.39
776.498	-4.64
776.722	-5.34
776.945	-5.2
777.169	-5.04
777.393	-5.47
777.617	-5.76
777.841	-4.83
778.065	-4.14
778.289	-5.41
778.512	-6.79
778.736	-5.31
778.96	-6.77
779.184	-4.72
779.407	-4.95
779.631	-4.48
779.855	-4.26
780.078	-4.34
780.302	-7.62
780.526	-9.96
780.749	-9.68
780.973	-8.88
781.196	-8.86
781.42	-9.47
781.643	-8.14
781.867	-6.2
782.09	-7.92
782.314	-8.17
782.537	-7.26
782.76	-8.3
782.984	-8.22
783.207	-8.1
783.431	-8.69
783.654	-10.62
783.877	-12.48
784.1	-12.92
784.324	-12.21
784.547	-12.84
784.77	-15.75
784.993	-17.69
785.216	-19.53
785.44	-18.66
785.663	-21.38
785.886	-20.11
786.109	-20.37
786.332	-20.33
786.555	-20.88
786.778	-19.64
787.001	-18.35
787.224	-16.39
787.447	-15.37
787.67	-14.8
787.893	-15.56
788.116	-15.96
788.339	-14.94
788.561	-15.29
788.784	-18.65
789.007	-21.13
789.23	-22.02
789.453	-22.89
789.675	-25.43
789.898	-27.6
790.121	-29.37
790.344	-29.67
790.566	-27.46
790.789	-27.81
791.012	-27.29
791.234	-27.82
791.457	-25.88
791.679	-24.77
791.902	-22.59
792.124	-21.77
792.347	-23.77
792.569	-24.57
792.792	-25.21
793.014	-23.41
793.237	-22.21
793.459	-21.9
793.681	-21.24
793.904	-21.93
794.126	-22.7
794.348	-21.88
794.571	-20.81
794.793	-21.64
795.015	-20.62
795.237	-21.12
795.46	-20.61
795.682	-19.34
795.904	-16.69
796.126	-18.52
796.348	-18.58
796.57	-15.82
796.792	-14.46
797.014	-10.91
797.237	-9.11
797.459	-8.13
797.681	-6.49
797.903	-8.77
798.124	-6.96
798.346	4.82
798.568	6.1
798.79	8.28
799.012	8.71
799.234	10.75
799.456	12.71
799.678	14.69
799.899	13.27
800.121	10.7
800.343	10.9
800.565	10.13
800.786	10.68
801.008	10.37
801.23	10.04
801.451	10.47
801.673	9.73
801.895	8.86
802.116	11.92
802.338	12.27
802.559	11.61
802.781	10.53
803.002	13.42
803.224	15.34
803.445	13.86
803.667	14.3
803.888	11.78
804.109	11.61
804.331	9.97
804.552	10.32
804.773	13.55
804.995	11.87
805.216	-1.72
805.437	-3.96
805.658	-6.44
805.88	-6.61
806.101	-6.12
806.322	-6.8
806.543	-8.69
806.764	-10.57
806.985	-8.09
807.207	-7.2
807.428	-6.63
807.649	-9.94
807.87	-10.75
808.091	-10.51
808.312	-10.08
808.533	-5.63
808.754	-4.05
808.975	-7.4
809.195	-4.85
809.416	-3.56
809.637	-4.45
809.858	-6.6
810.079	-7.64
810.3	-6.12
810.52	-7.26
810.741	-9
810.962	-11.57
811.183	-12.17
811.403	-12.35
811.624	-13.99
811.845	-13.43
812.065	-12.32
812.286	-11.44
812.506	-11.09
812.727	-11.17
812.948	-11.61
813.168	-8.76
813.389	-8.4
813.609	-6.38
813.83	-6.9
814.05	-9.57
814.27	-10.15
814.491	-6.36
814.711	-6.68
814.931	-9.96
815.152	-10.2
815.372	-12.37
815.592	-13.14
815.813	-13.63
816.033	-15.15
816.253	-13.61
816.473	-13.68
816.694	-11.49
816.914	-10.74
817.134	-11.68
817.354	-13.15
817.574	-11.35
817.794	-9.85
818.014	-10.17
818.234	-10.71
818.454	-11.24
818.674	-12.73
818.894	-15.42
819.114	-13.13
819.334	-13
819.554	-11.22
819.774	-8.99
819.994	-12.18
820.214	-13.85
820.433	-14.51
820.653	-14.87
820.873	-12.8
821.093	-12.21
821.312	-14.03
821.532	-12.19
821.752	-9.09
821.972	-10.66
822.191	-10.55
822.411	-10.76
822.63	-10.22
822.85	-11.79
823.07	-14.87
823.289	-13.33
823.509	-14.75
823.728	-12.45
823.948	-13.01
824.167	-13
824.387	-14.99
824.606	-15.36
824.825	-16.79
825.045	-16.88
825.264	-17.57
825.483	-16.42
825.703	-13.78
825.922	-17.18
826.141	-18.82
826.361	-19.32
826.58	-22.64
826.799	-23.3
827.018	-21.36
827.237	-21.08
827.456	-20.19
827.676	-20
827.895	-19.89
828.114	-19.35
828.333	-19.31
828.552	-18.86
828.771	-18
828.99	-18.34
829.209	-18.63
829.428	-16.3
829.647	-16.2
829.866	-14.71
830.084	-15.42
830.303	-15.03
830.522	-17.33
830.741	-16.7
830.96	-15.9
831.179	-13.9
831.397	-14.53
831.616	-12.82
831.835	-12.86
832.053	-10.49
832.272	-10.8
832.491	-9.55
832.709	-9.19
832.928	-8.41
833.147	-8.01
833.365	-6.9
833.584	-4.94
833.802	-3.13
834.021	-2.58
834.239	-2.42
834.458	-3.62
834.676	-6.08
834.894	-6.81
835.113	-7.75
835.331	-8.6
835.55	-8.67
835.768	-7.81
835.986	-6.84
836.204	-8.77
836.423	-7.98
836.641	-9.9
836.859	-10.82
837.077	-11.48
837.296	-10.69
837.514	-11.54
837.732	-11.39
837.95	-13.73
838.168	-10.76
838.386	-11.36
838.604	-9.95
838.822	-9.59
839.04	-11.22
839.258	-11.76
839.476	-10.43
839.694	-10.13
839.912	-12.04
840.13	-12.24
840.348	-10.49
840.566	-13.76
840.783	-11.76
841.001	-13.58
841.219	-11.77
841.437	-10.53
841.655	-9.37
841.872	-9.76
842.09	-10.54
842.308	-10.29
842.525	-11.65
842.743	-11.06
842.961	-12.99
843.178	-15.81
843.396	-11.6
843.613	-10.45
843.831	-8.69
844.048	-8.39
844.266	-7.92
844.483	-10.29
844.701	-9.91
844.918	-10.02
845.136	-10.72
845.353	-11.67
845.57	-12.45
845.788	-8.62
846.005	-11.35
846.222	-12.2
846.439	-11.19
846.657	-10.88
846.874	-10.1
847.091	-10.16
847.308	-8.83
847.526	-11.94
847.743	-12.65
847.96	-15.4
848.177	-16.04
848.394	-16.73
848.611	-17.31
848.828	-16.9
849.045	-17.9
849.262	-16.97
849.479	-18.81
849.696	-17.63
849.913	-17.39
850.13	-21.95
850.347	-20.3
850.564	-20.53
850.78	-22.3
850.997	-23.66
851.214	-21.41
851.431	-20.13
851.647	-23
851.864	-22.18
852.081	-21.25
852.298	-23.63
852.514	-25.77
852.731	-23.54
852.948	-21.78
853.164	-21.81
853.381	-22.02
853.597	-23.32
853.814	-27.06
854.03	-28.68
854.247	-27.54
854.463	-25.74
854.68	-25.32
854.896	-24.02
855.113	-24.75
855.329	-24.1
855.545	-22.99
855.762	-23.74
855.978	-26.38
856.194	-27.49
856.411	-23.75
856.627	-21.83
856.843	-19.67
857.059	-18.02
857.275	-19.28
857.492	-19.25
857.708	-17.13
857.924	-17.73
858.14	-15.67
858.356	-16.9
858.572	-16.33
858.788	-18.4
859.004	-17.22
859.22	-19.02
859.436	-19.17
859.652	-20.82
859.868	-21.74
860.084	-21.67
860.3	-22.09
860.516	-21.02
860.731	-20.53
860.947	-22.25
861.163	-21.07
861.379	-19.16
861.595	-18.85
861.81	-17.9
862.026	-17.02
862.242	-16.88
862.457	-16.22
862.673	-14.37
862.889	-14.65
863.104	-17.29
863.32	-18.16
863.535	-17.63
863.751	-21.12
863.966	-19.41
864.182	-16.92
864.397	-18.34
864.613	-18.89
864.828	-20.64
865.044	-18.23
865.259	-16.95
865.474	-16.84
865.69	-14.75
865.905	-13.59
866.12	-15.14
866.336	-15.81
866.551	-13.75
866.766	-14.24
866.981	-13.48
867.196	-13.76
867.412	-13.14
867.627	-12.02
867.842	-13.22
868.057	-14.73
868.272	-15.28
868.487	-15.7
868.702	-18.19
868.917	-18.94
869.132	-17.56
869.347	-17.8
869.562	-18.02
869.777	-18.57
869.992	-18.22
870.207	-19.23
870.422	-19.38
870.636	-21.77
870.851	-23.46
871.066	-24.72
871.281	-23.59
871.495	-23.91
871.71	-22.85
871.925	-25.1
872.14	-25.12
872.354	-27.79
872.569	-28.68
872.783	-26.64
872.998	-26.29
873.213	-27.7
873.427	-25.8
873.642	-24.59
873.856	-24.51
874.071	-25.52
874.285	-25.92
874.5	-28.36
874.714	-30.1
874.928	-29.8
875.143	-30.34
875.357	-29.52
875.571	-31.24
875.786	-32.08
876	-30.19
876.214	-26.99
876.429	-27.71
876.643	-27.7
876.857	-26.18
877.071	-25.64
877.285	-25.01
877.499	-26.83
877.714	-24.15
877.928	-23.27
878.142	-25.04
878.356	-25.86
878.57	-25.27
878.784	-24.13
878.998	-25.29
879.212	-22.46
879.426	-24.46
879.639	-22.31
879.853	-23.6
880.067	-23.99
880.281	-25.89
880.495	-24.2
880.709	-21.43
880.922	-19.61
881.136	-16.04
881.35	-12.96
881.564	-13.56
881.777	-14.78
881.991	-13.84
882.205	-10.05
882.418	-10.06
882.632	-11.46
882.845	-11.96
883.059	-10.64
883.273	-10.77
883.486	-12.49
883.7	-10.11
883.913	-11.6
884.126	-10.88
884.34	-13.08
884.553	-15.91
884.767	-12.37
884.98	-12.73
885.193	-12.86
885.407	-13.52
885.62	-11.25
885.833	-12.44
886.046	-10.73
886.26	-12.04
886.473	-11.7
886.686	-12.55
886.899	-10.58
887.112	-11.97
887.326	-15.15
887.539	-14.62
887.752	-15.55
887.965	-18.15
888.178	-17.16
888.391	-16.7
888.604	-17.2
888.817	-20.21
889.03	-18.94
889.243	-21.25
889.455	-24.75
889.668	-24.28
889.881	-21.85
890.094	-20.88
890.307	-23.54
890.52	-21.27
890.732	-20.21
890.945	-20.49
891.158	-18.22
891.37	-18.56
891.583	-19.74
891.796	-18.89
892.008	-20.15
892.221	-20.55
892.434	-22.64
892.646	-23.29
892.859	-23.28
893.071	-21.47
893.284	-18.46
893.496	-20.65
893.709	-20.31
893.921	-18.25
894.133	-19.78
894.346	-20.15
894.558	-19.35
894.771	-20.49
894.983	-17.8
895.195	-16.68
895.407	-16.05
895.62	-17.95
895.832	-16.56
896.044	-12.96
896.256	-14.44
896.468	-15.87
896.681	-16.18
896.893	-15.45
897.105	-15.56
897.317	-16.3
897.529	-13.94
897.741	-14.02
897.953	-13.15
898.165	-12.14
898.377	-13.98
898.589	-12.44
898.801	-12.2
899.013	-9.22
899.224	-7.33
899.436	-6.88
899.648	-8.61
899.86	-10.81
900.072	-7.81
900.283	-7.04
900.495	-5.61
900.707	-5.68
900.919	-7.87
901.13	-6.11
901.342	-6.34
901.554	-7.47
901.765	-7.11
901.977	-9.09
902.188	-9.67
902.4	-10.45
902.611	-12.78
902.823	-13.44
903.034	-16.24
903.246	-17.2
903.457	-17.63
903.669	-18.75
903.88	-18.06
904.091	-19.7
904.303	-18.73
904.514	-21.12
904.725	-20.72
904.936	-20.05
905.148	-20.03
905.359	-18.48
905.57	-19.8
905.781	-20.31
905.992	-20.67
906.204	-21.09
906.415	-21.24
906.626	-22.77
906.837	-20.95
907.048	-22.18
907.259	-21.4
907.47	-21.47
907.681	-23.37
907.892	-21.61
908.103	-24.14
908.314	-26.85
908.525	-23.62
908.735	-22.27
908.946	-22.96
909.157	-23
909.368	-21.44
909.579	-19.4
909.789	-20.31
910	-21.1
910.211	-19.77
910.421	-21.91
910.632	-19.25
910.843	-22.35
911.053	-18.77
911.264	-15.23
911.475	-15.03
911.685	-15.25
911.896	-16.41
912.106	-15.45
912.317	-18.38
912.527	-17
912.737	-17.33
912.948	-16.62
913.158	-15.87
913.369	-19.55
913.579	-17.64
913.789	-17.96
914	-14.92
914.21	-15.5
914.42	-15.79
914.63	-13.66
914.841	-12.36
915.051	-10.93
915.261	-10.81
915.471	-7.01
915.681	-5.86
915.891	-5.95
916.101	-6.86
916.311	-6.9
916.521	-5.65
916.731	-3.8
916.941	-1.21
917.151	-2.84
917.361	0.37
917.571	-2.9
917.781	-6.44
917.991	-8.31
918.201	-7.53
918.411	-9.37
918.621	-10.2
918.83	-9.12
919.04	-10.83
919.25	-7.79
919.46	-5.2
919.669	-8.22
919.879	-6.67
920.089	-8.31
920.298	-9.88
920.508	-10.34
920.717	-8.94
920.927	-10.79
921.136	-11.05
921.346	-11.96
921.555	-15.35
921.765	-15.83
921.974	-18.83
922.184	-21.66
922.393	-22.08
922.603	-23.63
922.812	-20.8
923.021	-22.7
923.23	-25.03
923.44	-26.41
923.649	-27
923.858	-28.63
924.067	-28.09
924.277	-29.78
924.486	-27.84
924.695	-30.19
924.904	-27.66
925.113	-27.18
925.322	-25.99
925.531	-26.15
925.74	-28.59
925.949	-32.52
926.158	-29.62
926.367	-30.1
926.576	-29.71
926.785	-28.96
926.994	-30.09
927.203	-29.27
927.412	-29.23
927.621	-29.74
927.83	-27.94
928.038	-27.73
928.247	-28.44
928.456	-28.68
928.665	-25.38
928.873	-23.37
929.082	-19.61
929.291	-19.41
929.499	-17.46
929.708	-19.29
929.916	-18.47
930.125	-18.63
930.333	-18.9
930.542	-17.59
930.75	-14.78
930.959	-14.87
931.167	-13.86
931.376	-14.39
931.584	-13.22
931.793	-13.29
932.001	-13.37
932.209	-15.21
932.418	-15.4
932.626	-17.91
932.834	-19.8
933.042	-22.12
933.251	-23.23
933.459	-23.1
933.667	-23.37
933.875	-22.6
934.083	-21.67
934.291	-20.76
934.499	-19.49
934.707	-19.08
934.915	-18.42
935.123	-18.39
935.331	-19.45
935.539	-22.17
935.747	-22.65
935.955	-23.07
936.163	-22.01
936.371	-22.36
936.579	-21.41
936.787	-20.88
936.995	-22.7
937.202	-23.93
937.41	-24.11
937.618	-24.97
937.826	-25.13
938.033	-29.17
938.241	-30.36
938.449	-27.58
938.656	-25.54
938.864	-25.25
939.071	-24.89
939.279	-21.43
939.486	-19.01
939.694	-17.79
939.901	-18.81
940.109	-19.92
940.316	-19.37
940.524	-19.45
940.731	-22.37
940.939	-21.78
941.146	-22.36
941.353	-23.46
941.561	-24.23
941.768	-25.03
941.975	-23.34
942.182	-24.69
942.39	-24.52
942.597	-20.75
942.804	-20.56
943.011	-21.78
943.218	-21.27
943.425	-21.29
943.632	-21.61
943.839	-21.88
944.046	-21.14
944.253	-21.47
944.46	-20.65
944.667	-18.46
944.874	-20.02
945.081	-18.26
945.288	-17.04
945.495	-15.46
945.702	-15.84
945.909	-18.07
946.115	-16.6
946.322	-16.76
946.529	-17.03
946.736	-17.61
946.942	-16.91
947.149	-16.84
947.356	-19.26
947.562	-20.45
947.769	-18.5
947.976	-18.39
948.182	-17.49
948.389	-19.2
948.595	-19.24
948.802	-18.38
949.008	-21.95
949.215	-21.82
949.421	-20.99
949.628	-22.16
949.834	-21.14
950.04	-21.66
950.247	-18.95
950.453	-17.99
950.659	-18.69
950.865	-17.81
951.072	-22.15
951.278	-20.55
951.484	-21.79
951.69	-23.94
951.896	-24.2
952.103	-25.71
952.309	-25.12
952.515	-27.59
952.721	-26.25
952.927	-24.93
953.133	-25.8
953.339	-26.78
953.545	-26.64
953.751	-25.52
953.957	-22.77
954.163	-26.06
954.369	-25.86
954.574	-26.48
954.78	-24.1
954.986	-22.01
955.192	-21.24
955.398	-21.36
955.603	-22.95
955.809	-21.22
956.015	-20.04
956.22	-20.01
956.426	-19.58
956.632	-21.06
956.837	-21.17
957.043	-20.39
957.248	-19.02
957.454	-17.95
957.66	-19.88
957.865	-20.28
958.07	-20.48
958.276	-21.59
958.481	-21.27
958.687	-20.89
958.892	-19.72
959.097	-19.97
959.303	-19.06
959.508	-19.61
959.713	-19.19
959.919	-18.73
960.124	-18.45
960.329	-17.78
960.534	-12.92
960.739	-11.92
960.945	-10.39
961.15	-12.8
961.355	-15.16
961.56	-19
961.765	-20.56
961.97	-20.19
962.175	-20.1
962.38	-23.31
962.585	-22.42
962.79	-22.97
962.995	-23.73
963.2	-24.59
963.404	-24.89
963.609	-26.95
963.814	-27.26
964.019	-28.25
964.224	-30.19
964.428	-28.2
964.633	-26.98
964.838	-25.73
965.042	-25.82
965.247	-27.68
965.452	-27.63
965.656	-27.47
965.861	-26.75
966.066	-26.07
966.27	-25.06
966.475	-22.55
966.679	-25.98
966.884	-27.47
967.088	-29.51
967.292	-30.88
967.497	-28.61
967.701	-28.84
967.906	-25.49
968.11	-21.39
968.314	-19.02
968.518	-19.67
968.723	-17.17
968.927	-17.04
969.131	-15.46
969.335	-12.98
969.539	-13.52
969.744	-12.91
969.948	-10.69
970.152	-8.88
970.356	-7.39
970.56	-7.19
970.764	-7.74
970.968	-5.71
971.172	-7.03
971.376	-7.9
971.58	-6.18
971.784	-6
971.988	-7.53
972.192	-4.75
972.395	-7.91
972.599	-8.5
972.803	-9.07
973.007	-6.16
973.21	-6.04
973.414	-6.07
973.618	-6.8
973.822	-8.14
974.025	-7.06
974.229	-9.14
974.432	-12.44
974.636	-14.27
974.84	-14.18
975.043	-13.39
975.247	-15.5
975.45	-16.41
975.654	-16.67
975.857	-14.88
976.06	-15.54
976.264	-17.9
976.467	-17.92
976.671	-19.09
976.874	-16.14
977.077	-17.03
977.28	-19.08
977.484	-20.59
977.687	-21.16
977.89	-19.98
978.093	-20.1
978.297	-19.37
978.5	-22.08
978.703	-19.62
978.906	-20.29
979.109	-21.18
979.312	-21.52
979.515	-21.4
979.718	-22.63
979.921	-22.43
980.124	-23.39
980.327	-24.26
980.53	-23.56
980.733	-21.14
980.936	-17.92
981.138	-19.14
981.341	-19.38
981.544	-18.49
981.747	-18.17
981.949	-19.23
982.152	-19.26
982.355	-19.14
982.558	-16.51
982.76	-18.52
982.963	-18.67
983.165	-20.33
983.368	-20.23
983.571	-19.85
983.773	-16.35
983.976	-15.36
984.178	-15.61
984.381	-15.45
984.583	-17.57
984.785	-16.83
984.988	-13.93
985.19	-10.82
985.392	-12.96
985.595	-14.85
985.797	-14.85
985.999	-11.06
986.202	-9.33
986.404	-8.95
986.606	-6.62
986.808	-7.61
987.01	-7.5
987.212	-8.69
987.415	-9.96
987.617	-10.26
987.819	-12.13
988.021	-12.32
988.223	-14.63
988.425	-14.6
988.627	-14.58
988.829	-17.8
989.031	-15.72
989.232	-16.83
989.434	-14.86
989.636	-13.69
989.838	-14
990.04	-13.63
990.242	-13.68
990.443	-15.24
990.645	-13.95
990.847	-12
991.048	-11.69
991.25	-14.43
991.452	-16.31
991.653	-17
991.855	-17.39
992.057	-18.66
992.258	-18.71
992.46	-19.08
992.661	-17.91
992.863	-19.11
993.064	-17.99
993.265	-19.04
993.467	-21.82
993.668	-20.28
993.87	-19.57
994.071	-18.02
994.272	-18.19
994.473	-15.91
994.675	-15.03
994.876	-15.02
995.077	-14.19
995.278	-12.86
995.48	-12.3
995.681	-14.88
995.882	-13.49
996.083	-12.9
996.284	-15.51
996.485	-15.36
996.686	-15.48
996.887	-16.14
997.088	-19.18
997.289	-20.92
997.49	-22.3
997.691	-22.53
997.892	-22.2
998.092	-17.96
998.293	-17.44
998.494	-18.71
998.695	-19.78
998.896	-18.33
999.096	-17.82
999.297	-17.51
999.498	-18.55
999.698	-19.47
999.899	-20.88
1000.1	-23.11
1000.3	-23.03
1000.501	-23.15
1000.701	-23.66
1000.902	-25.84
1001.102	-25.11
1001.303	-22.9
1001.503	-25.56
1001.704	-25.1
1001.904	-24.1
1002.105	-25.65
1002.305	-25.94
1002.505	-27.55
1002.706	-27.89
1002.906	-27.63
1003.106	-28.06
1003.306	-25.41
1003.507	-23.98
1003.707	-23.56
1003.907	-20.8
1004.107	-19.2
1004.307	-21.96
1004.507	-20.35
1004.707	-21.17
1004.907	-22.29
1005.107	-22.41
1005.308	-23.29
1005.507	-24.65
1005.707	-22.13
1005.907	-22.29
1006.107	-19.78
1006.307	-18.09
1006.507	-19.47
1006.707	-19.07
1006.907	-18.97
1007.106	-18.41
1007.306	-19.59
1007.506	-20.87
1007.706	-20.23
1007.905	-20.78
1008.105	-21.19
1008.305	-22.03
1008.504	-21.4
1008.704	-16.97
1008.903	-16.9
1009.103	-15.58
1009.303	-17.13
1009.502	-17.48
1009.702	-17.4
1009.901	-17.3
1010.1	-20.99
1010.3	-19.95
1010.499	-20.45
1010.699	-22.81
1010.898	-22.9
1011.097	-21.16
1011.296	-22.84
1011.496	-22.91
1011.695	-22.71
1011.894	-25.31
1012.093	-21.34
1012.293	-21.57
1012.492	-22.5
1012.691	-22.04
1012.89	-22.54
1013.089	-23.74
1013.288	-22.82
1013.487	-22.3
1013.686	-22.28
1013.885	-22.48
1014.084	-21.43
1014.283	-22.09
1014.482	-22.01
1014.681	-22.45
1014.88	-26.54
1015.078	-25.1
1015.277	-28.67
1015.476	-30.14
1015.675	-30.16
1015.873	-29.94
1016.072	-30.3
1016.271	-27.54
1016.47	-30.21
1016.668	-29.83
1016.867	-29.56
1017.065	-31.13
1017.264	-32.69
1017.463	-32.58
1017.661	-32.5
1017.86	-32.54
1018.058	-30.14
1018.256	-32.31
1018.455	-33.22
1018.653	-31.95
1018.852	-30.81
1019.05	-31.97
1019.248	-32.63
1019.447	-33.95
1019.645	-33.75
1019.843	-35.53
1020.041	-33.99
1020.24	-34.89
1020.438	-32.06
1020.636	-32.54
1020.834	-35.31
1021.032	-31.9
1021.23	-32.69
1021.428	-29.67
1021.626	-25.51
1021.824	-24.71
1022.022	-26.66
1022.22	-24.42
1022.418	-24.37
1022.616	-24.26
1022.814	-24.66
1023.012	-25.58
1023.21	-23.28
1023.408	-24.13
1023.606	-25.06
1023.803	-20.46
1024.001	-20.36
1024.199	-23.14
1024.397	-21.06
1024.594	-21.47
1024.792	-22.95
1024.99	-23.64
1025.187	-22.57
1025.385	-20.56
1025.582	-20.07
1025.78	-20.26
1025.977	-17.59
1026.175	-18.63
1026.372	-18.09
1026.57	-19.18
1026.767	-17.71
1026.965	-17.19
1027.162	-17.06
1027.359	-17.97
1027.557	-17.27
1027.754	-20.57
1027.951	-22.69
1028.148	-20.19
1028.346	-22.84
1028.543	-25.15
1028.74	-26.55
1028.937	-27.89
1029.134	-28.11
1029.331	-28.8
1029.528	-27.44
1029.725	-27.41
1029.923	-30.6
1030.12	-27.7
1030.317	-27.11
1030.513	-26.29
1030.71	-24.85
1030.907	-22.18
1031.104	-21.52
1031.301	-21.44
1031.498	-21.34
1031.695	-22.56
1031.892	-22.29
1032.088	-23.39
1032.285	-25.73
1032.482	-27.51
1032.678	-30.07
1032.875	-30.92
1033.072	-29.77
1033.268	-30.28
1033.465	-30.1
1033.662	-31.5
1033.858	-29.77
1034.055	-27.92
1034.251	-27
1034.448	-27.36
1034.644	-24.91
1034.84	-22.07
1035.037	-20.24
1035.233	-19.7
1035.43	-17.77
1035.626	-17.56
1035.822	-17.17
1036.019	-18.95
1036.215	-22.56
1036.411	-23.2
1036.607	-26.26
1036.803	-27.93
1037	-29
1037.196	-30.98
1037.392	-32.49
1037.588	-33.15
1037.784	-30.94
1037.98	-31.52
1038.176	-30.96
1038.372	-30.17
1038.568	-27.17
1038.764	-23.67
1038.96	-21.92
1039.156	-22.15
1039.352	-23.33
1039.547	-21.35
1039.743	-21.26
1039.939	-18.78
1040.135	-21.29
1040.331	-21.88
1040.526	-19.07
1040.722	-21.88
1040.918	-23.16
1041.113	-25.65
1041.309	-25.14
1041.505	-28.24
1041.7	-27.32
1041.896	-26.91
1042.091	-26.72
1042.287	-25.29
1042.482	-23.76
1042.678	-23.09
1042.873	-22.64
1043.069	-23.65
1043.264	-22.08
1043.459	-20.47
1043.655	-19.98
1043.85	-21.08
1044.045	-20.54
1044.24	-20.91
1044.436	-18.24
1044.631	-20.09
1044.826	-22.89
1045.021	-25.64
1045.216	-25.1
