Data from FLMT021711__20__17-07-11-693.txt Node

Date: Tue Nov 05 17:07:11 CET 2024
User: Etudiants TP
Spectrometer: FLMT02171
Trigger mode: 0
Integration Time (sec): 1.000000E-1
Scans to average: 5
Electric dark correction enabled: true
Nonlinearity correction enabled: false
Boxcar width: 15
XAxis mode: Wavelengths
Number of Pixels in Spectrum: 3648
>>>>>Begin Spectral Data<<<<<
194.658	-61.31
194.923	-58.18
195.188	-51.69
195.453	-52.78
195.717	-47.94
195.982	-45.93
196.247	-44.67
196.512	-47.6
196.777	-46.11
197.042	-44.26
197.307	-44.07
197.572	-39.88
197.837	-39.68
198.101	-37.34
198.366	-35.26
198.631	-33.77
198.896	-27.73
199.161	-20.82
199.425	-13.41
199.69	-3.53
199.955	-4.77
200.22	-7.06
200.484	-6.84
200.749	-7.56
201.014	-6.58
201.278	-5.67
201.543	-4.89
201.807	-5.4
202.072	-5.25
202.337	-5.35
202.601	-4.81
202.866	-6.53
203.13	-5.23
203.395	-7.61
203.659	-6.4
203.924	-8.17
204.189	-8.26
204.453	-6.64
204.717	-4.04
204.982	-3.11
205.246	-2.35
205.511	-0.1
205.775	-0.86
206.04	3.07
206.304	3.41
206.568	4.23
206.833	4.05
207.097	4.62
207.361	5.36
207.626	7.03
207.89	7
208.154	7.43
208.419	9.53
208.683	9.29
208.947	10.78
209.211	10.21
209.476	9.15
209.74	9.32
210.004	9.29
210.268	9.92
210.532	11.8
210.796	11.91
211.061	13.07
211.325	10.93
211.589	9.83
211.853	10.31
212.117	10.68
212.381	11.43
212.645	10.53
212.909	10.74
213.173	9.8
213.437	10.99
213.701	9.92
213.965	9.31
214.229	5.81
214.493	5.36
214.757	5.02
215.021	4.69
215.285	8.89
215.549	11.89
215.813	10.76
216.077	10.82
216.34	13.3
216.604	12.36
216.868	12.56
217.132	13.25
217.396	12.18
217.659	12.61
217.923	8.58
218.187	10.33
218.451	8.67
218.714	5.92
218.978	6.47
219.242	7.4
219.505	8.94
219.769	10.74
220.033	10.16
220.296	11.37
220.56	10.78
220.824	9.45
221.087	9.51
221.351	9.02
221.614	8.02
221.878	9.44
222.142	9.62
222.405	9.18
222.669	11.41
222.932	8.44
223.196	7.38
223.459	2.81
223.722	3.84
223.986	2
224.249	1.16
224.513	-0.1
224.776	-0.58
225.04	-0.45
225.303	0.26
225.566	1.17
225.83	2.15
226.093	5.81
226.356	1.27
226.62	1.14
226.883	3.84
227.146	3.53
227.409	1.72
227.673	1.45
227.936	0.06
228.199	1.04
228.462	0.25
228.725	0.45
228.989	1.19
229.252	2.17
229.515	6.62
229.778	5.08
230.041	4.57
230.304	2.2
230.567	3.85
230.83	1.54
231.093	2.38
231.356	2.54
231.619	8.83
231.882	5.54
232.145	7.55
232.408	6.42
232.671	6.95
232.934	6.63
233.197	4.79
233.46	2.77
233.723	3.79
233.986	2.44
234.249	-0.04
234.512	3.5
234.775	6.82
235.037	5.45
235.3	5.67
235.563	7.31
235.826	8.06
236.089	10.33
236.351	10.29
236.614	10.27
236.877	10.46
237.14	11.43
237.402	10.52
237.665	5.57
237.928	5.22
238.19	2.98
238.453	6.36
238.716	4.92
238.978	4.41
239.241	4.79
239.503	6.57
239.766	1.23
240.029	-0.08
240.291	3.44
240.554	3.2
240.816	2.13
241.079	4.23
241.341	4.36
241.604	3.53
241.866	0.43
242.129	0.56
242.391	1.83
242.653	1.66
242.916	1.01
243.178	1.36
243.441	1.06
243.703	0.17
243.965	-2.07
244.228	-3.71
244.49	-5.23
244.752	-3.68
245.015	-2.66
245.277	-1.72
245.539	-2
245.801	-1.99
246.064	-2.27
246.326	-2.13
246.588	-3.22
246.85	-0.38
247.112	-0.34
247.374	1.97
247.637	3.33
247.899	3.89
248.161	4.93
248.423	1.19
248.685	2.33
248.947	1.18
249.209	-1.07
249.471	0.02
249.733	0.99
249.995	0.7
250.257	0.89
250.519	0.52
250.781	1.96
251.043	0.14
251.305	1.61
251.567	4.04
251.829	4.88
252.091	4.81
252.353	4.49
252.615	4.95
252.876	3.6
253.138	1.66
253.4	0.16
253.662	1.88
253.924	3.69
254.185	5.13
254.447	5.25
254.709	4.69
254.971	4.69
255.232	6.56
255.494	3.97
255.756	2.3
256.017	3.11
256.279	3.2
256.541	1.6
256.802	0.74
257.064	2.24
257.326	2.17
257.587	2.55
257.849	2.91
258.11	5.86
258.372	8.03
258.633	8.77
258.895	7.67
259.156	5.49
259.418	4.73
259.679	0.24
259.941	-2.16
260.202	0
260.464	0.88
260.725	1.21
260.987	0.07
261.248	-0.12
261.509	0.31
261.771	-1.28
262.032	1.13
262.293	1.13
262.555	1.45
262.816	0.56
263.077	-0.83
263.338	-3.3
263.6	-2.18
263.861	-2.69
264.122	-3.31
264.383	-0.84
264.645	0.79
264.906	-0.26
265.167	0.62
265.428	0.62
265.689	1.43
265.95	-0.36
266.211	1.01
266.473	-1.06
266.734	-3.85
266.995	-7
267.256	-5.02
267.517	-4.26
267.778	-1.37
268.039	0.8
268.3	-1.41
268.561	-2.68
268.822	0.01
269.083	-0.66
269.344	-1.9
269.604	-3.61
269.865	-3.56
270.126	-7.41
270.387	-7.04
270.648	-5.27
270.909	-5.78
271.17	-7.5
271.43	-8.77
271.691	-11.3
271.952	-12.38
272.213	-10.2
272.473	-12.6
272.734	-12.4
272.995	-9.98
273.256	-10.58
273.516	-8.6
273.777	-10.03
274.038	-7.99
274.298	-11.29
274.559	-10.79
274.82	-6.8
275.08	-4.24
275.341	-2.28
275.601	-3.29
275.862	-4.51
276.122	-4.9
276.383	-4.38
276.643	-4.41
276.904	-6.05
277.164	-4.65
277.425	-3.6
277.685	0.44
277.946	0.22
278.206	1.17
278.467	3.01
278.727	2.65
278.987	2.52
279.248	2.15
279.508	3.07
279.768	5.1
280.029	6.86
280.289	3.16
280.549	1.3
280.81	2.12
281.07	0.93
281.33	2.47
281.59	0.02
281.851	2.25
282.111	1.61
282.371	1.57
282.631	1.54
282.891	0.2
283.151	-0.59
283.412	-3.23
283.672	-2.74
283.932	-3.11
284.192	-1.91
284.452	-3.16
284.712	-3.85
284.972	-4.84
285.232	-5.35
285.492	-3.39
285.752	-5.86
286.012	-0.41
286.272	0.7
286.532	-1.66
286.792	-2.18
287.052	-0.51
287.312	-0.03
287.571	-0.53
287.831	-0.04
288.091	-2.11
288.351	-1.57
288.611	3.26
288.871	2.52
289.13	2.63
289.39	-1.36
289.65	0.46
289.91	-2.05
290.17	0.6
290.429	2.71
290.689	1.01
290.949	-0.66
291.208	-0.09
291.468	3.85
291.728	3.56
291.987	6.04
292.247	5.49
292.506	8.05
292.766	11.33
293.026	11.22
293.285	10.75
293.545	13.32
293.804	13.69
294.064	10.61
294.323	8.51
294.583	8.55
294.842	8.79
295.102	9.19
295.361	9.8
295.621	10.96
295.88	11.44
296.139	11.22
296.399	11.84
296.658	6.3
296.917	6.89
297.177	3.93
297.436	5.42
297.695	4.37
297.955	5.04
298.214	4.44
298.473	5.67
298.732	6.44
298.992	8.95
299.251	8.94
299.51	5.23
299.769	5.32
300.028	4.54
300.287	3.92
300.547	3.34
300.806	0.34
301.065	1.7
301.324	4.82
301.583	0.42
301.842	-3.39
302.101	-4.92
302.36	-4.39
302.619	-5.28
302.878	-4.76
303.137	-6.15
303.396	-5.44
303.655	-5.27
303.914	-7.5
304.173	-6.6
304.432	-6.67
304.691	-3.81
304.95	-5.35
305.208	-1.59
305.467	-0.6
305.726	-0.89
305.985	-0.43
306.244	-0.6
306.503	-1.48
306.761	-0.34
307.02	-3.88
307.279	-3.88
307.537	-4.25
307.796	-6.35
308.055	-8.93
308.314	-7.7
308.572	-9.14
308.831	-7.49
309.09	-6.45
309.348	-8.02
309.607	-9.24
309.865	-4.73
310.124	-5.77
310.382	-3.89
310.641	-2.76
310.9	-4.6
311.158	-5.61
311.417	-5.29
311.675	-4.92
311.933	-3.64
312.192	-3.44
312.45	-2.24
312.709	-2.47
312.967	-2.28
313.226	-2.65
313.484	-2.33
313.742	-3.46
314.001	-4.26
314.259	-6.23
314.517	-5.49
314.776	-4.47
315.034	-1.96
315.292	-3.31
315.55	-3.82
315.809	-4.08
316.067	-1.46
316.325	-2.4
316.583	-1.14
316.841	-2.22
317.1	-4.07
317.358	-5.07
317.616	-4.46
317.874	-6.15
318.132	-5.89
318.39	-7.29
318.648	-8.51
318.906	-8.05
319.164	-7.42
319.422	-7.33
319.68	-7.59
319.938	-7.57
320.196	-6.62
320.454	-7.51
320.712	-7.13
320.97	-7.47
321.228	-8.99
321.486	-8.3
321.744	-7.33
322.002	-6.18
322.26	-6.7
322.517	-7.48
322.775	-9.37
323.033	-9.99
323.291	-7.9
323.549	-6
323.806	-2.93
324.064	-4.19
324.322	-2.92
324.58	-3.45
324.837	-2.44
325.095	-3.78
325.353	-2.64
325.61	-0.89
325.868	-1.73
326.126	0.01
326.383	-0.73
326.641	-1.1
326.898	-0.51
327.156	0.05
327.413	0.25
327.671	-0.03
327.928	0.57
328.186	-0.01
328.443	-0.04
328.701	2.95
328.958	3.36
329.216	4.26
329.473	3.06
329.731	3.76
329.988	4.16
330.245	6.65
330.503	7.72
330.76	7.47
331.017	8.69
331.275	6.76
331.532	5.94
331.789	2.49
332.047	2.72
332.304	-0.75
332.561	-0.36
332.818	-1.59
333.076	0.83
333.333	2.24
333.59	2.94
333.847	4.88
334.104	5.19
334.361	5.15
334.618	4.44
334.876	3.24
335.133	3.32
335.39	0.94
335.647	2.83
335.904	-0.9
336.161	-2.69
336.418	-3.44
336.675	-8.1
336.932	-7
337.189	-6.48
337.446	-6.49
337.703	-7.43
337.96	-11.39
338.216	-11.36
338.473	-13
338.73	-12.28
338.987	-12.2
339.244	-9.18
339.501	-9.5
339.757	-8.47
340.014	-8.16
340.271	-6.78
340.528	-6.07
340.785	-2.01
341.041	-2.73
341.298	-5.72
341.555	-6.44
341.811	-7.86
342.068	-11.11
342.325	-11.74
342.581	-10.06
342.838	-8.32
343.094	-8.71
343.351	-8.69
343.608	-12.72
343.864	-7.51
344.121	-7.04
344.377	-7.53
344.634	-7.06
344.89	-7.85
345.147	-7.86
345.403	-8.45
345.66	-9.16
345.916	-6.69
346.172	-9.01
346.429	-10.46
346.685	-11.4
346.942	-13.09
347.198	-17.05
347.454	-16.95
347.711	-16.95
347.967	-19.99
348.223	-18.94
348.48	-18.97
348.736	-17.31
348.992	-18.07
349.248	-15.96
349.504	-16.79
349.761	-16.2
350.017	-15.43
350.273	-14.84
350.529	-14.93
350.785	-15.81
351.041	-16.24
351.297	-15.18
351.554	-14.62
351.81	-17.77
352.066	-17.68
352.322	-15.78
352.578	-15.35
352.834	-16.63
353.09	-18.06
353.346	-18.23
353.602	-19.44
353.858	-19.51
354.114	-20.44
354.369	-19.43
354.625	-17.48
354.881	-19.01
355.137	-16.47
355.393	-16.14
355.649	-15.24
355.905	-13.42
356.16	-14.59
356.416	-14.88
356.672	-20.53
356.928	-19.53
357.183	-20.44
357.439	-20.48
357.695	-21.8
357.951	-18.91
358.206	-19.03
358.462	-18.05
358.718	-20.33
358.973	-20.09
359.229	-18.62
359.484	-17.9
359.74	-15.54
359.996	-13.99
360.251	-12.52
360.507	-12.82
360.762	-12.77
361.018	-10.88
361.273	-12.39
361.529	-11.31
361.784	-11.48
362.04	-9.03
362.295	-9.45
362.55	-9.98
362.806	-5.79
363.061	-6.14
363.316	-6.28
363.572	-6.29
363.827	-4.14
364.082	-5.38
364.338	-5.07
364.593	-5.29
364.848	-4.99
365.104	-5.98
365.359	-3.37
365.614	-2.64
365.869	-4.6
366.124	-4.4
366.38	-6.56
366.635	-3.99
366.89	-3.03
367.145	-3.79
367.4	-0.8
367.655	-1.62
367.91	-2.45
368.165	-5.19
368.42	-7.69
368.675	-5.81
368.93	-4.9
369.185	-6.06
369.44	-6.48
369.695	-4.51
369.95	-6.02
370.205	-5.81
370.46	-6.41
370.715	-8.18
370.97	-7.6
371.225	-7.72
371.48	-6.2
371.734	-5.89
371.989	-5.42
372.244	-5.16
372.499	-2.16
372.754	-3.2
373.008	-5.27
373.263	-9.45
373.518	-6.36
373.773	-7.9
374.027	-8.41
374.282	-5.71
374.537	-5.63
374.791	-4.23
375.046	-5.19
375.301	-6.92
375.555	-8.85
375.81	-6.48
376.064	-4.98
376.319	-1.01
376.573	-2.13
376.828	-6.1
377.082	-2.18
377.337	-2.11
377.591	-4.49
377.846	-4.09
378.1	-2.42
378.355	-2.65
378.609	-2.92
378.863	-5.29
379.118	-3.99
379.372	-6.09
379.627	-8.51
379.881	-9.18
380.135	-9.03
380.389	-10.78
380.644	-10.68
380.898	-8.64
381.152	-6.72
381.407	-8.26
381.661	-6.22
381.915	-4.97
382.169	-5.4
382.423	-6.03
382.677	-9.19
382.932	-8.5
383.186	-7.87
383.44	-5.64
383.694	-5.33
383.948	-7
384.202	-8.37
384.456	-6.88
384.71	-5.26
384.964	-6.63
385.218	-5.61
385.472	-5.57
385.726	-5.81
385.98	-6.75
386.234	-7.57
386.488	-9.25
386.742	-8.09
386.996	-10.5
387.249	-9.75
387.503	-7.68
387.757	-6.19
388.011	-6.32
388.265	-4.99
388.518	-3.73
388.772	-2.95
389.026	-3
389.28	-4.82
389.533	-4.9
389.787	-2.57
390.041	-3.68
390.295	-4.37
390.548	-4.93
390.802	-2.58
391.055	-2.95
391.309	-3.82
391.563	-6.28
391.816	-5.69
392.07	-6.49
392.323	-5.91
392.577	-3.74
392.83	-3.64
393.084	0.79
393.337	3.7
393.591	5.1
393.844	6.95
394.098	10.83
394.351	13.42
394.604	15.95
394.858	18.26
395.111	19.24
395.364	17.15
395.618	18.27
395.871	16.51
396.124	15.11
396.378	13.91
396.631	14.06
396.884	11.88
397.137	11.37
397.391	10.98
397.644	8.51
397.897	7.86
398.15	9.21
398.403	13.01
398.657	11.36
398.91	9.48
399.163	9.58
399.416	9.35
399.669	8.98
399.922	8.61
400.175	6.72
400.428	5.22
400.681	6.31
400.934	1.92
401.187	1.14
401.44	0.37
401.693	-1.91
401.946	-5.29
402.199	-8.78
402.452	-9.92
402.704	-12.49
402.957	-13.43
403.21	-11.81
403.463	-13.06
403.716	-11.88
403.969	-9.25
404.221	-10.28
404.474	-8.96
404.727	-6.3
404.98	-3.69
405.232	-1.61
405.485	-0.34
405.738	1.95
405.99	2.43
406.243	1.55
406.496	2.08
406.748	2.67
407.001	1.37
407.253	2.8
407.506	2.32
407.759	3.11
408.011	1.43
408.264	0.59
408.516	0.19
408.769	-0.33
409.021	-0.95
409.274	-0.78
409.526	1.95
409.778	1.55
410.031	3.62
410.283	3.18
410.536	7.25
410.788	6.02
411.04	4.09
411.293	4.93
411.545	6.1
411.797	4.47
412.049	6.11
412.302	5.74
412.554	7.17
412.806	4.97
413.058	2.93
413.311	2.58
413.563	1.62
413.815	1.35
414.067	0.5
414.319	0.13
414.571	0.7
414.823	-0.13
415.075	-0.71
415.328	-0.19
415.58	2.77
415.832	3.38
416.084	5.93
416.336	4.96
416.588	8.01
416.84	7
417.091	9.88
417.343	5.43
417.595	7.63
417.847	9.53
418.099	9.54
418.351	8.72
418.603	11.43
418.855	13.24
419.106	14.37
419.358	13.28
419.61	13.06
419.862	12.92
420.114	11.98
420.365	12.04
420.617	12.27
420.869	10.58
421.12	9.45
421.372	10.3
421.624	9.67
421.875	9.34
422.127	7.64
422.379	8.63
422.63	11.64
422.882	10.64
423.133	10.83
423.385	10.49
423.636	12.62
423.888	11.73
424.139	14.08
424.391	11.12
424.642	10.92
424.894	7.97
425.145	8.15
425.396	5.57
425.648	7.21
425.899	5.54
426.151	6.86
426.402	4.96
426.653	5.47
426.905	3.87
427.156	2.78
427.407	2.01
427.658	1.32
427.91	-0.09
428.161	-1.45
428.412	0.94
428.663	2.6
428.914	4.14
429.166	5.47
429.417	7.79
429.668	8.07
429.919	5.77
430.17	5.39
430.421	5.12
430.672	6.76
430.923	6.89
431.174	5.06
431.425	4.78
431.676	5.45
431.927	3.84
432.178	6.35
432.429	8.42
432.68	9.57
432.931	12.59
433.182	17.3
433.433	15.03
433.683	17.74
433.934	16.18
434.185	16.27
434.436	14.89
434.687	17.36
434.937	18.9
435.188	18.27
435.439	17.8
435.69	19.26
435.94	19.38
436.191	19.84
436.442	20.69
436.692	18.91
436.943	16.58
437.194	14.06
437.444	15.71
437.695	19.81
437.945	19.71
438.196	19.5
438.447	19.19
438.697	20.11
438.948	19.42
439.198	17.28
439.449	13.63
439.699	14.96
439.949	15.12
440.2	12.76
440.45	14.08
440.701	13.86
440.951	11.51
441.201	12.45
441.452	10.89
441.702	11.22
441.952	12.77
442.203	14.32
442.453	12.99
442.703	13.87
442.953	15.54
443.204	17.97
443.454	16.03
443.704	15.63
443.954	14.09
444.204	13.59
444.455	15.47
444.705	17.26
444.955	17.36
445.205	17.27
445.455	15.94
445.705	16.92
445.955	17.95
446.205	18.25
446.455	19.47
446.705	21.5
446.955	23.41
447.205	26.47
447.455	27.01
447.705	26.32
447.955	27.47
448.205	27.1
448.454	26.99
448.704	28.45
448.954	28.39
449.204	29.46
449.454	30.9
449.704	29.4
449.953	28.78
450.203	30.23
450.453	28.73
450.703	30.09
450.952	29.89
451.202	33.12
451.452	33.72
451.701	35.94
451.951	40.19
452.201	41.34
452.45	39.83
452.7	41.62
452.949	41.2
453.199	41.58
453.448	43.32
453.698	43.15
453.947	40.95
454.197	39.49
454.446	38.2
454.696	40.56
454.945	40.11
455.195	38.41
455.444	38.58
455.693	41.97
455.943	40.52
456.192	41.13
456.442	40.66
456.691	39.71
456.94	40.31
457.189	37.2
457.439	39.66
457.688	41.37
457.937	40.26
458.186	40.91
458.436	40.65
458.685	39.75
458.934	37.19
459.183	37.98
459.432	38.36
459.681	37.76
459.93	35.94
460.179	37.2
460.429	35.34
460.678	37.28
460.927	39.66
461.176	37.41
461.425	36.93
461.674	40.07
461.923	40.7
462.172	40.52
462.42	39.06
462.669	39.08
462.918	38.93
463.167	38.68
463.416	35.39
463.665	36.47
463.914	36.67
464.162	34.66
464.411	35.88
464.66	36.57
464.909	36.06
465.158	36.93
465.406	36.63
465.655	37.13
465.904	37.81
466.152	37.85
466.401	38.28
466.65	40.2
466.898	37.35
467.147	34.44
467.395	32.19
467.644	33.82
467.893	32.05
468.141	32.62
468.39	30.37
468.638	27.85
468.887	26.79
469.135	26.43
469.384	25.37
469.632	25.11
469.88	24.82
470.129	26.26
470.377	24.51
470.626	26.85
470.874	28.82
471.122	29.63
471.371	28.24
471.619	26.23
471.867	28.75
472.115	27.91
472.364	25.93
472.612	28.41
472.86	24.96
473.108	24.87
473.356	25.18
473.605	24.28
473.853	21.8
474.101	21.39
474.349	20.38
474.597	23.69
474.845	23.27
475.093	22.08
475.341	19.71
475.589	19.59
475.837	19.65
476.085	20.08
476.333	18.04
476.581	20.11
476.829	18.55
477.077	20.42
477.325	20.62
477.573	21.42
477.821	18.67
478.069	20.21
478.317	19.9
478.564	19.28
478.812	16.16
479.06	15.32
479.308	14.4
479.555	14.52
479.803	13.97
480.051	15.11
480.299	14.18
480.546	15.71
480.794	13.04
481.042	13.22
481.289	13.42
481.537	15.2
481.784	13.52
482.032	16.27
482.28	15.03
482.527	14.47
482.775	14.97
483.022	16.79
483.27	17.69
483.517	19.6
483.765	18.83
484.012	19.62
484.259	16.16
484.507	18.82
484.754	19.65
485.002	19
485.249	18.75
485.496	21.14
485.744	19.98
485.991	18.34
486.238	17.71
486.486	22.21
486.733	23.08
486.98	26.04
487.227	24.34
487.474	25.73
487.722	27.85
487.969	26.59
488.216	25.36
488.463	25.32
488.71	23.87
488.957	22.14
489.204	21.11
489.451	23.05
489.699	21.36
489.946	18.66
490.193	19.09
490.44	19.45
490.687	19.35
490.934	18.91
491.18	16.44
491.427	17.2
491.674	18.86
491.921	19.65
492.168	19.79
492.415	17.86
492.662	18.47
492.909	20.5
493.155	19.05
493.402	18.98
493.649	18.66
493.896	19.09
494.142	14.89
494.389	14.6
494.636	13.04
494.883	12.21
495.129	10.26
495.376	9.24
495.623	11.75
495.869	14.47
496.116	15.87
496.362	18.17
496.609	21.66
496.855	26.59
497.102	25.87
497.348	25.48
497.595	27.44
497.841	31.85
498.088	30.2
498.334	29.97
498.581	28.58
498.827	28.77
499.074	30.09
499.32	31.04
499.566	34.25
499.813	33.73
500.059	32.48
500.305	33.1
500.552	31.51
500.798	32.69
501.044	36.74
501.29	34.92
501.537	32.18
501.783	36.07
502.029	39.14
502.275	36.44
502.521	35.53
502.767	37.13
503.013	38.64
503.26	36.54
503.506	33.28
503.752	35.23
503.998	33.43
504.244	33.65
504.49	31.16
504.736	33.16
504.982	32.68
505.228	34.53
505.474	32.65
505.72	34.58
505.966	33.4
506.211	36.5
506.457	37.47
506.703	35.2
506.949	33.77
507.195	32.89
507.441	29.7
507.686	32.17
507.932	31.55
508.178	33.53
508.424	32.16
508.669	30.61
508.915	33.77
509.161	37.6
509.406	37.54
509.652	37.44
509.898	41.64
510.143	44.06
510.389	43.92
510.634	41.09
510.88	45.22
511.125	48.11
511.371	49.33
511.616	50.37
511.862	48.92
512.107	46.74
512.353	48.35
512.598	49.57
512.844	48.36
513.089	47.63
513.335	48.55
513.58	49.54
513.825	50.79
514.071	50.75
514.316	52.25
514.561	54.75
514.806	54.16
515.052	56.75
515.297	56.45
515.542	58.5
515.787	59.73
516.033	61.44
516.278	61.63
516.523	61.19
516.768	61.01
517.013	59.25
517.258	58.47
517.503	59.19
517.748	59.16
517.993	59.96
518.238	60.45
518.483	59.37
518.728	59.67
518.973	58.09
519.218	58.89
519.463	61.12
519.708	62.18
519.953	59.99
520.198	60.74
520.443	63.16
520.688	67.39
520.933	66.83
521.177	68.53
521.422	66.93
521.667	68.96
521.912	69.28
522.157	67.3
522.401	71.15
522.646	72.87
522.891	74.64
523.135	75.78
523.38	76.52
523.625	76.15
523.869	78.75
524.114	80.66
524.358	80.46
524.603	82.32
524.848	81.15
525.092	80.81
525.337	81.7
525.581	82.26
525.826	85.45
526.07	85.67
526.315	86.75
526.559	86.11
526.803	83.92
527.048	86.15
527.292	86.74
527.537	87.9
527.781	87.56
528.025	85.75
528.269	85.5
528.514	86.78
528.758	85.39
529.002	86.05
529.247	89.45
529.491	88.16
529.735	91.5
529.979	91.76
530.223	92.99
530.467	90.35
530.712	87.97
530.956	85.33
531.2	87.57
531.444	85.66
531.688	86.18
531.932	85.23
532.176	85.8
532.42	87.9
532.664	88.92
532.908	88.16
533.152	87.63
533.396	85.66
533.64	84.34
533.884	81.84
534.128	81.1
534.371	82.66
534.615	82.89
534.859	81.72
535.103	80.94
535.347	81.06
535.59	82.92
535.834	79.84
536.078	80.73
536.322	82.99
536.565	86.54
536.809	85.18
537.053	88.06
537.296	87.22
537.54	86.56
537.784	86.31
538.027	88.77
538.271	88.49
538.514	88.07
538.758	85.92
539.001	83.57
539.245	83.64
539.488	85.03
539.732	86.42
539.975	85.44
540.219	86
540.462	87.44
540.706	88.71
540.949	88.57
541.192	89.81
541.436	94.71
541.679	99.64
541.922	101.71
542.166	97.34
542.409	97.6
542.652	98.5
542.895	99.52
543.139	99.15
543.382	103.4
543.625	102.5
543.868	101.72
544.111	99.09
544.354	96.39
544.598	95.15
544.841	96.27
545.084	95.38
545.327	94.53
545.57	92.91
545.813	95.83
546.056	96.7
546.299	97.41
546.542	100.83
546.785	101.28
547.028	100.86
547.271	99.99
547.514	99.34
547.756	97.49
547.999	96.55
548.242	95.64
548.485	93.85
548.728	92.74
548.971	87.95
549.213	87.68
549.456	86.57
549.699	87.51
549.942	88.23
550.184	87.18
550.427	86.79
550.67	86.86
550.912	80.53
551.155	82.23
551.398	80.72
551.64	79.96
551.883	80.2
552.125	78.61
552.368	76.81
552.61	73.8
552.853	75.25
553.095	75.45
553.338	73.63
553.58	73.08
553.823	71.5
554.065	72.14
554.308	69.38
554.55	67.93
554.792	65.28
555.035	64.73
555.277	63.98
555.519	63.97
555.762	62.85
556.004	63.53
556.246	60.26
556.488	62.06
556.731	59.34
556.973	59.36
557.215	57.82
557.457	58.07
557.699	59.36
557.941	56.72
558.183	56.95
558.426	60.5
558.668	55.77
558.91	57.66
559.152	57.58
559.394	56.44
559.636	58.64
559.878	59.66
560.12	59.76
560.362	60.09
560.604	59.41
560.845	57.91
561.087	56.73
561.329	58.45
561.571	55.28
561.813	55.46
562.055	53.43
562.297	53.95
562.538	55.11
562.78	56.47
563.022	54.65
563.264	55.81
563.505	55.45
563.747	56.52
563.989	54.22
564.23	54.3
564.472	52.95
564.714	55.72
564.955	55.14
565.197	52.88
565.438	54.76
565.68	55.35
565.921	52.64
566.163	53.83
566.404	50.79
566.646	52.08
566.887	54.47
567.129	54.83
567.37	53.04
567.612	54.58
567.853	51.54
568.094	51.85
568.336	52.61
568.577	54.51
568.818	53.5
569.06	52.01
569.301	50.34
569.542	50.94
569.783	51.54
570.025	49.73
570.266	50.62
570.507	51.44
570.748	50.09
570.989	50.97
571.23	52.84
571.472	51.96
571.713	50.88
571.954	50.77
572.195	48.7
572.436	50.79
572.677	53.08
572.918	54.13
573.159	51.9
573.4	51.13
573.641	51.78
573.882	52.67
574.123	51.36
574.364	45.97
574.604	46.08
574.845	44.38
575.086	43.27
575.327	43.4
575.568	43.4
575.809	43.35
576.049	41.52
576.29	40.38
576.531	45.71
576.771	49.32
577.012	50.87
577.253	51.56
577.494	52.05
577.734	50.67
577.975	51.57
578.215	51.5
578.456	48.86
578.697	48.95
578.937	50.98
579.178	49.38
579.418	49.15
579.659	48.03
579.899	45.26
580.14	42.26
580.38	41.65
580.62	41.49
580.861	44.99
581.101	44.89
581.342	46.46
581.582	42.12
581.822	44.73
582.063	43.78
582.303	44.95
582.543	45.68
582.783	46.97
583.024	47.54
583.264	48.53
583.504	47.36
583.744	48.77
583.984	44.92
584.224	43.81
584.465	44.17
584.705	43.88
584.945	44.73
585.185	45.48
585.425	44.89
585.665	45.03
585.905	46.9
586.145	45.93
586.385	44.96
586.625	47.71
586.865	45.79
587.105	44.85
587.345	44.73
587.585	47.34
587.824	46.01
588.064	47.18
588.304	44.05
588.544	42.61
588.784	39.7
589.024	43.04
589.263	43.89
589.503	42.61
589.743	43.45
589.982	42.54
590.222	42.58
590.462	40.98
590.701	39.14
590.941	41.24
591.181	39.75
591.42	40.19
591.66	41.3
591.899	43.52
592.139	42.59
592.378	42.18
592.618	40.48
592.857	40.16
593.097	40.1
593.336	38.25
593.576	38.32
593.815	37.9
594.055	37.35
594.294	38.37
594.533	38.8
594.773	37.92
595.012	38.61
595.251	38.57
595.491	39.23
595.73	41.57
595.969	43.75
596.208	44.35
596.447	46.99
596.687	46.17
596.926	45.93
597.165	42.58
597.404	44.81
597.643	42.79
597.882	41.52
598.121	43.37
598.36	45.05
598.599	46.29
598.838	44.83
599.077	41.68
599.316	40.37
599.555	39.85
599.794	41.08
600.033	43.15
600.272	44.16
600.511	43.06
600.75	45.71
600.989	47.84
601.228	48.4
601.466	47.53
601.705	49.91
601.944	50.69
602.183	52.6
602.422	51.12
602.66	51.76
602.899	51.83
603.138	52.17
603.376	51.56
603.615	52.66
603.854	50.81
604.092	50.52
604.331	52.73
604.569	54.16
604.808	52.93
605.047	55.11
605.285	55.55
605.524	54.19
605.762	50.18
606	52.18
606.239	53.66
606.477	54.74
606.716	50.66
606.954	50.43
607.193	47.86
607.431	44.51
607.669	43.8
607.908	42.26
608.146	43.09
608.384	40.99
608.622	40.12
608.861	39.5
609.099	37.25
609.337	37.43
609.575	35.94
609.813	36.37
610.052	35.86
610.29	30.97
610.528	27.69
610.766	26.47
611.004	25.87
611.242	24.15
611.48	24.39
611.718	20.9
611.956	20.88
612.194	18.9
612.432	17.72
612.67	17.07
612.908	18.56
613.146	18.77
613.384	15.89
613.621	14.57
613.859	15.9
614.097	17.55
614.335	17.57
614.573	18.56
614.811	20.31
615.048	19.28
615.286	21.06
615.524	19.79
615.761	17.73
615.999	19.01
616.237	19.04
616.474	20.29
616.712	21.24
616.95	20.45
617.187	19.09
617.425	19.21
617.662	21.19
617.9	21.41
618.137	20.12
618.375	19.29
618.612	18
618.85	20.82
619.087	24.19
619.325	24.9
619.562	24.47
619.799	22.82
620.037	22.74
620.274	19.84
620.511	20.72
620.749	20.46
620.986	20.04
621.223	17.64
621.461	16.16
621.698	16.68
621.935	15.49
622.172	13.4
622.409	15.18
622.647	14.9
622.884	13.22
623.121	15.11
623.358	12.56
623.595	12.9
623.832	13.97
624.069	11.81
624.306	13.23
624.543	16.47
624.78	16.67
625.017	16.87
625.254	18.18
625.491	20.12
625.728	21.79
625.965	22.63
626.202	20
626.438	17.83
626.675	17.29
626.912	20.06
627.149	20.8
627.386	20.59
627.622	21.34
627.859	20.89
628.096	20.64
628.333	20.92
628.569	19.7
628.806	22.81
629.043	22.31
629.279	24.96
629.516	27.05
629.752	24.09
629.989	24.77
630.225	23.9
630.462	24.16
630.699	24.88
630.935	24
631.171	21.33
631.408	21.5
631.644	20.25
631.881	15.93
632.117	14.49
632.354	15.84
632.59	14.98
632.826	15.2
633.063	13.71
633.299	15.09
633.535	13.18
633.771	12.1
634.008	13.24
634.244	12.23
634.48	11.21
634.716	13.07
634.953	11.85
635.189	12.21
635.425	14.36
635.661	16.93
635.897	17.61
636.133	15.6
636.369	15.61
636.605	10.81
636.841	10.33
637.077	11.35
637.313	10.29
637.549	10.82
637.785	10.93
638.021	12.22
638.257	12.29
638.493	13.37
638.729	12.04
638.965	16.21
639.2	18.69
639.436	18.06
639.672	17.33
639.908	15.67
640.144	18.6
640.379	20.53
640.615	19.48
640.851	21.98
641.086	23.91
641.322	23.04
641.558	23.51
641.793	25.79
642.029	22.67
642.264	22.19
642.5	22.34
642.736	18.45
642.971	17.75
643.207	15.38
643.442	14.55
643.678	14.19
643.913	16.43
644.148	15.06
644.384	17.72
644.619	18.38
644.855	19.09
645.09	18.27
645.325	17.27
645.561	17.31
645.796	15.45
646.031	17.48
646.266	13.93
646.502	12.13
646.737	13.2
646.972	14.14
647.207	14.17
647.442	10.58
647.678	8
647.913	8.68
648.148	8.98
648.383	7.59
648.618	7.77
648.853	7.25
649.088	8.38
649.323	12.71
649.558	14.39
649.793	14.19
650.028	15.46
650.263	12.75
650.498	16.23
650.733	16.87
650.968	16
651.202	17.37
651.437	16.83
651.672	12.91
651.907	12.67
652.142	12.82
652.376	13.71
652.611	15.82
652.846	16.98
653.081	18.61
653.315	18.66
653.55	17.95
653.785	18.04
654.019	19.93
654.254	18.44
654.488	20.14
654.723	18.45
654.958	17.96
655.192	17.12
655.427	14.79
655.661	15.86
655.896	18.98
656.13	21.17
656.364	18.5
656.599	14.94
656.833	16.8
657.068	18.61
657.302	18.92
657.536	18.27
657.771	19.39
658.005	19.03
658.239	19.74
658.474	16.12
658.708	16.92
658.942	18.55
659.176	16.47
659.41	13.92
659.645	12.11
659.879	10.23
660.113	7.14
660.347	4.15
660.581	2.17
660.815	2.89
661.049	1.88
661.283	-0.84
661.517	-3.04
661.751	-3.95
661.985	-5.5
662.219	-4.23
662.453	-4.86
662.687	-4.43
662.921	-6.93
663.155	-8.85
663.389	-14.39
663.622	-16.24
663.856	-14.15
664.09	-16.9
664.324	-17.98
664.558	-18.02
664.791	-18.7
665.025	-19.84
665.259	-18.77
665.492	-19.02
665.726	-14.8
665.96	-15.45
666.193	-18.27
666.427	-16.86
666.661	-16.34
666.894	-16.71
667.128	-17.38
667.361	-14.33
667.595	-12.84
667.828	-11.77
668.062	-12.28
668.295	-12.4
668.529	-12.4
668.762	-11.58
668.995	-12.93
669.229	-9.41
669.462	-10.11
669.695	-10.25
669.929	-11.46
670.162	-11.3
670.395	-12.22
670.629	-9.84
670.862	-7.6
671.095	-11.85
671.328	-10.45
671.561	-12.2
671.795	-11.22
672.028	-9.41
672.261	-8.76
672.494	-7.5
672.727	-8.91
672.96	-9.3
673.193	-8.96
673.426	-4.58
673.659	-4.14
673.892	-3.4
674.125	-3.99
674.358	-3.19
674.591	-4.62
674.824	-5.24
675.057	-6.57
675.29	-7.68
675.523	-5.38
675.755	-5.53
675.988	-5.19
676.221	-1.01
676.454	-2.67
676.687	0.11
676.919	0.1
677.152	0.73
677.385	0.14
677.617	0.8
677.85	1.13
678.083	0.16
678.315	3.52
678.548	1.44
678.78	0.02
679.013	-0.92
679.246	-1.24
679.478	-0.86
679.711	-3.59
679.943	-1.42
680.175	-3.38
680.408	0.28
680.64	-3.38
680.873	-2.53
681.105	-1.74
681.338	1.73
681.57	0.13
681.802	1.14
682.034	0.95
682.267	3.92
682.499	4.71
682.731	1.34
682.964	-0.09
683.196	-0.84
683.428	-3.55
683.66	-3.34
683.892	-2.58
684.124	-0.34
684.356	2.95
684.589	4.16
684.821	2.01
685.053	1.09
685.285	1.71
685.517	2.56
685.749	2.84
685.981	5.22
686.213	5.49
686.445	5.64
686.676	2.68
686.908	3.45
687.14	2.75
687.372	4.18
687.604	0.53
687.836	1.95
688.068	0.5
688.299	-0.34
688.531	-2.9
688.763	0.33
688.995	-2.13
689.226	0.54
689.458	-1.02
689.69	-0.59
689.921	-1.79
690.153	-0.89
690.384	-0.01
690.616	-0.54
690.848	-0.17
691.079	-3.78
691.311	-6.55
691.542	-10.01
691.774	-11.88
692.005	-8.28
692.237	-4.76
692.468	-6.36
692.699	-6.72
692.931	-5.96
693.162	-8.7
693.393	-7.84
693.625	-9.01
693.856	-8.56
694.087	-8.12
694.319	-8.69
694.55	-10.69
694.781	-11.74
695.012	-12.04
695.243	-12.91
695.475	-12.98
695.706	-11.09
695.937	-10.97
696.168	-10.56
696.399	-12.5
696.63	-13.78
696.861	-14.14
697.092	-7.68
697.323	-5.5
697.554	-4.55
697.785	-4.73
698.016	-3.91
698.247	-4.24
698.478	-2.34
698.709	-0.89
698.94	2.4
699.171	0.74
699.401	-3.64
699.632	-1.9
699.863	-3.91
700.094	-4.46
700.325	-0.18
700.555	-0.71
700.786	1.09
701.017	1.89
701.247	1.7
701.478	3.34
701.709	3.8
701.939	2.91
702.17	3.53
702.401	5.79
702.631	7.17
702.862	5.13
703.092	3.92
703.323	5.4
703.553	6.1
703.784	6.8
704.014	6.08
704.244	0.45
704.475	0.08
704.705	-0.45
704.936	-0.44
705.166	0.18
705.396	2.13
705.627	1.66
705.857	1.45
706.087	0.56
706.317	-1.1
706.548	-2.16
706.778	-3.34
707.008	-2.91
707.238	-2.25
707.468	-5.16
707.698	-6.46
707.928	-7.25
708.158	-7.29
708.389	-7.91
708.619	-9.1
708.849	-8.77
709.079	-6.72
709.309	-7.34
709.539	-10.7
709.768	-11.62
709.998	-9.88
710.228	-11.17
710.458	-11.79
710.688	-13.6
710.918	-14.32
711.148	-13.41
711.378	-11.92
711.607	-12.93
711.837	-12.22
712.067	-11.95
712.297	-13.76
712.526	-14.15
712.756	-13.76
712.986	-16.34
713.215	-17.6
713.445	-16.5
713.674	-14.24
713.904	-14.09
714.134	-11.53
714.363	-12.66
714.593	-13.34
714.822	-13.04
715.052	-12.74
715.281	-11.98
715.511	-12.07
715.74	-11.64
715.969	-13.59
716.199	-14.33
716.428	-14.62
716.657	-13.02
716.887	-10.89
717.116	-12.85
717.345	-10.94
717.575	-11.53
717.804	-10.2
718.033	-9.28
718.262	-10.62
718.492	-11.47
718.721	-11.42
718.95	-12.46
719.179	-13.23
719.408	-12.69
719.637	-15.45
719.866	-17.51
720.095	-14.29
720.324	-14.23
720.553	-17.92
720.782	-19.4
721.011	-18.83
721.24	-20.14
721.469	-20.81
721.698	-20.21
721.927	-21.22
722.156	-23.49
722.385	-25.07
722.613	-22.63
722.842	-23.4
723.071	-19.34
723.3	-17.97
723.529	-18.53
723.757	-17.62
723.986	-21.52
724.215	-22.14
724.443	-20.6
724.672	-17.82
724.901	-17.93
725.129	-17.32
725.358	-13.83
725.586	-14.98
725.815	-15.34
726.043	-16.02
726.272	-17.45
726.5	-16.97
726.729	-15.05
726.957	-15.91
727.186	-17.07
727.414	-16.59
727.642	-14.19
727.871	-13.49
728.099	-14.99
728.327	-15.64
728.556	-12.58
728.784	-12.54
729.012	-13.3
729.241	-10.35
729.469	-10.86
729.697	-14.33
729.925	-13.15
730.153	-15.64
730.381	-15.51
730.61	-15.28
730.838	-17.14
731.066	-15.43
731.294	-14.69
731.522	-18.37
731.75	-22.49
731.978	-22.83
732.206	-24.09
732.434	-26.97
732.662	-24.69
732.89	-24.72
733.118	-25.08
733.346	-23.15
733.573	-23.67
733.801	-24.65
734.029	-19.3
734.257	-19.47
734.485	-16.74
734.712	-15.22
734.94	-16.3
735.168	-13.71
735.396	-13.62
735.623	-15.87
735.851	-14.72
736.078	-11.42
736.306	-11.85
736.534	-11.87
736.761	-10.61
736.989	-12.65
737.216	-12.75
737.444	-14.75
737.671	-13.19
737.899	-9.55
738.126	-10.44
738.354	-10.86
738.581	-10.33
738.809	-8.82
739.036	-9.64
739.263	-8.77
739.491	-10.46
739.718	-11.08
739.945	-7.94
740.173	-5.52
740.4	-6.53
740.627	-8.17
740.854	-7.3
741.081	-8.36
741.309	-9.32
741.536	-13.17
741.763	-15.04
741.99	-13.14
742.217	-12.08
742.444	-12.94
742.671	-12.2
742.898	-12.71
743.125	-15.92
743.352	-18.15
743.579	-17.48
743.806	-17.16
744.033	-14.78
744.26	-14.55
744.487	-14.58
744.714	-15.15
744.941	-16.01
745.167	-12.21
745.394	-12.74
745.621	-12.87
745.848	-12.48
746.075	-10.5
746.301	-7.74
746.528	-2.95
746.755	-3.89
746.981	-5.67
747.208	-5.63
747.435	-3.93
747.661	-2.82
747.888	-2.16
748.114	-6.12
748.341	-4
748.567	-2.22
748.794	-3.46
749.02	-4.32
749.247	-5.92
749.473	-5.52
749.7	-5.1
749.926	-5.06
750.152	-0.79
750.379	0.58
750.605	1.87
750.831	1.09
751.058	-0.47
751.284	-2.4
751.51	0.88
751.737	1.45
751.963	0.24
752.189	-0.96
752.415	-0.94
752.641	-0.45
752.867	-0.69
753.094	-2.19
753.32	-4.69
753.546	-7.12
753.772	-4.88
753.998	-5.86
754.224	-6.19
754.45	-7.6
754.676	-8.43
754.902	-8.8
755.128	-7.35
755.354	-9.14
755.579	-7.67
755.805	-6.04
756.031	-7.64
756.257	-9.18
756.483	-9.66
756.709	-11.49
756.934	-10.6
757.16	-14.2
757.386	-13.95
757.612	-17.48
757.837	-18.28
758.063	-17.07
758.289	-12.68
758.514	-14.69
758.74	-17.34
758.965	-19.29
759.191	-19.17
759.416	-18.11
759.642	-17.25
759.868	-17.37
760.093	-15.88
760.318	-17
760.544	-16.59
760.769	-17.88
760.995	-17.66
761.22	-17.34
761.445	-14.82
761.671	-12.16
761.896	-10.41
762.121	-10.4
762.347	-9.74
762.572	-12.33
762.797	-12.73
763.022	-11.83
763.248	-8.62
763.473	-7.53
763.698	-7.29
763.923	-7.56
764.148	-7.35
764.373	-7.31
764.598	-4.62
764.823	-2.84
765.048	-4.17
765.273	-8.37
765.498	-9.56
765.723	-8.91
765.948	-7.49
766.173	-8.61
766.398	-8.08
766.623	-10.63
766.848	-10.99
767.073	-13.16
767.298	-12.85
767.522	-14.07
767.747	-12.92
767.972	-13.5
768.197	-14.41
768.421	-16.46
768.646	-21.02
768.871	-24.21
769.095	-23.94
769.32	-22.13
769.545	-21.75
769.769	-19.88
769.994	-19.06
770.218	-21.29
770.443	-21.32
770.667	-20.49
770.892	-20.7
771.116	-21.59
771.341	-20.43
771.565	-20.89
771.79	-21.68
772.014	-21.64
772.238	-21.16
772.463	-20.22
772.687	-19.56
772.911	-20.31
773.136	-21.07
773.36	-20.78
773.584	-18.23
773.808	-18.58
774.033	-16.64
774.257	-16.02
774.481	-16.56
774.705	-19.24
774.929	-18.54
775.153	-17.97
775.377	-15.58
775.602	-14.35
775.826	-12.38
776.05	-12.13
776.274	-13.68
776.498	-13.96
776.722	-15.79
776.945	-15.17
777.169	-15.3
777.393	-16.6
777.617	-16.65
777.841	-16.62
778.065	-14.92
778.289	-16.95
778.512	-18.15
778.736	-16.88
778.96	-17.85
779.184	-17.05
779.407	-17.36
779.631	-17.24
779.855	-16.67
780.078	-15.25
780.302	-16.65
780.526	-19.02
780.749	-19.48
780.973	-19.47
781.196	-19.99
781.42	-19.75
781.643	-17.6
781.867	-17.47
782.09	-20.41
782.314	-22.68
782.537	-22.3
782.76	-24.27
782.984	-22.45
783.207	-23.01
783.431	-22.68
783.654	-23.54
783.877	-24.82
784.1	-26.44
784.324	-26
784.547	-27.09
784.77	-28.83
784.993	-31.11
785.216	-30.98
785.44	-29.89
785.663	-31.32
785.886	-28.05
786.109	-28.04
786.332	-27.29
786.555	-26.89
786.778	-25.08
787.001	-27.02
787.224	-25.99
787.447	-24.79
787.67	-23.52
787.893	-23.86
788.116	-21.26
788.339	-20.07
788.561	-21.26
788.784	-23.8
789.007	-23.31
789.23	-23.32
789.453	-23.53
789.675	-23.3
789.898	-25.93
790.121	-28.47
790.344	-28.6
790.566	-25.68
790.789	-25.58
791.012	-24.03
791.234	-21.68
791.457	-18.19
791.679	-18.02
791.902	-16.79
792.124	-17.02
792.347	-17.92
792.569	-18.18
792.792	-21.9
793.014	-18.19
793.237	-17.48
793.459	-17.63
793.681	-18.59
793.904	-17.85
794.126	-17.79
794.348	-19.14
794.571	-17.89
794.793	-19.45
795.015	-20.05
795.237	-20.87
795.46	-19.73
795.682	-18.16
795.904	-16.04
796.126	-17.79
796.348	-17.68
796.57	-15.17
796.792	-13.94
797.014	-8.6
797.237	-7.03
797.459	-6.19
797.681	-6
797.903	-7.44
798.124	-7.78
798.346	1.52
798.568	2.73
798.79	5.6
799.012	7.54
799.234	8.57
799.456	9.27
799.678	11.37
799.899	8.85
800.121	6.13
800.343	6.14
800.565	5.22
800.786	5.19
801.008	5.45
801.23	6.59
801.451	6.89
801.673	5.39
801.895	3.93
802.116	5.12
802.338	6.03
802.559	5.07
802.781	2.71
803.002	5.81
803.224	6.68
803.445	4.11
803.667	4.47
803.888	1.65
804.109	0.84
804.331	-1.2
804.552	-0.69
804.773	1.48
804.995	-1.84
805.216	-14.23
805.437	-15.04
805.658	-17.23
805.88	-19.67
806.101	-18.68
806.322	-18.74
806.543	-19.57
806.764	-22.03
806.985	-20.33
807.207	-19.2
807.428	-18.61
807.649	-20.96
807.87	-21.5
808.091	-21.59
808.312	-22.18
808.533	-15.88
808.754	-14.16
808.975	-15.4
809.195	-13.38
809.416	-12.25
809.637	-11.37
809.858	-13.95
810.079	-15.53
810.3	-13.76
810.52	-13.58
810.741	-14.67
810.962	-15.73
811.183	-15.78
811.403	-14.92
811.624	-17.24
811.845	-14.79
812.065	-13.61
812.286	-13.62
812.506	-14.41
812.727	-13.5
812.948	-12.73
813.168	-11.05
813.389	-12.54
813.609	-10.5
813.83	-11.64
814.05	-13.27
814.27	-12.32
814.491	-9.37
814.711	-9.44
814.931	-12.04
815.152	-10.89
815.372	-14.49
815.592	-15.7
815.813	-16.97
816.033	-19.7
816.253	-18.51
816.473	-19.8
816.694	-17.74
816.914	-16.04
817.134	-16.72
817.354	-18.36
817.574	-17.47
817.794	-16.98
818.014	-17.59
818.234	-19.65
818.454	-19.65
818.674	-21.38
818.894	-22.82
819.114	-20.51
819.334	-19.34
819.554	-18.38
819.774	-17.12
819.994	-19.09
820.214	-18.5
820.433	-19.26
820.653	-19.04
820.873	-16.25
821.093	-16.16
821.312	-17.31
821.532	-17.59
821.752	-14.35
821.972	-16.93
822.191	-14.7
822.411	-16.09
822.63	-15.94
822.85	-15.59
823.07	-18.7
823.289	-17.31
823.509	-19.27
823.728	-17.56
823.948	-19.26
824.167	-20.47
824.387	-21.36
824.606	-19.96
824.825	-20.7
825.045	-20
825.264	-18.75
825.483	-17.04
825.703	-16.1
825.922	-18.01
826.141	-18.7
826.361	-18.2
826.58	-22.63
826.799	-23.8
827.018	-22.65
827.237	-21.95
827.456	-19.86
827.676	-21.42
827.895	-21.06
828.114	-20.01
828.333	-19.2
828.552	-19.31
828.771	-18.28
828.99	-21.09
829.209	-20.95
829.428	-18.31
829.647	-19.11
829.866	-16.95
830.084	-16.8
830.303	-17.29
830.522	-18.07
830.741	-16.46
830.96	-16.03
831.179	-14.96
831.397	-16.34
831.616	-16.53
831.835	-16.71
832.053	-16.45
832.272	-17.19
832.491	-16.39
832.709	-17.39
832.928	-17.83
833.147	-19.1
833.365	-16.09
833.584	-12.95
833.802	-11.19
834.021	-11.98
834.239	-12.08
834.458	-13.7
834.676	-16.83
834.894	-16.94
835.113	-17.84
835.331	-18.79
835.55	-18.83
835.768	-17.89
835.986	-16.01
836.204	-17.55
836.423	-15.5
836.641	-16.85
836.859	-17.04
837.077	-15.45
837.296	-15.88
837.514	-17.16
837.732	-16.71
837.95	-17.34
838.168	-15.65
838.386	-15.49
838.604	-12.77
838.822	-12.84
839.04	-12.48
839.258	-12.6
839.476	-11.48
839.694	-9.79
839.912	-10
840.13	-11.66
840.348	-10.13
840.566	-13.08
840.783	-10.73
841.001	-12.18
841.219	-10.76
841.437	-10.54
841.655	-10.76
841.872	-11.22
842.09	-11.21
842.308	-10.26
842.525	-9.42
842.743	-8.88
842.961	-9.16
843.178	-12.06
843.396	-8.6
843.613	-8.64
843.831	-7.78
844.048	-7.95
844.266	-8.26
844.483	-9.21
844.701	-10.27
844.918	-11.43
845.136	-11.16
845.353	-12.81
845.57	-12.18
845.788	-10.25
846.005	-11.26
846.222	-12.78
846.439	-13.1
846.657	-12.37
846.874	-12.64
847.091	-15.16
847.308	-14.29
847.526	-16.47
847.743	-16.71
847.96	-18.77
848.177	-18.02
848.394	-18.94
848.611	-18.74
848.828	-19.18
849.045	-19.89
849.262	-20.12
849.479	-20.67
849.696	-20.89
849.913	-21.36
850.13	-26.79
850.347	-24.49
850.564	-25.16
850.78	-26.51
850.997	-26.21
851.214	-25.07
851.431	-23.85
851.647	-25.13
851.864	-24.96
852.081	-23.89
852.298	-26.46
852.514	-27.93
852.731	-27.54
852.948	-24.81
853.164	-24.13
853.381	-25.22
853.597	-25.75
853.814	-26.81
854.03	-28.99
854.247	-25.91
854.463	-25.34
854.68	-25.28
854.896	-24.88
855.113	-23.36
855.329	-22.72
855.545	-20.74
855.762	-22.76
855.978	-26
856.194	-27.87
856.411	-25.39
856.627	-24.14
856.843	-21.11
857.059	-18.98
857.275	-20.13
857.492	-20.12
857.708	-18.26
857.924	-17.38
858.14	-15.9
858.356	-16.1
858.572	-15.92
858.788	-17.3
859.004	-15.82
859.22	-17.51
859.436	-17.02
859.652	-18.25
859.868	-19.67
860.084	-18.89
860.3	-17.38
860.516	-17.98
860.731	-16.93
860.947	-19.51
861.163	-18.78
861.379	-16.7
861.595	-15.92
861.81	-15.79
862.026	-15.1
862.242	-15.52
862.457	-15.36
862.673	-13
862.889	-11.98
863.104	-12.23
863.32	-11.08
863.535	-11.45
863.751	-15.38
863.966	-12.3
864.182	-9.56
864.397	-11.03
864.613	-13.56
864.828	-15.34
865.044	-14.27
865.259	-12.13
865.474	-13.17
865.69	-11.81
865.905	-9.33
866.12	-10.88
866.336	-12.23
866.551	-12.42
866.766	-13.84
866.981	-16.44
867.196	-16.47
867.412	-16.34
867.627	-16.21
867.842	-16.46
868.057	-17.47
868.272	-18.16
868.487	-19.78
868.702	-21.68
868.917	-22.84
869.132	-22.38
869.347	-21.34
869.562	-22.25
869.777	-23.76
869.992	-25.13
870.207	-24.69
870.422	-24.86
870.636	-26.51
870.851	-28.67
871.066	-29.88
871.281	-29.72
871.495	-30.99
871.71	-30.1
871.925	-34.19
872.14	-34.23
872.354	-37.63
872.569	-40.09
872.783	-38.06
872.998	-37.61
873.213	-36.19
873.427	-33.2
873.642	-31
873.856	-31.54
874.071	-31.59
874.285	-33.17
874.5	-34.6
874.714	-35.13
874.928	-35.42
875.143	-34.54
875.357	-35.16
875.571	-35.93
875.786	-33.67
876	-32.61
876.214	-31.22
876.429	-33.5
876.643	-32.32
876.857	-32.06
877.071	-31.63
877.285	-32.91
877.499	-35.83
877.714	-33.74
877.928	-31.61
878.142	-31.97
878.356	-33.15
878.57	-31.4
878.784	-31.05
878.998	-30.23
879.212	-27.76
879.426	-29.95
879.639	-27.55
879.853	-30.74
880.067	-31.83
880.281	-32.78
880.495	-29.74
880.709	-28.74
880.922	-27.71
881.136	-26.06
881.35	-24.31
881.564	-24.74
881.777	-27.05
881.991	-26.43
882.205	-23.82
882.418	-24.17
882.632	-26.73
882.845	-27.26
883.059	-25.16
883.273	-25.74
883.486	-25.86
883.7	-23.28
883.913	-24.13
884.126	-21.6
884.34	-23.75
884.553	-25.54
884.767	-21.32
884.98	-21.38
885.193	-21.99
885.407	-21.8
885.62	-19.98
885.833	-20.39
886.046	-18.91
886.26	-21.65
886.473	-20.34
886.686	-20.92
886.899	-18.98
887.112	-21.73
887.326	-22.68
887.539	-21
887.752	-20.73
887.965	-23.62
888.178	-22.34
888.391	-21.18
888.604	-20.25
888.817	-22.46
889.03	-21.69
889.243	-21.56
889.455	-22.96
889.668	-22.96
889.881	-21.21
890.094	-22.14
890.307	-25.46
890.52	-22.7
890.732	-21.29
890.945	-21.36
891.158	-20.18
891.37	-23.01
891.583	-22.83
891.796	-21.03
892.008	-22.18
892.221	-23.22
892.434	-26.58
892.646	-26.53
892.859	-26.73
893.071	-25.46
893.284	-23.49
893.496	-24.44
893.709	-23.48
893.921	-22.38
894.133	-23.89
894.346	-24.03
894.558	-22.73
894.771	-22.9
894.983	-22.3
895.195	-22.14
895.407	-20.81
895.62	-24.19
895.832	-24.17
896.044	-21.75
896.256	-22.18
896.468	-23.79
896.681	-21.7
896.893	-21.29
897.105	-21.84
897.317	-23.25
897.529	-21.78
897.741	-21.3
897.953	-19.92
898.165	-20.4
898.377	-21.01
898.589	-19.51
898.801	-19.69
899.013	-17.57
899.224	-15.99
899.436	-13.69
899.648	-13.07
899.86	-15.34
900.072	-15.33
900.283	-13.56
900.495	-13.47
900.707	-12.91
900.919	-15.75
901.13	-15.44
901.342	-17.38
901.554	-17.58
901.765	-17.19
901.977	-19.43
902.188	-19.47
902.4	-19.74
902.611	-21.88
902.823	-23.53
903.034	-25.03
903.246	-26.94
903.457	-28.05
903.669	-29.55
903.88	-29
904.091	-28.17
904.303	-27.27
904.514	-28.52
904.725	-27.32
904.936	-26.79
905.148	-27.44
905.359	-26.63
905.57	-25.78
905.781	-27.74
905.992	-28.36
906.204	-28.26
906.415	-28.06
906.626	-28.68
906.837	-27.69
907.048	-28.24
907.259	-28.32
907.47	-27.93
907.681	-28.64
907.892	-24.61
908.103	-25.76
908.314	-27.9
908.525	-24.96
908.735	-24.92
908.946	-25.77
909.157	-25.73
909.368	-23.34
909.579	-21.32
909.789	-22.79
910	-22.91
910.211	-20.17
910.421	-20.31
910.632	-20.13
910.843	-23.43
911.053	-20.61
911.264	-18.85
911.475	-20.92
911.685	-20.32
911.896	-19.53
912.106	-19.69
912.317	-21.01
912.527	-20.39
912.737	-21.68
912.948	-20.22
913.158	-19.38
913.369	-22.49
913.579	-19.8
913.789	-20.27
914	-16.47
914.21	-16.63
914.42	-17.88
914.63	-16.25
914.841	-15.33
915.051	-14.45
915.261	-12.72
915.471	-11.22
915.681	-11.01
915.891	-11.39
916.101	-12.63
916.311	-11.92
916.521	-10
916.731	-9.06
916.941	-7.86
917.151	-8.98
917.361	-5.72
917.571	-9.05
917.781	-11.3
917.991	-12.83
918.201	-11.94
918.411	-14.79
918.621	-16.13
918.83	-15.75
919.04	-17.29
919.25	-15.66
919.46	-14.24
919.669	-16.24
919.879	-16.95
920.089	-19.34
920.298	-20.43
920.508	-21.53
920.717	-20.46
920.927	-21.24
921.136	-21.69
921.346	-22.57
921.555	-26.44
921.765	-27.27
921.974	-27.82
922.184	-30.31
922.393	-30.72
922.603	-30.84
922.812	-28.95
923.021	-30.55
923.23	-32.77
923.44	-34.2
923.649	-33.93
923.858	-34.64
924.067	-34.29
924.277	-34.25
924.486	-31.77
924.695	-32.4
924.904	-29.88
925.113	-29.09
925.322	-27.75
925.531	-28.91
925.74	-30.86
925.949	-32.46
926.158	-30.8
926.367	-29.18
926.576	-27.45
926.785	-26.23
926.994	-27.28
927.203	-27.26
927.412	-28.56
927.621	-28.43
927.83	-26.75
928.038	-25.41
928.247	-25.33
928.456	-26.36
928.665	-23.62
928.873	-22.36
929.082	-21.79
929.291	-21.69
929.499	-20.46
929.708	-20.81
929.916	-20.58
930.125	-21.84
930.333	-22.46
930.542	-20.36
930.75	-19.06
930.959	-18.97
931.167	-19.63
931.376	-21
931.584	-19.91
931.793	-18.66
932.001	-16.81
932.209	-18.89
932.418	-21.39
932.626	-22.18
932.834	-24.08
933.042	-26.81
933.251	-26.54
933.459	-26.08
933.667	-25.95
933.875	-25.4
934.083	-24.6
934.291	-23.75
934.499	-22.9
934.707	-22.45
934.915	-21.95
935.123	-21.53
935.331	-20.56
935.539	-21.84
935.747	-22.98
935.955	-22.82
936.163	-22.93
936.371	-22.15
936.579	-20.77
936.787	-19.91
936.995	-21.09
937.202	-23.44
937.41	-23.24
937.618	-24.04
937.826	-23.56
938.033	-26.92
938.241	-29.28
938.449	-26.19
938.656	-23.86
938.864	-23.14
939.071	-23.68
939.279	-21.25
939.486	-19.11
939.694	-20.22
939.901	-22.62
940.109	-22.06
940.316	-21.7
940.524	-21.93
940.731	-23.59
940.939	-21.67
941.146	-22.07
941.353	-22.44
941.561	-22.06
941.768	-22.99
941.975	-21.04
942.182	-21.35
942.39	-22.54
942.597	-21.06
942.804	-22.71
943.011	-23
943.218	-23.96
943.425	-24.83
943.632	-24.05
943.839	-25.94
944.046	-26.18
944.253	-25.64
944.46	-25.63
944.667	-22.19
944.874	-24.02
945.081	-22.03
945.288	-21.21
945.495	-18.54
945.702	-18.41
945.909	-21.29
946.115	-20.4
946.322	-20.76
946.529	-22.21
946.736	-22.84
946.942	-22.81
947.149	-22.93
947.356	-26.11
947.562	-27.28
947.769	-26.28
947.976	-26.84
948.182	-27.16
948.389	-28.07
948.595	-28.34
948.802	-27.2
949.008	-28.58
949.215	-27.44
949.421	-28.09
949.628	-28.31
949.834	-27.38
950.04	-27.67
950.247	-23.51
950.453	-22.73
950.659	-23.22
950.865	-21.41
951.072	-24.52
951.278	-23.26
951.484	-25.67
951.69	-28.69
951.896	-29.9
952.103	-30.65
952.309	-28.65
952.515	-28.85
952.721	-27.15
952.927	-25.43
953.133	-25.24
953.339	-26.3
953.545	-26.76
953.751	-24.96
953.957	-23.09
954.163	-24.19
954.369	-23.59
954.574	-24.86
954.78	-25.34
954.986	-23.91
955.192	-21.9
955.398	-22.92
955.603	-24.1
955.809	-21.54
956.015	-21.71
956.22	-21.44
956.426	-20.1
956.632	-21.88
956.837	-20.89
957.043	-20.47
957.248	-19.47
957.454	-20.3
957.66	-22.96
957.865	-22.28
958.07	-18.61
958.276	-20.24
958.481	-20.09
958.687	-20.6
958.892	-20.26
959.097	-19.8
959.303	-20.77
959.508	-21.11
959.713	-20.47
959.919	-19.78
960.124	-21.12
960.329	-20.84
960.534	-19.34
960.739	-19.67
960.945	-18.61
961.15	-18.97
961.355	-21.71
961.56	-25.82
961.765	-26.51
961.97	-26.86
962.175	-27.76
962.38	-29.48
962.585	-29.72
962.79	-31.5
962.995	-33.66
963.2	-34.53
963.404	-35.32
963.609	-37.68
963.814	-37.85
964.019	-38.48
964.224	-40.47
964.428	-40.59
964.633	-39.14
964.838	-38.77
965.042	-39.2
965.247	-40.07
965.452	-40.2
965.656	-38.47
965.861	-38.4
966.066	-39.5
966.27	-36.77
966.475	-32.98
966.679	-36.93
966.884	-36.22
967.088	-37.1
967.292	-36.54
967.497	-35.29
967.701	-33.12
967.906	-31.68
968.11	-28.82
968.314	-24.63
968.518	-25.29
968.723	-22.87
968.927	-21.53
969.131	-20.84
969.335	-17.63
969.539	-17.34
969.744	-15.92
969.948	-14.07
970.152	-13.2
970.356	-11.34
970.56	-10.43
970.764	-11.31
970.968	-9.47
971.172	-9.36
971.376	-10.85
971.58	-10.16
971.784	-10.14
971.988	-11.11
972.192	-8.33
972.395	-9.01
972.599	-12.99
972.803	-15.82
973.007	-13.18
973.21	-14.03
973.414	-15.68
973.618	-15.62
973.822	-16.73
974.025	-17.6
974.229	-16.67
974.432	-19.53
974.636	-23.26
974.84	-20.85
975.043	-20.48
975.247	-21.26
975.45	-22.05
975.654	-21.67
975.857	-21.26
976.06	-22.1
976.264	-24.11
976.467	-22.98
976.671	-24.96
976.874	-23.65
977.077	-25.28
977.28	-26.61
977.484	-29.18
977.687	-27.61
977.89	-27.52
978.093	-27.47
978.297	-27.07
978.5	-30.23
978.703	-28.85
978.906	-26.8
979.109	-26.75
979.312	-26.04
979.515	-26.68
979.718	-25.2
979.921	-26.86
980.124	-27.78
980.327	-27.45
980.53	-27.92
980.733	-26.23
980.936	-23.04
981.138	-24.68
981.341	-24.16
981.544	-24.31
981.747	-24.42
981.949	-26.15
982.152	-24.87
982.355	-25.43
982.558	-21.85
982.76	-23.54
982.963	-23.19
983.165	-22.79
983.368	-20.46
983.571	-20.95
983.773	-17.22
983.976	-16.85
984.178	-15.69
984.381	-14.96
984.583	-17.43
984.785	-16.44
984.988	-14.07
985.19	-12.77
985.392	-13.73
985.595	-15.9
985.797	-14.9
985.999	-13.18
986.202	-9.97
986.404	-8.89
986.606	-6.8
986.808	-8.46
987.01	-7.19
987.212	-8.97
987.415	-11.06
987.617	-12.28
987.819	-12.68
988.021	-11.18
988.223	-13.55
988.425	-14.88
988.627	-14.42
988.829	-17.94
989.031	-16.81
989.232	-16.77
989.434	-15.77
989.636	-15.97
989.838	-16.42
990.04	-16.42
990.242	-16.93
990.443	-19.7
990.645	-19.51
990.847	-16.35
991.048	-15.68
991.25	-18.23
991.452	-19.44
991.653	-19.71
991.855	-19.44
992.057	-20.15
992.258	-20.93
992.46	-21.93
992.661	-21.49
992.863	-22.92
993.064	-22.1
993.265	-24.46
993.467	-24.34
993.668	-20.78
993.87	-20.7
994.071	-21.81
994.272	-22.19
994.473	-19.34
994.675	-18.53
994.876	-18.15
995.077	-17
995.278	-15.69
995.48	-15.56
995.681	-17.55
995.882	-17.28
996.083	-16.59
996.284	-20.47
996.485	-19.7
996.686	-20.73
996.887	-21.86
997.088	-25.71
997.289	-27.86
997.49	-26.71
997.691	-28.41
997.892	-28.39
998.092	-23.58
998.293	-24.14
998.494	-23.91
998.695	-25.71
998.896	-23.88
999.096	-23.67
999.297	-21.73
999.498	-22.29
999.698	-25.69
999.899	-29.04
1000.1	-30.98
1000.3	-30.93
1000.501	-31.76
1000.701	-32
1000.902	-32.83
1001.102	-33.35
1001.303	-32.41
1001.503	-34.97
1001.704	-34.67
1001.904	-35.9
1002.105	-36.4
1002.305	-36.6
1002.505	-36.13
1002.706	-37.57
1002.906	-36.54
1003.106	-36.73
1003.306	-35.56
1003.507	-33.18
1003.707	-34.52
1003.907	-31.42
1004.107	-30.45
1004.307	-32.67
1004.507	-30.3
1004.707	-30.17
1004.907	-31.34
1005.107	-32.2
1005.308	-31.52
1005.507	-33.16
1005.707	-29.97
1005.907	-30.13
1006.107	-28.51
1006.307	-25.82
1006.507	-25.84
1006.707	-24.13
1006.907	-24.03
1007.106	-24.35
1007.306	-24.79
1007.506	-23.68
1007.706	-23.33
1007.905	-25.06
1008.105	-24.09
1008.305	-25.05
1008.504	-24.91
1008.704	-19.97
1008.903	-18.45
1009.103	-16.9
1009.303	-18.67
1009.502	-17.74
1009.702	-19.04
1009.901	-18.59
1010.1	-21.24
1010.3	-21.01
1010.499	-22.93
1010.699	-24.34
1010.898	-26.76
1011.097	-24.88
1011.296	-26.63
1011.496	-28.78
1011.695	-29.8
1011.894	-31.71
1012.093	-27.13
1012.293	-26.95
1012.492	-27.63
1012.691	-27.13
1012.89	-28.27
1013.089	-29.89
1013.288	-29
1013.487	-27.15
1013.686	-27.87
1013.885	-29.25
1014.084	-27.26
1014.283	-26.94
1014.482	-27.1
1014.681	-27.29
1014.88	-32.38
1015.078	-32.47
1015.277	-34.28
1015.476	-34.51
1015.675	-34.75
1015.873	-34.2
1016.072	-35.9
1016.271	-32.55
1016.47	-35.32
1016.668	-33.69
1016.867	-34.95
1017.065	-35.48
1017.264	-35.74
1017.463	-34.3
1017.661	-34.18
1017.86	-34.07
1018.058	-34.18
1018.256	-36.93
1018.455	-38.48
1018.653	-37.61
1018.852	-36.59
1019.05	-37.76
1019.248	-38.71
1019.447	-40.99
1019.645	-42.47
1019.843	-45.35
1020.041	-42.48
1020.24	-42.89
1020.438	-39
1020.636	-38.88
1020.834	-39.84
1021.032	-36.96
1021.23	-36.75
1021.428	-34.08
1021.626	-29.68
1021.824	-29.79
1022.022	-29.27
1022.22	-26.72
1022.418	-26.01
1022.616	-26.35
1022.814	-27.45
1023.012	-26.44
1023.21	-23.87
1023.408	-25.41
1023.606	-27.53
1023.803	-21.87
1024.001	-20.74
1024.199	-22.32
1024.397	-21.43
1024.594	-20.22
1024.792	-22.41
1024.99	-22.34
1025.187	-22.58
1025.385	-19.55
1025.582	-18.24
1025.78	-18.97
1025.977	-16.72
1026.175	-17.55
1026.372	-17.71
1026.57	-21.39
1026.767	-18.58
1026.965	-18.78
1027.162	-19.46
1027.359	-21.18
1027.557	-20.81
1027.754	-23.94
1027.951	-25.03
1028.148	-24.97
1028.346	-26.8
1028.543	-30.37
1028.74	-29.13
1028.937	-30.5
1029.134	-32.31
1029.331	-33.86
1029.528	-32.41
1029.725	-31.12
1029.923	-35.7
1030.12	-32.66
1030.317	-31.23
1030.513	-29.11
1030.71	-27.76
1030.907	-24.72
1031.104	-25.49
1031.301	-24.9
1031.498	-24.56
1031.695	-24.53
1031.892	-23.45
1032.088	-23.4
1032.285	-24.46
1032.482	-25.8
1032.678	-27.98
1032.875	-30.1
1033.072	-29.1
1033.268	-28.16
1033.465	-28.28
1033.662	-31.09
1033.858	-31.49
1034.055	-31.37
1034.251	-29.51
1034.448	-29.76
1034.644	-29.07
1034.84	-27.2
1035.037	-25.13
1035.233	-23.82
1035.43	-22.56
1035.626	-23.3
1035.822	-23.6
1036.019	-24.29
1036.215	-27.79
1036.411	-27.89
1036.607	-30
1036.803	-33.03
1037	-33.89
1037.196	-35.98
1037.392	-36.5
1037.588	-39.37
1037.784	-38.94
1037.98	-39.64
1038.176	-39.92
1038.372	-40.33
1038.568	-38.99
1038.764	-36.65
1038.96	-35.03
1039.156	-35.68
1039.352	-38
1039.547	-35.14
1039.743	-34.78
1039.939	-31.7
1040.135	-31.08
1040.331	-32.89
1040.526	-30.56
1040.722	-31.46
1040.918	-32.14
1041.113	-34.93
1041.309	-34.94
1041.505	-36.63
1041.7	-35.4
1041.896	-35.2
1042.091	-35.12
1042.287	-35.07
1042.482	-34.73
1042.678	-34.66
1042.873	-33.86
1043.069	-35.31
1043.264	-33.08
1043.459	-32.04
1043.655	-30.22
1043.85	-30.69
1044.045	-30.02
1044.24	-30.09
1044.436	-28.24
1044.631	-28.39
1044.826	-29.12
1045.021	-32.02
1045.216	-31.56
