Data from FLMT021711__5__17-05-47-379.txt Node

Date: Tue Nov 05 17:05:47 CET 2024
User: Etudiants TP
Spectrometer: FLMT02171
Trigger mode: 0
Integration Time (sec): 1,000000E-1
Scans to average: 5
Electric dark correction enabled: true
Nonlinearity correction enabled: false
Boxcar width: 15
XAxis mode: Wavelengths
Number of Pixels in Spectrum: 3648
>>>>>Begin Spectral Data<<<<<
194,658	-51,87
194,923	-49,33
195,188	-45,13
195,453	-44,38
195,717	-39,25
195,982	-37,18
196,247	-35,52
196,512	-37,32
196,777	-34,87
197,042	-33,84
197,307	-34,01
197,572	-30,03
197,837	-30,5
198,101	-28,99
198,366	-26,86
198,631	-25,81
198,896	-20,95
199,161	-16,18
199,425	-10,57
199,69	-2,68
199,955	-4,15
200,22	-8,36
200,484	-7,34
200,749	-8,33
201,014	-7,97
201,278	-8,81
201,543	-5,91
201,807	-5,57
202,072	-3,91
202,337	-3,79
202,601	-4,3
202,866	-7,25
203,13	-6,11
203,395	-6,78
203,659	-7,6
203,924	-9,76
204,189	-10,23
204,453	-9,74
204,717	-7,21
204,982	-7,76
205,246	-6,31
205,511	-4,71
205,775	-6,3
206,04	-1,82
206,304	-1,65
206,568	0,51
206,833	0,76
207,097	1,83
207,361	3,78
207,626	8,37
207,89	9,02
208,154	10,69
208,419	12,92
208,683	12,57
208,947	16,21
209,211	16,24
209,476	16,1
209,74	14,4
210,004	14,24
210,268	14,52
210,532	16,84
210,796	17,2
211,061	18,16
211,325	19,04
211,589	17,53
211,853	18,54
212,117	20,14
212,381	21,29
212,645	20,61
212,909	19,78
213,173	18,07
213,437	17,37
213,701	17,55
213,965	17,41
214,229	13,49
214,493	14,19
214,757	11,86
215,021	11,28
215,285	14,21
215,549	15,41
215,813	11,31
216,077	11,27
216,34	12,59
216,604	11,44
216,868	11,47
217,132	11,26
217,396	10,9
217,659	11,04
217,923	8,43
218,187	8,77
218,451	8,54
218,714	5,54
218,978	5,99
219,242	7,8
219,505	7,25
219,769	8,64
220,033	9,22
220,296	9,79
220,56	9,99
220,824	9,27
221,087	9,98
221,351	9,75
221,614	9,88
221,878	11,13
222,142	10,78
222,405	11,6
222,669	12,45
222,932	9,62
223,196	8,24
223,459	3,94
223,722	5,18
223,986	5,52
224,249	5,19
224,513	4,58
224,776	4,57
225,04	4,44
225,303	4,58
225,566	4,85
225,83	5,73
226,093	8,87
226,356	6,82
226,62	5,32
226,883	7,73
227,146	7,28
227,409	6
227,673	4,57
227,936	4,31
228,199	4,5
228,462	2,26
228,725	1,55
228,989	0,62
229,252	2,04
229,515	7,22
229,778	5,77
230,041	4,11
230,304	2,07
230,567	2,65
230,83	0,96
231,093	4,03
231,356	3,75
231,619	10,79
231,882	9,4
232,145	10,3
232,408	7,99
232,671	7,91
232,934	7,85
233,197	6,16
233,46	5,4
233,723	6,79
233,986	6,79
234,249	4,84
234,512	7,06
234,775	10,65
235,037	8,96
235,3	9,76
235,563	9,7
235,826	10,51
236,089	11,76
236,351	11,36
236,614	13,8
236,877	14,24
237,14	16,89
237,402	16,03
237,665	10,99
237,928	11,6
238,19	9,44
238,453	12,22
238,716	10,64
238,978	10,61
239,241	9,87
239,503	12,63
239,766	7,38
240,029	6,01
240,291	7,33
240,554	8,81
240,816	8,51
241,079	9,97
241,341	10,27
241,604	8,84
241,866	5,52
242,129	6,17
242,391	8,27
242,653	6,95
242,916	6,53
243,178	7,41
243,441	8,3
243,703	7,81
243,965	4,99
244,228	6,05
244,49	6,55
244,752	6,61
245,015	5,79
245,277	7,2
245,539	5,59
245,801	6,21
246,064	4,62
246,326	4,83
246,588	5,67
246,85	7,46
247,112	8,97
247,374	11,05
247,637	13,38
247,899	14,74
248,161	15,18
248,423	13,71
248,685	14,3
248,947	13,26
249,209	12,29
249,471	13,16
249,733	13,92
249,995	13,2
250,257	11,96
250,519	10,42
250,781	13,43
251,043	10,83
251,305	11,65
251,567	13,27
251,829	14,46
252,091	15,01
252,353	11,2
252,615	11,39
252,876	10,27
253,138	9,07
253,4	6,09
253,662	7,29
253,924	9,58
254,185	11,73
254,447	11,94
254,709	12,17
254,971	13,46
255,232	13,16
255,494	9,96
255,756	7,46
256,017	6,49
256,279	6,64
256,541	4,48
256,802	5
257,064	6,69
257,326	6,61
257,587	6,44
257,849	7,98
258,11	10,1
258,372	10,99
258,633	12,71
258,895	11,47
259,156	9,99
259,418	9,12
259,679	4,72
259,941	2,25
260,202	4,49
260,464	6,05
260,725	5,17
260,987	3,26
261,248	3,03
261,509	4,47
261,771	4,06
262,032	4,97
262,293	3,36
262,555	3,8
262,816	1,2
263,077	-0,07
263,338	-1,17
263,6	0,59
263,861	-0,24
264,122	-0,68
264,383	1,38
264,645	3,32
264,906	1,7
265,167	2,18
265,428	2,25
265,689	4,62
265,95	2,79
266,211	4,07
266,473	3,42
266,734	-0,69
266,995	-3,63
267,256	-2,53
267,517	-0,58
267,778	2,5
268,039	4,28
268,3	3,02
268,561	1,78
268,822	4,97
269,083	4,06
269,344	3,89
269,604	1,62
269,865	2,66
270,126	-0,14
270,387	2,96
270,648	3,96
270,909	3,59
271,17	1,13
271,43	-2,35
271,691	-4,55
271,952	-5,33
272,213	-3,39
272,473	-5,43
272,734	-3,02
272,995	-2,06
273,256	-1,67
273,516	-0,27
273,777	-3,76
274,038	-2,04
274,298	-4,53
274,559	-4,29
274,82	-0,02
275,08	2,55
275,341	5,18
275,601	3,76
275,862	2,56
276,122	3,02
276,383	3,72
276,643	4,81
276,904	1,9
277,164	4,23
277,425	4,31
277,685	9,33
277,946	9,75
278,206	9,96
278,467	9,82
278,727	10,66
278,987	9,82
279,248	11,05
279,508	13,6
279,768	15,12
280,029	17,31
280,289	14,58
280,549	13,49
280,81	11,62
281,07	9,9
281,33	10,59
281,59	10,35
281,851	12,68
282,111	12,05
282,371	12,32
282,631	14
282,891	11,96
283,151	11,31
283,412	9,15
283,672	8,42
283,932	8,27
284,192	8,68
284,452	6,7
284,712	4,03
284,972	3,86
285,232	2,81
285,492	4,16
285,752	0,71
286,012	4,63
286,272	6,65
286,532	4,31
286,792	3,26
287,052	5,34
287,312	5,27
287,571	4,93
287,831	4,79
288,091	2,38
288,351	3,12
288,611	6,38
288,871	6,23
289,13	5,52
289,39	2,7
289,65	2,23
289,91	0,38
290,17	1,72
290,429	3,2
290,689	-0,27
290,949	-1,56
291,208	-0,79
291,468	1,67
291,728	2,57
291,987	3,96
292,247	3,21
292,506	5,53
292,766	8,71
293,026	7,14
293,285	7,47
293,545	10,44
293,804	10,88
294,064	7,31
294,323	4,33
294,583	5,94
294,842	6,68
295,102	6,91
295,361	8,24
295,621	8,6
295,88	8,97
296,139	7,94
296,399	8,12
296,658	4,39
296,917	3,93
297,177	2,56
297,436	3,84
297,695	2,6
297,955	4,66
298,214	3,39
298,473	4,89
298,732	7,77
298,992	10,69
299,251	8,86
299,51	4,97
299,769	5,86
300,028	5,02
300,287	5,33
300,547	5,95
300,806	4,55
301,065	8,25
301,324	9,71
301,583	6,68
301,842	3,85
302,101	2,58
302,36	3,52
302,619	2,46
302,878	2,92
303,137	1,93
303,396	2,21
303,655	4,93
303,914	2,77
304,173	4,16
304,432	3,72
304,691	5,65
304,95	3,61
305,208	7,17
305,467	7,57
305,726	7,37
305,985	6,11
306,244	7,85
306,503	5,84
306,761	4,73
307,02	0,57
307,279	1,81
307,537	3,43
307,796	1,36
308,055	-0,83
308,314	-0,06
308,572	-2,33
308,831	-1,18
309,09	-1,43
309,348	-0,27
309,607	-0,5
309,865	3
310,124	2,27
310,382	3,28
310,641	3,36
310,9	1,82
311,158	2,06
311,417	2,06
311,675	1,22
311,933	1,98
312,192	3,5
312,45	3,76
312,709	3,64
312,967	4,12
313,226	4,9
313,484	3,78
313,742	2,93
314,001	1,9
314,259	0,7
314,517	2,21
314,776	3,95
315,034	6,81
315,292	5,84
315,55	3,7
315,809	3,27
316,067	3,82
316,325	2,17
316,583	3,85
316,841	2,6
317,1	1,82
317,358	-1,69
317,616	-3
317,874	-4,04
318,132	-4,87
318,39	-5,17
318,648	-5,33
318,906	-6,6
319,164	-6,77
319,422	-8,47
319,68	-10,65
319,938	-11,22
320,196	-11,99
320,454	-10,44
320,712	-10,23
320,97	-9,49
321,228	-11,38
321,486	-9,24
321,744	-8,76
322,002	-6,51
322,26	-9,29
322,517	-9,05
322,775	-11,39
323,033	-13,02
323,291	-11,87
323,549	-9,03
323,806	-7,57
324,064	-7,13
324,322	-6,61
324,58	-7,95
324,837	-6,82
325,095	-9,28
325,353	-7,38
325,61	-4,73
325,868	-5,87
326,126	-2,87
326,383	-2,87
326,641	-4,08
326,898	-1,73
327,156	-2,48
327,413	-0,49
327,671	0,71
327,928	4,03
328,186	3,8
328,443	1,63
328,701	4,71
328,958	5,03
329,216	5,28
329,473	3,55
329,731	4,45
329,988	4,55
330,245	8,58
330,503	9,36
330,76	8,69
331,017	12,3
331,275	11,42
331,532	10,24
331,789	7,17
332,047	7,29
332,304	5,61
332,561	5,58
332,818	5,24
333,076	7,24
333,333	7,54
333,59	7,39
333,847	8,99
334,104	7,32
334,361	6,49
334,618	7,41
334,876	5,4
335,133	6,22
335,39	3,39
335,647	4,33
335,904	1,06
336,161	-0,43
336,418	0,43
336,675	-3,54
336,932	-2,04
337,189	-2,5
337,446	-1,62
337,703	-2,95
337,96	-5,94
338,216	-6,89
338,473	-9,88
338,73	-8,89
338,987	-9,85
339,244	-7,72
339,501	-9,72
339,757	-7,18
340,014	-5,51
340,271	-3,82
340,528	-1,54
340,785	1,79
341,041	1,75
341,298	-0,63
341,555	-0,41
341,811	-0,61
342,068	-1,84
342,325	-1,01
342,581	0,5
342,838	1,64
343,094	1,02
343,351	2,12
343,608	-1
343,864	0,52
344,121	2,06
344,377	2,46
344,634	2,87
344,89	1,69
345,147	1,32
345,403	1,09
345,66	2,5
345,916	4,85
346,172	3,25
346,429	2,89
346,685	1,23
346,942	0,43
347,198	-2,4
347,454	-0,62
347,711	-0,44
347,967	-2,57
348,223	-2,49
348,48	-4,8
348,736	-2,66
348,992	-2,95
349,248	-0,76
349,504	-1,45
349,761	-0,62
350,017	0,28
350,273	0,11
350,529	-1,17
350,785	-0,72
351,041	-0,81
351,297	-0,27
351,554	0,5
351,81	-1,5
352,066	-2,38
352,322	-3,6
352,578	-3,84
352,834	-5,28
353,09	-4,44
353,346	-5,03
353,602	-6,55
353,858	-7,89
354,114	-8,47
354,369	-7,94
354,625	-5,65
354,881	-5,99
355,137	-4,74
355,393	-3,51
355,649	-3,03
355,905	-2,92
356,16	-2,94
356,416	-1,35
356,672	-7,13
356,928	-7,93
357,183	-8,44
357,439	-9,24
357,695	-12,33
357,951	-9,39
358,206	-10,82
358,462	-10,01
358,718	-10,7
358,973	-9,01
359,229	-8,78
359,484	-9,52
359,74	-7,06
359,996	-6,1
360,251	-2,96
360,507	-2,26
360,762	-1,6
361,018	0,12
361,273	-0,85
361,529	-0,06
361,784	-0,66
362,04	0,98
362,295	0,23
362,55	0,64
362,806	2,25
363,061	3,25
363,316	1,91
363,572	2,13
363,827	3,68
364,082	1,37
364,338	0,86
364,593	1,13
364,848	3,18
365,104	1,96
365,359	4,07
365,614	5,78
365,869	3,34
366,124	5,84
366,38	4,23
366,635	4,9
366,89	5,03
367,145	5,68
367,4	9,27
367,655	10,02
367,91	9,02
368,165	6,69
368,42	4,66
368,675	6,1
368,93	5,57
369,185	3,02
369,44	3,37
369,695	5,75
369,95	5,75
370,205	5,35
370,46	5,59
370,715	4,99
370,97	5,39
371,225	5,97
371,48	7,42
371,734	7,15
371,989	8,32
372,244	9,23
372,499	10,85
372,754	8,49
373,008	6,79
373,263	3,2
373,518	6,35
373,773	4,73
374,027	1,27
374,282	3,87
374,537	3,72
374,791	4,54
375,046	2,03
375,301	0,32
375,555	-1,93
375,81	0,64
376,064	1,7
376,319	3,61
376,573	2,23
376,828	-1,22
377,082	2,91
377,337	0,68
377,591	-1,26
377,846	-0,29
378,1	2,27
378,355	1,48
378,609	1,92
378,863	-0,63
379,118	0,26
379,372	-2,9
379,627	-4,6
379,881	-5,26
380,135	-6,01
380,389	-6,89
380,644	-5,37
380,898	-3,5
381,152	-1,74
381,407	-4,25
381,661	-2,96
381,915	-0,52
382,169	-0,61
382,423	-1,11
382,677	-3,85
382,932	-1,57
383,186	-0,33
383,44	2,16
383,694	2,7
383,948	2,26
384,202	1,99
384,456	3,61
384,71	5,48
384,964	3,89
385,218	5,87
385,472	7,44
385,726	6,32
385,98	6,7
386,234	6,74
386,488	2,67
386,742	4,54
386,996	2,55
387,249	3,65
387,503	5,97
387,757	7,38
388,011	7,65
388,265	7,99
388,518	8,27
388,772	9,83
389,026	9,65
389,28	7,74
389,533	7,93
389,787	10,1
390,041	8,58
390,295	9,14
390,548	8,28
390,802	10,5
391,055	8,64
391,309	6,51
391,563	4,06
391,816	3,33
392,07	2,46
392,323	2,86
392,577	3,38
392,83	5,24
393,084	9,76
393,337	11,82
393,591	12,39
393,844	11,7
394,098	14,81
394,351	18,97
394,604	18,84
394,858	21,6
395,111	22,33
395,364	20,55
395,618	21,77
395,871	19,74
396,124	19,45
396,378	19,73
396,631	19,26
396,884	17,5
397,137	18,48
397,391	19,53
397,644	16,61
397,897	17,11
398,15	17,66
398,403	21,32
398,657	19,62
398,91	19,32
399,163	19,78
399,416	20,08
399,669	19,01
399,922	16,88
400,175	15,01
400,428	15,36
400,681	14,83
400,934	11,08
401,187	9,83
401,44	9,27
401,693	8,68
401,946	5,61
402,199	1,28
402,452	-0,11
402,704	-4,04
402,957	-4,44
403,21	-3,22
403,463	-3,86
403,716	-2,57
403,969	-1,09
404,221	-2,87
404,474	-2,09
404,727	1,54
404,98	3,13
405,232	3,33
405,485	5,23
405,738	6,11
405,99	5,54
406,243	5,46
406,496	6,25
406,748	7,37
407,001	6,81
407,253	6,95
407,506	8,2
407,759	9,87
408,011	9,2
408,264	9,54
408,516	10,26
408,769	8,29
409,021	9,48
409,274	9,56
409,526	10,83
409,778	11,53
410,031	14,64
410,283	16,18
410,536	21,64
410,788	20,17
411,04	19,39
411,293	21,6
411,545	21,54
411,797	19,83
412,049	20,84
412,302	22,46
412,554	23,18
412,806	22
413,058	19,35
413,311	19,32
413,563	18,52
413,815	18,13
414,067	16,49
414,319	15,09
414,571	14,63
414,823	12,51
415,075	11,86
415,328	12,71
415,58	15,26
415,832	15,9
416,084	15,68
416,336	14,22
416,588	18,4
416,84	16,47
417,091	18,84
417,343	15,53
417,595	15,44
417,847	16,39
418,099	16,68
418,351	14,73
418,603	16,46
418,855	17,1
419,106	15,33
419,358	16,45
419,61	16,55
419,862	17,71
420,114	15,33
420,365	14,27
420,617	14,03
420,869	14,05
421,12	12,59
421,372	13,68
421,624	14,61
421,875	14,48
422,127	13,09
422,379	13,78
422,63	16,38
422,882	15,47
423,133	14,56
423,385	14,89
423,636	15,74
423,888	18
424,139	19,64
424,391	17,64
424,642	16,15
424,894	14,63
425,145	14,55
425,396	13,12
425,648	15,83
425,899	14,05
426,151	15,06
426,402	14,18
426,653	15,73
426,905	15,44
427,156	13,18
427,407	13,32
427,658	11,81
427,91	9,7
428,161	10,09
428,412	11,97
428,663	13,16
428,914	14,3
429,166	15,89
429,417	16,11
429,668	15,93
429,919	14,03
430,17	14,62
430,421	16,21
430,672	19,18
430,923	19,68
431,174	19,35
431,425	19,78
431,676	18,7
431,927	16,99
432,178	17,22
432,429	16,84
432,68	16,7
432,931	20,83
433,182	22,57
433,433	19,55
433,683	21,06
433,934	19,98
434,185	19,8
434,436	17,97
434,687	19,44
434,937	21,78
435,188	21,79
435,439	21,2
435,69	23,83
435,94	23,3
436,191	24,52
436,442	24,81
436,692	24,86
436,943	21,71
437,194	20,98
437,444	23,31
437,695	28,29
437,945	27,73
438,196	26,63
438,447	27,1
438,697	26,78
438,948	25,59
439,198	23,85
439,449	20,76
439,699	21,61
439,949	21,67
440,2	23,19
440,45	24,65
440,701	23,81
440,951	24,57
441,201	25,36
441,452	24,47
441,702	25,11
441,952	26,8
442,203	28,35
442,453	27,43
442,703	28,86
442,953	29,34
443,204	31,76
443,454	30,38
443,704	31,25
443,954	28,84
444,204	29,44
444,455	31,39
444,705	34,23
444,955	34,42
445,205	33,81
445,455	32,28
445,705	33,46
445,955	33,5
446,205	33,73
446,455	35,44
446,705	37,79
446,955	39,45
447,205	43,03
447,455	44,53
447,705	43,75
447,955	43,3
448,205	43,36
448,454	43,8
448,704	45,27
448,954	45,73
449,204	47,87
449,454	47,81
449,704	46,51
449,953	47,05
450,203	49,4
450,453	47,23
450,703	48,76
450,952	47,91
451,202	49,66
451,452	48,93
451,701	51,14
451,951	54,84
452,201	54,7
452,45	52,48
452,7	54,12
452,949	54,74
453,199	54,9
453,448	56,82
453,698	58,79
453,947	56,82
454,197	56,57
454,446	54,13
454,696	56,89
454,945	54,75
455,195	53,21
455,444	55,18
455,693	58,43
455,943	56,7
456,192	57,25
456,442	56,62
456,691	56,4
456,94	54,82
457,189	53,61
457,439	56,03
457,688	55,87
457,937	54,2
458,186	54,99
458,436	54,09
458,685	55,94
458,934	54,48
459,183	54,51
459,432	55,69
459,681	54,74
459,93	52,75
460,179	53,88
460,429	52,37
460,678	54,12
460,927	55,9
461,176	55,23
461,425	52,32
461,674	53,78
461,923	53,81
462,172	53,27
462,42	51,56
462,669	52,97
462,918	51,72
463,167	51,4
463,416	49,06
463,665	50,26
463,914	50,02
464,162	48,11
464,411	47,94
464,66	49,36
464,909	48,13
465,158	47,58
465,406	46,48
465,655	46,66
465,904	48,14
466,152	48,98
466,401	46,45
466,65	48,76
466,898	46,63
467,147	43,45
467,395	41,78
467,644	42,95
467,893	41,23
468,141	41,27
468,39	37,44
468,638	34,64
468,887	31,23
469,135	32,05
469,384	32,11
469,632	31,61
469,88	32,26
470,129	32,56
470,377	30,19
470,626	33,63
470,874	34,09
471,122	34,12
471,371	32,61
471,619	31,31
471,867	32,71
472,115	31,17
472,364	30,73
472,612	33,37
472,86	31,15
473,108	32,42
473,356	32,88
473,605	30,11
473,853	26,53
474,101	27,99
474,349	26,23
474,597	28,94
474,845	27,63
475,093	26,86
475,341	24,39
475,589	25,57
475,837	26,54
476,085	28,3
476,333	26,58
476,581	28,74
476,829	28,49
477,077	29,62
477,325	28,64
477,573	28,95
477,821	26,49
478,069	27,58
478,317	26,27
478,564	27,55
478,812	25,76
479,06	25,1
479,308	25,62
479,555	24,98
479,803	24,59
480,051	24
480,299	23,15
480,546	23,76
480,794	22,09
481,042	21,36
481,289	21,59
481,537	23,25
481,784	21,71
482,032	24,64
482,28	23,3
482,527	23,43
482,775	24,43
483,022	26,51
483,27	27,1
483,517	29,32
483,765	28,21
484,012	28,58
484,259	25,99
484,507	27,47
484,754	27,46
485,002	27,21
485,249	26,28
485,496	28,84
485,744	28,47
485,991	28,16
486,238	24,5
486,486	28,35
486,733	29,28
486,98	30,24
487,227	29,13
487,474	31,63
487,722	34,12
487,969	32,29
488,216	32,1
488,463	32,54
488,71	31,63
488,957	32,2
489,204	32,49
489,451	33,61
489,699	32,09
489,946	30,56
490,193	30,36
490,44	29,71
490,687	30,88
490,934	28,85
491,18	24,31
491,427	25,84
491,674	28,49
491,921	29,19
492,168	28,93
492,415	26,97
492,662	29,23
492,909	30,96
493,155	30,79
493,402	30,94
493,649	29,75
493,896	32,86
494,142	28,9
494,389	27,01
494,636	25,59
494,883	25,4
495,129	22,72
495,376	20,49
495,623	22,24
495,869	24,89
496,116	25,07
496,362	26,42
496,609	27,96
496,855	32,08
497,102	31,86
497,348	32,33
497,595	33,3
497,841	36,68
498,088	35,74
498,334	33,75
498,581	32,71
498,827	33,67
499,074	34,11
499,32	35,47
499,566	39,29
499,813	39,01
500,059	38,51
500,305	37,67
500,552	36,26
500,798	34,93
501,044	37,39
501,29	35,75
501,537	32,44
501,783	35,13
502,029	38,53
502,275	36,35
502,521	34,45
502,767	36,14
503,013	39,71
503,26	36,27
503,506	32,7
503,752	33,9
503,998	32,73
504,244	32,28
504,49	29,8
504,736	30,44
504,982	29,59
505,228	32,1
505,474	32,01
505,72	33,22
505,966	32,76
506,211	36,51
506,457	36,43
506,703	35,02
506,949	32,47
507,195	30,37
507,441	28,34
507,686	29,51
507,932	29,28
508,178	31,42
508,424	30,42
508,669	28,77
508,915	30,12
509,161	32,56
509,406	32,03
509,652	32,21
509,898	35,23
510,143	36,35
510,389	36,79
510,634	32,21
510,88	37,03
511,125	39,27
511,371	40,08
511,616	42,38
511,862	40,71
512,107	38,04
512,353	38,64
512,598	37,7
512,844	36,14
513,089	34,33
513,335	35,23
513,58	35,19
513,825	33,43
514,071	33,39
514,316	33,14
514,561	33,57
514,806	32,4
515,052	34,54
515,297	34,24
515,542	35,28
515,787	35,36
516,033	36,38
516,278	36,16
516,523	35,99
516,768	35,49
517,013	34,47
517,258	33,64
517,503	33,51
517,748	35,09
517,993	33,74
518,238	34,71
518,483	33,03
518,728	32,25
518,973	29,85
519,218	28,18
519,463	28,77
519,708	30,08
519,953	29,46
520,198	30,38
520,443	30,35
520,688	33,68
520,933	32,74
521,177	32,97
521,422	31,56
521,667	34,64
521,912	34,51
522,157	31,86
522,401	34,93
522,646	34,6
522,891	35,67
523,135	36,02
523,38	35,81
523,625	34,64
523,869	36,05
524,114	36,7
524,358	35,23
524,603	35,89
524,848	34,88
525,092	35,06
525,337	35,47
525,581	36,09
525,826	36,74
526,07	37,96
526,315	40,38
526,559	39,51
526,803	38,58
527,048	41,95
527,292	42,34
527,537	41,96
527,781	40,86
528,025	39,37
528,269	39,27
528,514	38,1
528,758	37,1
529,002	38,39
529,247	39,85
529,491	38,98
529,735	44,69
529,979	43,18
530,223	44,16
530,467	42,39
530,712	41,38
530,956	41,29
531,2	43,61
531,444	41,48
531,688	43,89
531,932	44,97
532,176	45,47
532,42	45,95
532,664	46,73
532,908	45,45
533,152	45,86
533,396	46,5
533,64	45,48
533,884	42,13
534,128	43,3
534,371	44,94
534,615	45,22
534,859	43,72
535,103	43,5
535,347	45,37
535,59	47,97
535,834	44,91
536,078	46,76
536,322	49,35
536,565	51,24
536,809	49,21
537,053	51,3
537,296	48,07
537,54	48,69
537,784	47,34
538,027	47,71
538,271	46,03
538,514	46,14
538,758	45,26
539,001	43,8
539,245	42,73
539,488	42,96
539,732	44,69
539,975	44,57
540,219	46,13
540,462	46,58
540,706	47,15
540,949	45,85
541,192	45,89
541,436	50,56
541,679	53,29
541,922	53,86
542,166	50,53
542,409	50,91
542,652	51,75
542,895	52,5
543,139	52,79
543,382	57,11
543,625	56,31
543,868	54,81
544,111	53,48
544,354	52,87
544,598	52,1
544,841	52,74
545,084	53,3
545,327	53,04
545,57	54,67
545,813	56,7
546,056	55,44
546,299	55,2
546,542	57,17
546,785	58,5
547,028	59,08
547,271	57,57
547,514	57,65
547,756	54,76
547,999	55,64
548,242	55,4
548,485	54,56
548,728	54,85
548,971	51,24
549,213	50,89
549,456	49,3
549,699	49,94
549,942	49,66
550,184	48,04
550,427	46,21
550,67	44,75
550,912	39,7
551,155	40,69
551,398	40,57
551,64	40,49
551,883	40,21
552,125	39,71
552,368	41,74
552,61	37,8
552,853	39,88
553,095	38,47
553,338	38,63
553,58	39,5
553,823	40,08
554,065	43,09
554,308	39,88
554,55	38,15
554,792	35,54
555,035	35,09
555,277	33,5
555,519	32,57
555,762	32,11
556,004	32,11
556,246	29,56
556,488	31,07
556,731	28,95
556,973	29,94
557,215	29,01
557,457	30,66
557,699	33,88
557,941	31,85
558,183	32,3
558,426	35,38
558,668	31,85
558,91	32,77
559,152	33,65
559,394	32,77
559,636	33,2
559,878	32,54
560,12	32,46
560,362	33,88
560,604	33,93
560,845	31,93
561,087	30,29
561,329	33
561,571	30,39
561,813	31,57
562,055	29,72
562,297	30,72
562,538	31,05
562,78	34,2
563,022	32,22
563,264	33,5
563,505	34,79
563,747	36,08
563,989	33,69
564,23	32,28
564,472	31,42
564,714	33,12
564,955	33,81
565,197	29,92
565,438	31,92
565,68	34,98
565,921	32,39
566,163	35,95
566,404	33,75
566,646	35,5
566,887	38,33
567,129	40,92
567,37	38,9
567,612	40,79
567,853	37,43
568,094	38,63
568,336	40,36
568,577	42,62
568,818	41,61
569,06	40,88
569,301	39,84
569,542	41,23
569,783	43,24
570,025	43,71
570,266	43,03
570,507	45,36
570,748	45,42
570,989	45,94
571,23	46,45
571,472	46,57
571,713	47,26
571,954	47,85
572,195	46,63
572,436	47,18
572,677	49,62
572,918	50,61
573,159	48,03
573,4	46,84
573,641	45,73
573,882	47,62
574,123	44,78
574,364	40,71
574,604	39,44
574,845	38,11
575,086	38,43
575,327	39,17
575,568	37,73
575,809	36,38
576,049	33,93
576,29	30,51
576,531	33,85
576,771	36,57
577,012	38,91
577,253	39,06
577,494	37,37
577,734	36,67
577,975	37,21
578,215	34,4
578,456	32,53
578,697	33,35
578,937	35,11
579,178	34,12
579,418	32,79
579,659	32,86
579,899	30,13
580,14	28,72
580,38	28,93
580,62	27,36
580,861	30,61
581,101	29,89
581,342	29,95
581,582	27,29
581,822	29,04
582,063	28,16
582,303	29,62
582,543	29,49
582,783	30,54
583,024	33,02
583,264	35,04
583,504	33,46
583,744	35,28
583,984	32,23
584,224	30,61
584,465	28,32
584,705	28,38
584,945	29,84
585,185	30,31
585,425	30,89
585,665	31,33
585,905	30,49
586,145	29,32
586,385	28,46
586,625	31,76
586,865	31,35
587,105	30,85
587,345	31,63
587,585	30,96
587,824	28,03
588,064	29,94
588,304	27,29
588,544	27,71
588,784	25,43
589,024	26,66
589,263	24,78
589,503	23,71
589,743	25,24
589,982	24,36
590,222	24,21
590,462	21,36
590,701	20,3
590,941	24,01
591,181	24,28
591,42	24,45
591,66	27,36
591,899	30,73
592,139	29,58
592,378	29,76
592,618	29,29
592,857	28,55
593,097	29,64
593,336	30,82
593,576	30,8
593,815	31,25
594,055	29,08
594,294	29,78
594,533	29,72
594,773	28,63
595,012	31,01
595,251	32,8
595,491	33,99
595,73	36,42
595,969	36,9
596,208	37,72
596,447	42,9
596,687	45,4
596,926	46,25
597,165	43,67
597,404	46,83
597,643	44,71
597,882	42,42
598,121	42,87
598,36	42,59
598,599	43,53
598,838	43,75
599,077	39,89
599,316	38,99
599,555	38,63
599,794	39,57
600,033	40,37
600,272	40,95
600,511	38,54
600,75	39,19
600,989	40,78
601,228	39,94
601,466	39,8
601,705	39,82
601,944	40,78
602,183	43,94
602,422	42,27
602,66	40,96
602,899	39,58
603,138	39,77
603,376	39,35
603,615	41,39
603,854	38,08
604,092	37,31
604,331	38,06
604,569	38,59
604,808	36,47
605,047	37,6
605,285	39,89
605,524	39,5
605,762	38,1
606	38,4
606,239	37,87
606,477	39,76
606,716	35,69
606,954	34,57
607,193	32,79
607,431	29,94
607,669	27,62
607,908	27,2
608,146	27,43
608,384	26,89
608,622	25,57
608,861	25,98
609,099	25,4
609,337	23,87
609,575	21,72
609,813	23,16
610,052	25,29
610,29	21,78
610,528	19,77
610,766	17,63
611,004	16,11
611,242	15,64
611,48	16,11
611,718	13,81
611,956	14,8
612,194	13,98
612,432	14,55
612,67	13,33
612,908	14,75
613,146	13,26
613,384	12,13
613,621	12,22
613,859	11,31
614,097	12,99
614,335	13,62
614,573	13,89
614,811	15,57
615,048	16,02
615,286	17,66
615,524	17,68
615,761	15,14
615,999	17,66
616,237	17,23
616,474	19,59
616,712	20,91
616,95	20,78
617,187	20,43
617,425	20,03
617,662	21,37
617,9	21,18
618,137	20,55
618,375	20,43
618,612	19,19
618,85	19,96
619,087	22,06
619,325	22,04
619,562	20,16
619,799	18,49
620,037	17,83
620,274	16,22
620,511	17,34
620,749	15,72
620,986	15,34
621,223	13,49
621,461	12,9
621,698	14,06
621,935	12,86
622,172	10,82
622,409	12,55
622,647	11,9
622,884	9,8
623,121	11,4
623,358	8,92
623,595	9,79
623,832	8,17
624,069	6,31
624,306	7,4
624,543	8,12
624,78	9,82
625,017	10,79
625,254	11,65
625,491	13,69
625,728	14,49
625,965	14,65
626,202	13,92
626,438	11,69
626,675	10,67
626,912	13,2
627,149	15,13
627,386	16,25
627,622	14,8
627,859	14,67
628,096	14,1
628,333	13,45
628,569	14,32
628,806	15,94
629,043	15,68
629,279	16,84
629,516	18,39
629,752	15,07
629,989	15,66
630,225	14,91
630,462	15,05
630,699	15,59
630,935	14,02
631,171	12,28
631,408	12,42
631,644	10
631,881	7,15
632,117	3,61
632,354	3,44
632,59	3,59
632,826	4,27
633,063	3,24
633,299	3,89
633,535	2,39
633,771	1,89
634,008	4,45
634,244	5,19
634,48	2,53
634,716	3,89
634,953	4,23
635,189	4,53
635,425	6,28
635,661	8,6
635,897	7,49
636,133	6,35
636,369	6,26
636,605	3,91
636,841	3,95
637,077	5,89
637,313	5,96
637,549	6,16
637,785	5,74
638,021	6,77
638,257	6,16
638,493	9,36
638,729	8,01
638,965	11,19
639,2	13,2
639,436	13,31
639,672	13,36
639,908	12,28
640,144	14,61
640,379	16,88
640,615	14,74
640,851	16,61
641,086	20,34
641,322	18,83
641,558	17,64
641,793	19,35
642,029	17,24
642,264	16,59
642,5	16,17
642,736	13,41
642,971	13,94
643,207	12,91
643,442	13,24
643,678	12,92
643,913	14,23
644,148	14,56
644,384	15,95
644,619	16,68
644,855	18,67
645,09	19,05
645,325	19,02
645,561	19,72
645,796	16,25
646,031	19,13
646,266	16,88
646,502	16,8
646,737	18,23
646,972	17,67
647,207	16,84
647,442	15,38
647,678	12,25
647,913	14,92
648,148	15,36
648,383	12,63
648,618	12,03
648,853	12,24
649,088	12,46
649,323	14,72
649,558	17,2
649,793	18,85
650,028	20,26
650,263	16,9
650,498	19,29
650,733	18,27
650,968	16,29
651,202	17,15
651,437	15,4
651,672	12,82
651,907	11,97
652,142	11,34
652,376	10,83
652,611	12,74
652,846	13,5
653,081	13,84
653,315	12,34
653,55	12,93
653,785	11,56
654,019	12,88
654,254	11,55
654,488	13,19
654,723	9,78
654,958	9,36
655,192	9,28
655,427	5,93
655,661	7,39
655,896	9,62
656,13	11,16
656,364	9,67
656,599	6,74
656,833	11,94
657,068	13,96
657,302	13,77
657,536	12,6
657,771	13,31
658,005	13,79
658,239	15,43
658,474	13,81
658,708	15,64
658,942	15,81
659,176	12,89
659,41	11,04
659,645	11,5
659,879	9,14
660,113	6,83
660,347	5,86
660,581	4,21
660,815	3,51
661,049	2,26
661,283	-1,86
661,517	-1,67
661,751	-2,4
661,985	-2,84
662,219	-2,57
662,453	-4,97
662,687	-3,65
662,921	-6,74
663,155	-8,6
663,389	-14,12
663,622	-14,36
663,856	-11,85
664,09	-18,77
664,324	-20,5
664,558	-20,32
664,791	-20,9
665,025	-21,4
665,259	-21,02
665,492	-21,54
665,726	-18,19
665,96	-19,53
666,193	-21,02
666,427	-18,08
666,661	-18,26
666,894	-19,71
667,128	-20,4
667,361	-18,11
667,595	-17,46
667,828	-16,43
668,062	-16,15
668,295	-14,88
668,529	-13,48
668,762	-13,25
668,995	-14
669,229	-10,42
669,462	-8,52
669,695	-8,09
669,929	-8,87
670,162	-7,8
670,395	-9,1
670,629	-7,14
670,862	-6,17
671,095	-9,69
671,328	-9,84
671,561	-13,1
671,795	-12,45
672,028	-10
672,261	-9,45
672,494	-8,11
672,727	-8,45
672,96	-8
673,193	-8,4
673,426	-3,94
673,659	-3,95
673,892	-3,08
674,125	-4,01
674,358	-3,44
674,591	-4,91
674,824	-6,2
675,057	-6,66
675,29	-8,87
675,523	-8,9
675,755	-8,95
675,988	-7,67
676,221	-5,91
676,454	-7,03
676,687	-6,62
676,919	-6,06
677,152	-5,27
677,385	-5,42
677,617	-4,56
677,85	-4,02
678,083	-4,1
678,315	-0,92
678,548	-1,28
678,78	-1,79
679,013	-1,97
679,246	-1,45
679,478	-0,85
679,711	-2,19
679,943	-1,11
680,175	-4,18
680,408	-1,34
680,64	-5,58
680,873	-4,87
681,105	-4,19
681,338	-0,74
681,57	-1,99
681,802	-1,57
682,034	-0,95
682,267	1,96
682,499	3,82
682,731	2,64
682,964	3,54
683,196	1,03
683,428	-0,86
683,66	-2,74
683,892	-1,36
684,124	-0,12
684,356	2,05
684,589	3,88
684,821	1,79
685,053	2,24
685,285	1,43
685,517	2,44
685,749	2,43
685,981	5,01
686,213	5,48
686,445	5,05
686,676	1,97
686,908	1,98
687,14	1,1
687,372	1,96
687,604	-0,28
687,836	1,14
688,068	0,23
688,299	-0,44
688,531	-2,36
688,763	1,8
688,995	0,69
689,226	5,13
689,458	3,52
689,69	3,59
689,921	2,48
690,153	1,66
690,384	3,16
690,616	2,6
690,848	2,95
691,079	1,35
691,311	-1,02
691,542	-3,75
691,774	-7,84
692,005	-5,06
692,237	-2,25
692,468	-4,27
692,699	-4,68
692,931	-4,28
693,162	-5,33
693,393	-5,68
693,625	-6,16
693,856	-5,28
694,087	-5,75
694,319	-4,57
694,55	-4,64
694,781	-5,05
695,012	-5,27
695,243	-6,86
695,475	-7,92
695,706	-8,34
695,937	-9,39
696,168	-7,87
696,399	-11,13
696,63	-12,2
696,861	-13,15
697,092	-7,82
697,323	-5,48
697,554	-4,77
697,785	-3,29
698,016	-1,3
698,247	-3,05
698,478	-1,47
698,709	-0,11
698,94	3,62
699,171	4,62
699,401	1,18
699,632	4,08
699,863	1,15
700,094	1,81
700,325	3,1
700,555	3,94
700,786	5,08
701,017	6,79
701,247	7,04
701,478	5,62
701,709	5,84
701,939	4,25
702,17	6,14
702,401	8,4
702,631	10,05
702,862	10,66
703,092	8,47
703,323	9,62
703,553	11,12
703,784	10,6
704,014	11,38
704,244	7,08
704,475	5,18
704,705	5,62
704,936	5,75
705,166	4,57
705,396	5,67
705,627	6,4
705,857	6,17
706,087	6,16
706,317	2,99
706,548	2,24
706,778	1,09
707,008	1,22
707,238	1,34
707,468	-0,52
707,698	-2,15
707,928	-2,95
708,158	-4,85
708,389	-5,82
708,619	-5,46
708,849	-6,29
709,079	-2,99
709,309	-5,19
709,539	-6,6
709,768	-7,07
709,998	-5,91
710,228	-7,2
710,458	-8,53
710,688	-10,82
710,918	-10,4
711,148	-12,03
711,378	-11,97
711,607	-12,23
711,837	-12,24
712,067	-12,4
712,297	-13,58
712,526	-13,35
712,756	-12,51
712,986	-14,4
713,215	-16,06
713,445	-14,69
713,674	-13,35
713,904	-12,37
714,134	-9,32
714,363	-9,14
714,593	-8,77
714,822	-9,49
715,052	-9,74
715,281	-8,32
715,511	-9,45
715,74	-10,48
715,969	-11,05
716,199	-12,75
716,428	-13,06
716,657	-13,94
716,887	-10,9
717,116	-12,56
717,345	-10,33
717,575	-8,87
717,804	-7,76
718,033	-7,91
718,262	-7,61
718,492	-6,88
718,721	-6,37
718,95	-7,01
719,179	-9,03
719,408	-7,4
719,637	-10,09
719,866	-11,55
720,095	-9,2
720,324	-10,07
720,553	-13,55
720,782	-15,24
721,011	-16,29
721,24	-18,33
721,469	-19,75
721,698	-20,31
721,927	-19,42
722,156	-20,5
722,385	-21,8
722,613	-18,54
722,842	-16,65
723,071	-14,89
723,3	-14,65
723,529	-13,8
723,757	-12,36
723,986	-15,99
724,215	-16,72
724,443	-15,72
724,672	-15,05
724,901	-15,17
725,129	-14,61
725,358	-11,4
725,586	-12,66
725,815	-12,58
726,043	-13,69
726,272	-13,76
726,5	-13,81
726,729	-12,16
726,957	-16,07
727,186	-18,96
727,414	-16,93
727,642	-14,47
727,871	-12,31
728,099	-12,8
728,327	-13,28
728,556	-11,9
728,784	-10,18
729,012	-11,63
729,241	-8,94
729,469	-9,06
729,697	-11,55
729,925	-11,6
730,153	-11,77
730,381	-11,09
730,61	-11,27
730,838	-13,81
731,066	-12,58
731,294	-12,25
731,522	-14,92
731,75	-17,98
731,978	-16,75
732,206	-16,42
732,434	-18,45
732,662	-17,28
732,89	-19,57
733,118	-18,66
733,346	-18,59
733,573	-17,47
733,801	-16,96
734,029	-9,5
734,257	-8,4
734,485	-5,71
734,712	-4,18
734,94	-6,71
735,168	-3,02
735,396	-2,66
735,623	-4,18
735,851	-3,65
736,078	-2,4
736,306	-2,36
736,534	-2,49
736,761	-2
736,989	-4,11
737,216	-5,36
737,444	-7,26
737,671	-6,78
737,899	-2,52
738,126	-3,26
738,354	-3,15
738,581	-1,86
738,809	-2,19
739,036	-5,03
739,263	-5,11
739,491	-6,34
739,718	-5,71
739,945	-1,35
740,173	-0,72
740,4	-1,27
740,627	-3,12
740,854	-4,89
741,081	-8,14
741,309	-9,07
741,536	-13,45
741,763	-14,52
741,99	-13,01
742,217	-14,1
742,444	-13,43
742,671	-11,83
742,898	-12,48
743,125	-14,89
743,352	-17,37
743,579	-17,25
743,806	-17,67
744,033	-15,13
744,26	-14,32
744,487	-14,53
744,714	-14,55
744,941	-14,54
745,167	-11,88
745,394	-12,3
745,621	-14,11
745,848	-14,01
746,075	-11,44
746,301	-8,6
746,528	-5,56
746,755	-7,24
746,981	-8,51
747,208	-7,41
747,435	-4,73
747,661	-4,07
747,888	-1,98
748,114	-2,32
748,341	0,78
748,567	2,94
748,794	2,17
749,02	0,86
749,247	-1,46
749,473	-2,31
749,7	-2,12
749,926	-3,63
750,152	0,54
750,379	1,26
750,605	2,19
750,831	2,85
751,058	1,81
751,284	-0,1
751,51	2,25
751,737	4,29
751,963	1,63
752,189	-0,32
752,415	-1,31
752,641	-0,54
752,867	-0,07
753,094	-2,21
753,32	-3,63
753,546	-4,99
753,772	-2,82
753,998	-4,6
754,224	-5,44
754,45	-5,41
754,676	-5,67
754,902	-6,61
755,128	-7,76
755,354	-8,62
755,579	-8,29
755,805	-7,78
756,031	-8,93
756,257	-8,97
756,483	-9,09
756,709	-11,85
756,934	-11,28
757,16	-14,24
757,386	-14,02
757,612	-16,29
757,837	-17,94
758,063	-15,69
758,289	-12,73
758,514	-14,2
758,74	-17,81
758,965	-18,96
759,191	-16,72
759,416	-15,67
759,642	-14,12
759,868	-13,81
760,093	-11,04
760,318	-11,94
760,544	-11,64
760,769	-13,17
760,995	-13,23
761,22	-13,15
761,445	-13,14
761,671	-11,74
761,896	-9,1
762,121	-8,62
762,347	-10,14
762,572	-12,84
762,797	-12,68
763,022	-11,95
763,248	-8,09
763,473	-9,31
763,698	-9,42
763,923	-7,55
764,148	-7,25
764,373	-8,04
764,598	-6,83
764,823	-4,36
765,048	-7,57
765,273	-10,47
765,498	-10,97
765,723	-10,66
765,948	-9,26
766,173	-11,05
766,398	-10,42
766,623	-12,62
766,848	-12,11
767,073	-14,34
767,298	-14,91
767,522	-15,22
767,747	-13,52
767,972	-12,11
768,197	-12,24
768,421	-12,99
768,646	-16,12
768,871	-18,26
769,095	-18,33
769,32	-15,79
769,545	-14,56
769,769	-13,58
769,994	-11,9
770,218	-14,7
770,443	-11,39
770,667	-9,58
770,892	-10,69
771,116	-10,67
771,341	-8,04
771,565	-6,8
771,79	-5,94
772,014	-6,63
772,238	-7,23
772,463	-4,88
772,687	-3,39
772,911	-3,48
773,136	-5,08
773,36	-4,51
773,584	-3,5
773,808	-5,77
774,033	-5,75
774,257	-5,58
774,481	-6,39
774,705	-8,96
774,929	-9,44
775,153	-7,78
775,377	-6,87
775,602	-5,8
775,826	-4,8
776,05	-2,92
776,274	-4,5
776,498	-4,59
776,722	-4,48
776,945	-3,9
777,169	-3,76
777,393	-5,79
777,617	-6,45
777,841	-5,74
778,065	-4,62
778,289	-6,98
778,512	-8,32
778,736	-8,52
778,96	-8,23
779,184	-6,02
779,407	-7,23
779,631	-8,44
779,855	-9,09
780,078	-7,68
780,302	-9,06
780,526	-11,91
780,749	-10,66
780,973	-9,02
781,196	-8
781,42	-9,84
781,643	-9,21
781,867	-9,56
782,09	-12,36
782,314	-12,69
782,537	-13,45
782,76	-13,81
782,984	-12,38
783,207	-13,36
783,431	-13,6
783,654	-14,88
783,877	-15,66
784,1	-16,6
784,324	-16,81
784,547	-17,91
784,77	-20,78
784,993	-22,04
785,216	-21,78
785,44	-22,04
785,663	-24,61
785,886	-22,61
786,109	-23,17
786,332	-23,38
786,555	-22,41
786,778	-21,95
787,001	-22,22
787,224	-20
787,447	-18,06
787,67	-16,69
787,893	-16
788,116	-15,77
788,339	-13,84
788,561	-12,89
788,784	-14,72
789,007	-15,63
789,23	-17,39
789,453	-17,57
789,675	-19,75
789,898	-22,72
790,121	-23,42
790,344	-22,8
790,566	-22,55
790,789	-22,44
791,012	-22,56
791,234	-20,78
791,457	-17,64
791,679	-16,38
791,902	-15,68
792,124	-16,62
792,347	-16,29
792,569	-15,74
792,792	-18,26
793,014	-15,55
793,237	-13,03
793,459	-12,82
793,681	-11,87
793,904	-12,2
794,126	-14,12
794,348	-13,71
794,571	-13,72
794,793	-15,13
795,015	-14,88
795,237	-15,33
795,46	-14,9
795,682	-13,66
795,904	-12,25
796,126	-12,81
796,348	-12,74
796,57	-10,27
796,792	-9,88
797,014	-7,2
797,237	-5,88
797,459	-3,32
797,681	-3,61
797,903	-3,91
798,124	-3,59
798,346	6,44
798,568	5,99
798,79	8,55
799,012	10,33
799,234	10,28
799,456	11,05
799,678	13,09
799,899	10,1
800,121	6,31
800,343	6,4
800,565	6,95
800,786	8,44
801,008	9,45
801,23	9,67
801,451	10,35
801,673	8,34
801,895	7,42
802,116	9,53
802,338	10,5
802,559	9,45
802,781	8,33
803,002	10,39
803,224	12,45
803,445	10,83
803,667	12,77
803,888	11,56
804,109	11,07
804,331	9,47
804,552	10,64
804,773	11,77
804,995	9,33
805,216	-3,32
805,437	-3,7
805,658	-7,15
805,88	-8,18
806,101	-7,52
806,322	-7,39
806,543	-7,81
806,764	-9,97
806,985	-8,9
807,207	-8,32
807,428	-8,5
807,649	-12,4
807,87	-14,82
808,091	-14,74
808,312	-15,04
808,533	-9,83
808,754	-7,44
808,975	-9,97
809,195	-9,64
809,416	-9,57
809,637	-9,57
809,858	-10,34
810,079	-11,71
810,3	-10,4
810,52	-11,35
810,741	-12,15
810,962	-13,8
811,183	-15,83
811,403	-15,87
811,624	-15,95
811,845	-13,87
812,065	-12,57
812,286	-11,88
812,506	-10,35
812,727	-9,74
812,948	-9,78
813,168	-8,02
813,389	-9,31
813,609	-6,75
813,83	-6,34
814,05	-7,46
814,27	-7,15
814,491	-3,29
814,711	-2,35
814,931	-4,83
815,152	-5,28
815,372	-8,14
815,592	-11,1
815,813	-11,98
816,033	-13,69
816,253	-10,92
816,473	-10,97
816,694	-10,35
816,914	-9,23
817,134	-10,21
817,354	-12,1
817,574	-11,29
817,794	-11,63
818,014	-10,39
818,234	-11,02
818,454	-12,28
818,674	-15,15
818,894	-16,95
819,114	-15,08
819,334	-14,65
819,554	-13,27
819,774	-11,78
819,994	-14,73
820,214	-15,13
820,433	-16,52
820,653	-16,72
820,873	-15,74
821,093	-16,32
821,312	-17,91
821,532	-15,67
821,752	-13,68
821,972	-14,41
822,191	-13,19
822,411	-12,9
822,63	-12,51
822,85	-9,99
823,07	-12,81
823,289	-12,46
823,509	-13,77
823,728	-13,24
823,948	-13,83
824,167	-14,03
824,387	-15,4
824,606	-14,1
824,825	-16,33
825,045	-16,52
825,264	-17,28
825,483	-15,14
825,703	-13,44
825,922	-15,61
826,141	-17,5
826,361	-19,03
826,58	-20,4
826,799	-19,9
827,018	-19,4
827,237	-16,98
827,456	-16,18
827,676	-15,53
827,895	-15,27
828,114	-13,68
828,333	-14,19
828,552	-12,65
828,771	-11,55
828,99	-13,25
829,209	-13,11
829,428	-10
829,647	-11,64
829,866	-10,9
830,084	-11,17
830,303	-11,14
830,522	-11,7
830,741	-11,1
830,96	-10,26
831,179	-9,78
831,397	-11,24
831,616	-11,34
831,835	-11,39
832,053	-8,98
832,272	-8,32
832,491	-7,63
832,709	-8
832,928	-7,3
833,147	-7,46
833,365	-7,04
833,584	-6
833,802	-2,95
834,021	-3,65
834,239	-3,07
834,458	-5,16
834,676	-8,21
834,894	-9,2
835,113	-9,89
835,331	-11,3
835,55	-12,49
835,768	-12,9
835,986	-12,36
836,204	-14,96
836,423	-15,1
836,641	-16,26
836,859	-16,28
837,077	-16,15
837,296	-15,17
837,514	-16,67
837,732	-17,27
837,95	-18,18
838,168	-15,47
838,386	-14,7
838,604	-12,45
838,822	-12,98
839,04	-14,79
839,258	-14,52
839,476	-13,29
839,694	-13,37
839,912	-14,48
840,13	-14,81
840,348	-11,73
840,566	-14,1
840,783	-13,63
841,001	-15,18
841,219	-14,34
841,437	-12,07
841,655	-11,87
841,872	-13,28
842,09	-13,01
842,308	-11,34
842,525	-10,22
842,743	-9,82
842,961	-11,16
843,178	-12,25
843,396	-8,63
843,613	-8,4
843,831	-7,17
844,048	-8
844,266	-7,26
844,483	-8,77
844,701	-8,52
844,918	-8,55
845,136	-7,8
845,353	-10,77
845,57	-10,82
845,788	-8,2
846,005	-10,26
846,222	-10,52
846,439	-8,38
846,657	-6,94
846,874	-7,28
847,091	-10,96
847,308	-10,24
847,526	-11,16
847,743	-10,93
847,96	-11,95
848,177	-12,46
848,394	-14,21
848,611	-13,61
848,828	-13,96
849,045	-14,73
849,262	-15,56
849,479	-14,75
849,696	-13,8
849,913	-14,84
850,13	-19,2
850,347	-17,47
850,564	-17,2
850,78	-17,77
850,997	-18,94
851,214	-17,24
851,431	-18,33
851,647	-20,38
851,864	-19,42
852,081	-16
852,298	-17,71
852,514	-18,73
852,731	-17,53
852,948	-16,3
853,164	-16,2
853,381	-16,46
853,597	-17,44
853,814	-17,4
854,03	-20
854,247	-17,92
854,463	-18,53
854,68	-18,68
854,896	-17,48
855,113	-15,48
855,329	-14,03
855,545	-12,36
855,762	-13,31
855,978	-14,48
856,194	-16,53
856,411	-13,66
856,627	-12,4
856,843	-10,77
857,059	-9,62
857,275	-10,78
857,492	-10,65
857,708	-8,55
857,924	-7,03
858,14	-3,87
858,356	-4,77
858,572	-4,96
858,788	-8,34
859,004	-8,36
859,22	-10,39
859,436	-11,05
859,652	-11,87
859,868	-14,75
860,084	-15,6
860,3	-15,35
860,516	-15,18
860,731	-14,91
860,947	-16,64
861,163	-14,99
861,379	-13,24
861,595	-13,32
861,81	-12,46
862,026	-12,84
862,242	-13,79
862,457	-14,75
862,673	-14,41
862,889	-13,93
863,104	-14,05
863,32	-13,91
863,535	-13,38
863,751	-16,21
863,966	-14,05
864,182	-12,31
864,397	-12,45
864,613	-15,05
864,828	-16,2
865,044	-14,46
865,259	-15,21
865,474	-14,92
865,69	-12,42
865,905	-11,44
866,12	-12,94
866,336	-13,31
866,551	-10,68
866,766	-10,17
866,981	-9,46
867,196	-10,44
867,412	-9,52
867,627	-10,07
867,842	-10,95
868,057	-12
868,272	-12,49
868,487	-13,5
868,702	-15,26
868,917	-15,76
869,132	-12,95
869,347	-11,38
869,562	-12,94
869,777	-14,89
869,992	-14,66
870,207	-14,43
870,422	-14,71
870,636	-16,64
870,851	-18,11
871,066	-19,87
871,281	-19,25
871,495	-20,13
871,71	-18,74
871,925	-20,58
872,14	-20,89
872,354	-22,67
872,569	-22,66
872,783	-21,16
872,998	-21,09
873,213	-22,21
873,427	-19,3
873,642	-20,31
873,856	-20,37
874,071	-20,85
874,285	-21,17
874,5	-22,53
874,714	-23,81
874,928	-23,07
875,143	-24,14
875,357	-23,34
875,571	-25,23
875,786	-25,46
876	-24,19
876,214	-21,77
876,429	-23,33
876,643	-23,47
876,857	-21,96
877,071	-20,93
877,285	-20,59
877,499	-23,47
877,714	-20,21
877,928	-17,85
878,142	-18,69
878,356	-20,31
878,57	-18,61
878,784	-18,34
878,998	-19,05
879,212	-16,89
879,426	-17,77
879,639	-17,54
879,853	-18,09
880,067	-20,58
880,281	-20,06
880,495	-17,99
880,709	-15,17
880,922	-15,09
881,136	-12,49
881,35	-10,97
881,564	-12,75
881,777	-14,53
881,991	-12,94
882,205	-8,68
882,418	-9,26
882,632	-11,11
882,845	-12,65
883,059	-11,14
883,273	-12,1
883,486	-13,88
883,7	-11,87
883,913	-12,56
884,126	-12,04
884,34	-16,09
884,553	-19,62
884,767	-17,49
884,98	-17,48
885,193	-18,36
885,407	-17,76
885,62	-15,72
885,833	-16,43
886,046	-15,1
886,26	-15,99
886,473	-16,56
886,686	-16,52
886,899	-15,5
887,112	-17,42
887,326	-20,05
887,539	-18,41
887,752	-18,61
887,965	-19,54
888,178	-17,84
888,391	-16,86
888,604	-17,66
888,817	-19,79
889,03	-19,2
889,243	-20,43
889,455	-21,75
889,668	-21,46
889,881	-17,07
890,094	-18,8
890,307	-21,38
890,52	-21,17
890,732	-19,34
890,945	-18,71
891,158	-17,08
891,37	-17,82
891,583	-18,27
891,796	-16,56
892,008	-18,58
892,221	-18,66
892,434	-21,87
892,646	-22,19
892,859	-22,29
893,071	-21,46
893,284	-20,16
893,496	-22,33
893,709	-21,64
893,921	-19,81
894,133	-20,45
894,346	-21,47
894,558	-21,69
894,771	-21,07
894,983	-18,32
895,195	-18,51
895,407	-18,09
895,62	-21,29
895,832	-19,95
896,044	-18,19
896,256	-18,91
896,468	-22,38
896,681	-20,04
896,893	-19,14
897,105	-19,18
897,317	-19,65
897,529	-16,87
897,741	-16,56
897,953	-13,81
898,165	-14,96
898,377	-16,93
898,589	-15,63
898,801	-17,07
899,013	-14,49
899,224	-11,88
899,436	-9,9
899,648	-9,15
899,86	-10,42
900,072	-6,85
900,283	-6,1
900,495	-5,99
900,707	-6,3
900,919	-8,2
901,13	-6,73
901,342	-8,77
901,554	-11,71
901,765	-11,51
901,977	-13,37
902,188	-12,62
902,4	-13,68
902,611	-14,17
902,823	-15,1
903,034	-17,33
903,246	-19,71
903,457	-21,24
903,669	-21,85
903,88	-21,94
904,091	-22,45
904,303	-20,95
904,514	-23,18
904,725	-20,61
904,936	-18,8
905,148	-18,74
905,359	-16,34
905,57	-16,68
905,781	-19,17
905,992	-19,6
906,204	-20,57
906,415	-20,89
906,626	-22,91
906,837	-20,41
907,048	-21,72
907,259	-22,33
907,47	-23,33
907,681	-24,63
907,892	-21,93
908,103	-21,07
908,314	-21,98
908,525	-20,6
908,735	-19,16
908,946	-19,97
909,157	-20,09
909,368	-18,26
909,579	-15,95
909,789	-16,46
910	-16,81
910,211	-15,3
910,421	-15,93
910,632	-15,27
910,843	-18,01
911,053	-15,16
911,264	-13,38
911,475	-15,3
911,685	-13,67
911,896	-13,93
912,106	-13,26
912,317	-15,01
912,527	-13,87
912,737	-13,49
912,948	-12,81
913,158	-12,59
913,369	-15,06
913,579	-13,31
913,789	-12,37
914	-7,84
914,21	-7,5
914,42	-9,67
914,63	-11,2
914,841	-10,79
915,051	-8,54
915,261	-8,83
915,471	-5,79
915,681	-5,57
915,891	-5,35
916,101	-6,54
916,311	-6,18
916,521	-5,7
916,731	-4,87
916,941	-1,98
917,151	-3,86
917,361	-2,42
917,571	-6,01
917,781	-8,25
917,991	-10,22
918,201	-10,45
918,411	-13,12
918,621	-13,58
918,83	-12,03
919,04	-14,23
919,25	-12,68
919,46	-10,96
919,669	-13,06
919,879	-14,12
920,089	-15,46
920,298	-16,51
920,508	-16,98
920,717	-16,09
920,927	-15,59
921,136	-13,05
921,346	-14,71
921,555	-18,32
921,765	-19,43
921,974	-21,57
922,184	-23,96
922,393	-24,62
922,603	-25,47
922,812	-23,14
923,021	-22,59
923,23	-24,7
923,44	-27,26
923,649	-27,27
923,858	-27,75
924,067	-27,22
924,277	-28,58
924,486	-25,47
924,695	-26,53
924,904	-24,97
925,113	-25,65
925,322	-24,26
925,531	-24,18
925,74	-26,84
925,949	-28,51
926,158	-26,85
926,367	-26,95
926,576	-26,52
926,785	-27,3
926,994	-26,94
927,203	-25,69
927,412	-26,53
927,621	-28,5
927,83	-25,96
928,038	-26,11
928,247	-25,04
928,456	-24,3
928,665	-22,19
928,873	-20,57
929,082	-17,65
929,291	-17,34
929,499	-16,49
929,708	-17,47
929,916	-17,32
930,125	-18,28
930,333	-18,88
930,542	-17,51
930,75	-14,69
930,959	-12,97
931,167	-12,49
931,376	-12,85
931,584	-11,46
931,793	-12
932,001	-11,86
932,209	-13,22
932,418	-14,77
932,626	-15,08
932,834	-15,75
933,042	-18,49
933,251	-17,48
933,459	-18,34
933,667	-20,3
933,875	-19,89
934,083	-17,89
934,291	-17,27
934,499	-16,32
934,707	-16,37
934,915	-16,98
935,123	-15,72
935,331	-16,97
935,539	-19,72
935,747	-21,47
935,955	-22,29
936,163	-21,69
936,371	-22,39
936,579	-20,43
936,787	-19,49
936,995	-20,14
937,202	-23,55
937,41	-24,69
937,618	-26,42
937,826	-25,96
938,033	-28,8
938,241	-30,35
938,449	-28,82
938,656	-26,52
938,864	-25,03
939,071	-24,46
939,279	-21,47
939,486	-18,7
939,694	-19,13
939,901	-21,53
940,109	-21,52
940,316	-21,73
940,524	-23,31
940,731	-25,41
940,939	-24,81
941,146	-25,43
941,353	-26,54
941,561	-27,26
941,768	-28,77
941,975	-27,87
942,182	-27,32
942,39	-27,44
942,597	-24,93
942,804	-24,77
943,011	-24,13
943,218	-23,43
943,425	-24,01
943,632	-22,87
943,839	-23,47
944,046	-23,86
944,253	-24,68
944,46	-24,84
944,667	-21,53
944,874	-22,88
945,081	-21,64
945,288	-22,06
945,495	-20,43
945,702	-21,77
945,909	-23,94
946,115	-23,51
946,322	-23,88
946,529	-25,08
946,736	-25,41
946,942	-23,53
947,149	-23,49
947,356	-23,96
947,562	-24,24
947,769	-23,94
947,976	-25,15
948,182	-22,74
948,389	-23,75
948,595	-24,13
948,802	-22,52
949,008	-23,79
949,215	-21,95
949,421	-22,98
949,628	-24,69
949,834	-23,84
950,04	-24,35
950,247	-22,62
950,453	-20,91
950,659	-20,46
950,865	-18,61
951,072	-22,73
951,278	-20,05
951,484	-20,88
951,69	-23,16
951,896	-24,28
952,103	-24,12
952,309	-21,9
952,515	-20,29
952,721	-18,4
952,927	-17,19
953,133	-17,22
953,339	-19,35
953,545	-19,37
953,751	-17,44
953,957	-15,24
954,163	-15,99
954,369	-15,83
954,574	-17,59
954,78	-16,85
954,986	-16,12
955,192	-15,82
955,398	-15,91
955,603	-17,41
955,809	-16,41
956,015	-14,96
956,22	-15,95
956,426	-14,26
956,632	-16,21
956,837	-16,37
957,043	-16,49
957,248	-16,56
957,454	-16,01
957,66	-19,43
957,865	-19,46
958,07	-18,07
958,276	-20,11
958,481	-22,55
958,687	-24,11
958,892	-25,82
959,097	-25,91
959,303	-25,73
959,508	-26,45
959,713	-25,94
959,919	-25,99
960,124	-27,22
960,329	-26,41
960,534	-23,92
960,739	-22,82
960,945	-21,23
961,15	-22,28
961,355	-22,55
961,56	-25,24
961,765	-28,23
961,97	-28,56
962,175	-27,63
962,38	-30,1
962,585	-28,56
962,79	-29,85
962,995	-29,2
963,2	-31,05
963,404	-31,87
963,609	-33,95
963,814	-34,36
964,019	-34,92
964,224	-38,48
964,428	-36,08
964,633	-35,05
964,838	-33
965,042	-32,26
965,247	-33,59
965,452	-34,37
965,656	-32,87
965,861	-31,66
966,066	-31,37
966,27	-30,19
966,475	-27,84
966,679	-32,53
966,884	-31,94
967,088	-33,4
967,292	-34,1
967,497	-32,01
967,701	-32,59
967,906	-31,58
968,11	-27,97
968,314	-25,26
968,518	-26,01
968,723	-24,82
968,927	-24,96
969,131	-23,42
969,335	-21,84
969,539	-20,89
969,744	-18,66
969,948	-16,35
970,152	-15,77
970,356	-14,27
970,56	-12,48
970,764	-13,91
970,968	-11,94
971,172	-11,54
971,376	-11,03
971,58	-9,9
971,784	-9,02
971,988	-10,86
972,192	-9,69
972,395	-10,85
972,599	-12,55
972,803	-14,22
973,007	-12,74
973,21	-13,37
973,414	-12,98
973,618	-12,71
973,822	-13,1
974,025	-11,97
974,229	-12,48
974,432	-14,52
974,636	-16,99
974,84	-16,9
975,043	-15,75
975,247	-17,37
975,45	-19,98
975,654	-19,77
975,857	-18,08
976,06	-19,14
976,264	-19,52
976,467	-17,28
976,671	-17,71
976,874	-16,07
977,077	-16,69
977,28	-17,1
977,484	-19,22
977,687	-20,74
977,89	-18,1
978,093	-17,91
978,297	-17,24
978,5	-18,34
978,703	-17,92
978,906	-15,78
979,109	-15,32
979,312	-13,97
979,515	-15,17
979,718	-15,58
979,921	-15,79
980,124	-17,03
980,327	-17,98
980,53	-16,45
980,733	-15
980,936	-12,46
981,138	-13,52
981,341	-13,63
981,544	-13,46
981,747	-12,9
981,949	-14,47
982,152	-13,8
982,355	-13,84
982,558	-11,52
982,76	-14,29
982,963	-14,7
983,165	-15,56
983,368	-15,76
983,571	-17,64
983,773	-14,61
983,976	-12,4
984,178	-14,4
984,381	-14,61
984,583	-16,18
984,785	-15,91
984,988	-13,17
985,19	-13,68
985,392	-15,5
985,595	-17,44
985,797	-15,6
985,999	-12,89
986,202	-10,94
986,404	-11,2
986,606	-8,8
986,808	-10,83
987,01	-9,45
987,212	-11,14
987,415	-13,08
987,617	-13,61
987,819	-13,33
988,021	-12,6
988,223	-14,48
988,425	-16,17
988,627	-16,56
988,829	-19,66
989,031	-18,47
989,232	-18,61
989,434	-17,62
989,636	-17,41
989,838	-16,16
990,04	-15,81
990,242	-18,62
990,443	-18,57
990,645	-16,77
990,847	-14,04
991,048	-14,9
991,25	-16,84
991,452	-17,64
991,653	-17,55
991,855	-18
992,057	-19,48
992,258	-18,52
992,46	-19,14
992,661	-18,2
992,863	-18,63
993,064	-17,2
993,265	-19,01
993,467	-18,93
993,668	-15,96
993,87	-15,06
994,071	-15,29
994,272	-14,02
994,473	-11,97
994,675	-11,14
994,876	-11,05
995,077	-11,1
995,278	-8,99
995,48	-8,33
995,681	-9,19
995,882	-7,17
996,083	-8,46
996,284	-10,83
996,485	-8,56
996,686	-10,07
996,887	-11,8
997,088	-15,47
997,289	-15,84
997,49	-16,07
997,691	-14,34
997,892	-14,8
998,092	-9,56
998,293	-9,76
998,494	-11,68
998,695	-11,86
998,896	-9,67
999,096	-10,64
999,297	-10,73
999,498	-12,1
999,698	-13,78
999,899	-16,58
1000,1	-17,91
1000,3	-18
1000,501	-19,82
1000,701	-20,13
1000,902	-20,42
1001,102	-19,6
1001,303	-17,81
1001,503	-20,55
1001,704	-20,57
1001,904	-21,76
1002,105	-22,61
1002,305	-22,47
1002,505	-23,59
1002,706	-25,77
1002,906	-25,03
1003,106	-25,88
1003,306	-23,58
1003,507	-21,9
1003,707	-21,95
1003,907	-20,71
1004,107	-20,25
1004,307	-23,77
1004,507	-22,88
1004,707	-22,46
1004,907	-25,29
1005,107	-25,68
1005,308	-25,68
1005,507	-26,91
1005,707	-25,06
1005,907	-24,9
1006,107	-22,56
1006,307	-21,28
1006,507	-21,59
1006,707	-20,12
1006,907	-20,25
1007,106	-19,39
1007,306	-21,02
1007,506	-21,25
1007,706	-21,5
1007,905	-22,79
1008,105	-21,92
1008,305	-22,33
1008,504	-20,93
1008,704	-16,8
1008,903	-15,5
1009,103	-14,31
1009,303	-15,91
1009,502	-16,38
1009,702	-16,98
1009,901	-17,87
1010,1	-20,58
1010,3	-17,21
1010,499	-17,88
1010,699	-18,47
1010,898	-19,9
1011,097	-19,28
1011,296	-19,74
1011,496	-21,34
1011,695	-21,25
1011,894	-22,13
1012,093	-18,69
1012,293	-18,8
1012,492	-20,33
1012,691	-19,89
1012,89	-21,34
1013,089	-22,29
1013,288	-23,19
1013,487	-21,06
1013,686	-21,01
1013,885	-21,84
1014,084	-20,71
1014,283	-21,28
1014,482	-21,62
1014,681	-22,45
1014,88	-24,18
1015,078	-22,78
1015,277	-26,32
1015,476	-26,25
1015,675	-27,01
1015,873	-26,65
1016,072	-26,57
1016,271	-24,43
1016,47	-29,89
1016,668	-28,96
1016,867	-29,86
1017,065	-31,05
1017,264	-31,39
1017,463	-31,28
1017,661	-30,16
1017,86	-30,38
1018,058	-29,43
1018,256	-32,59
1018,455	-33,39
1018,653	-31,88
1018,852	-30,47
1019,05	-30,93
1019,248	-32,4
1019,447	-33,2
1019,645	-34,51
1019,843	-36,29
1020,041	-32,79
1020,24	-33,59
1020,438	-30,39
1020,636	-31,82
1020,834	-33,5
1021,032	-32,59
1021,23	-34,19
1021,428	-29,82
1021,626	-26,2
1021,824	-25,32
1022,022	-26,77
1022,22	-26,1
1022,418	-26,2
1022,616	-25,03
1022,814	-24,76
1023,012	-24,5
1023,21	-22,59
1023,408	-21,85
1023,606	-22,54
1023,803	-18,52
1024,001	-17,38
1024,199	-21,21
1024,397	-18,96
1024,594	-18,54
1024,792	-19,92
1024,99	-20,55
1025,187	-19,82
1025,385	-16,52
1025,582	-17,02
1025,78	-17,25
1025,977	-16,5
1026,175	-18,22
1026,372	-17,72
1026,57	-18,7
1026,767	-15,68
1026,965	-13,6
1027,162	-14,27
1027,359	-14,54
1027,557	-16,19
1027,754	-19
1027,951	-19,36
1028,148	-18,58
1028,346	-18,05
1028,543	-19,61
1028,74	-21,08
1028,937	-23,77
1029,134	-23,47
1029,331	-24,76
1029,528	-25,51
1029,725	-26,4
1029,923	-29,37
1030,12	-26,62
1030,317	-24,35
1030,513	-23,94
1030,71	-23,05
1030,907	-21,73
1031,104	-22,09
1031,301	-24,24
1031,498	-24,94
1031,695	-24,07
1031,892	-23,95
1032,088	-23,15
1032,285	-24,14
1032,482	-25,17
1032,678	-28,22
1032,875	-30,23
1033,072	-31,56
1033,268	-32,11
1033,465	-31,9
1033,662	-33,93
1033,858	-34,06
1034,055	-34,2
1034,251	-30,84
1034,448	-31,73
1034,644	-31,22
1034,84	-26,86
1035,037	-23,92
1035,233	-24,11
1035,43	-23,31
1035,626	-22,8
1035,822	-22,44
1036,019	-22,96
1036,215	-26,85
1036,411	-26,82
1036,607	-28,84
1036,803	-31,41
1037	-30,73
1037,196	-32,2
1037,392	-31,11
1037,588	-31,91
1037,784	-32,33
1037,98	-33,78
1038,176	-34,24
1038,372	-34,55
1038,568	-32,46
1038,764	-30,62
1038,96	-29,51
1039,156	-30,25
1039,352	-30,41
1039,547	-29,21
1039,743	-27,65
1039,939	-25,36
1040,135	-25,14
1040,331	-27,87
1040,526	-27,65
1040,722	-29,34
1040,918	-31,34
1041,113	-33,93
1041,309	-34,12
1041,505	-35,76
1041,7	-35,23
1041,896	-35,3
1042,091	-36,29
1042,287	-35,74
1042,482	-35,06
1042,678	-35,09
1042,873	-34,06
1043,069	-36,2
1043,264	-35,51
1043,459	-35,12
1043,655	-34,68
1043,85	-34,16
1044,045	-32,11
1044,24	-32,74
1044,436	-31,32
1044,631	-33,15
1044,826	-33,85
1045,021	-35,65
1045,216	-33,93
