Data from FLMT021711__21__17-07-16-412.txt Node

Date: Tue Nov 05 17:07:16 CET 2024
User: Etudiants TP
Spectrometer: FLMT02171
Trigger mode: 0
Integration Time (sec): 1.000000E-1
Scans to average: 5
Electric dark correction enabled: true
Nonlinearity correction enabled: false
Boxcar width: 15
XAxis mode: Wavelengths
Number of Pixels in Spectrum: 3648
>>>>>Begin Spectral Data<<<<<
194.658	-59.6
194.923	-55.98
195.188	-49.02
195.453	-48.03
195.717	-42.62
195.982	-42.43
196.247	-41.81
196.512	-44.53
196.777	-42.66
197.042	-41.21
197.307	-40.3
197.572	-36.79
197.837	-36.3
198.101	-35.23
198.366	-33.34
198.631	-31.25
198.896	-25.15
199.161	-18.45
199.425	-11.54
199.69	-2.09
199.955	-3.11
200.22	-5.6
200.484	-5.31
200.749	-6.07
201.014	-4.59
201.278	-5.26
201.543	-4.12
201.807	-3.22
202.072	-1.67
202.337	0.1
202.601	0.35
202.866	-2.21
203.13	-2.71
203.395	-4.77
203.659	-4.6
203.924	-6.8
204.189	-5.2
204.453	-3.67
204.717	-1.82
204.982	-1.5
205.246	0.76
205.511	1.52
205.775	0.08
206.04	4.66
206.304	6.7
206.568	9.04
206.833	9.14
207.097	9.39
207.361	10.66
207.626	13.35
207.89	13.1
208.154	12.9
208.419	14.68
208.683	13.73
208.947	15.1
209.211	14.67
209.476	15.55
209.74	16.36
210.004	15.33
210.268	15.42
210.532	17.89
210.796	17.86
211.061	18.66
211.325	18.63
211.589	17.23
211.853	18.6
212.117	19.47
212.381	19.97
212.645	19.43
212.909	20.02
213.173	18.47
213.437	17.87
213.701	18.32
213.965	20.67
214.229	16.54
214.493	15.07
214.757	13.48
215.021	13.22
215.285	16.32
215.549	17.51
215.813	16.84
216.077	16.27
216.34	19.15
216.604	17.11
216.868	16.99
217.132	18.42
217.396	16.95
217.659	17.02
217.923	14.69
218.187	14.22
218.451	12.52
218.714	10.36
218.978	10.48
219.242	12.19
219.505	14.54
219.769	15.89
220.033	13.78
220.296	14.21
220.56	13.48
220.824	13.43
221.087	14.11
221.351	14.22
221.614	15.4
221.878	16.51
222.142	14.21
222.405	14.45
222.669	16.86
222.932	13.73
223.196	12.39
223.459	10.25
223.722	12.03
223.986	9.85
224.249	8.48
224.513	8.38
224.776	9.51
225.04	9.87
225.303	10.42
225.566	11.96
225.83	13.22
226.093	15.71
226.356	14.46
226.62	14.42
226.883	16.3
227.146	15.67
227.409	14.81
227.673	12.19
227.936	10.82
228.199	12.44
228.462	10.57
228.725	11.18
228.989	10.04
229.252	11.22
229.515	15.11
229.778	12.47
230.041	11.75
230.304	10.05
230.567	10.47
230.83	8.9
231.093	10.77
231.356	9.89
231.619	14.72
231.882	11.88
232.145	13.92
232.408	12.84
232.671	11.78
232.934	10.3
233.197	8.96
233.46	7.02
233.723	7.47
233.986	5.9
234.249	4.53
234.512	5.99
234.775	10.13
235.037	9.39
235.3	10.3
235.563	10.93
235.826	11.95
236.089	15.46
236.351	14.98
236.614	17.87
236.877	17.71
237.14	20.66
237.402	19.92
237.665	15.24
237.928	14.7
238.19	12.46
238.453	15.19
238.716	15.18
238.978	14.87
239.241	14.6
239.503	17.66
239.766	13.6
240.029	12.14
240.291	14.26
240.554	15.33
240.816	16.47
241.079	17.74
241.341	18.47
241.604	16.8
241.866	14.22
242.129	15.72
242.391	17.11
242.653	16.95
242.916	14.97
243.178	14.42
243.441	14.68
243.703	13.38
243.965	12.56
244.228	10.43
244.49	10.13
244.752	10.86
245.015	12.12
245.277	12.96
245.539	11.69
245.801	13.51
246.064	13.99
246.326	13.76
246.588	11.67
246.85	12.03
247.112	12.11
247.374	13.23
247.637	12.97
247.899	13.04
248.161	14.69
248.423	10.34
248.685	10.88
248.947	9.38
249.209	8.24
249.471	8.53
249.733	9.41
249.995	8.1
250.257	7.11
250.519	5.54
250.781	7.11
251.043	5.2
251.305	6
251.567	7.43
251.829	9.62
252.091	8.35
252.353	6.32
252.615	6.97
252.876	4.72
253.138	2.66
253.4	-1.31
253.662	-0.01
253.924	0.59
254.185	0.9
254.447	0.79
254.709	3.22
254.971	4.97
255.232	6.88
255.494	6.24
255.756	6.26
256.017	7.1
256.279	7.73
256.541	8.88
256.802	7.95
257.064	8.92
257.326	8.02
257.587	9.69
257.849	11.8
258.11	14.11
258.372	14.86
258.633	16.25
258.895	16.07
259.156	15.29
259.418	14.07
259.679	11.14
259.941	7.38
260.202	9.89
260.464	11.44
260.725	11.22
260.987	9.72
261.248	8.81
261.509	10.04
261.771	9.48
262.032	11.46
262.293	10.67
262.555	11.57
262.816	8.83
263.077	5.94
263.338	4
263.6	4.14
263.861	1.39
264.122	0.39
264.383	1.68
264.645	3.1
264.906	1.91
265.167	3.01
265.428	3.82
265.689	3.6
265.95	0.86
266.211	1.86
266.473	0.55
266.734	-3.12
266.995	-6.11
267.256	-4.65
267.517	-1.54
267.778	0.7
268.039	2.82
268.3	1.85
268.561	0.27
268.822	2.25
269.083	2.54
269.344	1.17
269.604	1.33
269.865	0.46
270.126	-2.7
270.387	-1.24
270.648	-0.09
270.909	-0.3
271.17	-0.09
271.43	-2.33
271.691	-4.49
271.952	-3.28
272.213	-2.25
272.473	-3.72
272.734	-2.57
272.995	-0.52
273.256	-1.77
273.516	0.65
273.777	0.13
274.038	2.2
274.298	0.42
274.559	0.85
274.82	5.18
275.08	7.65
275.341	7.46
275.601	5.33
275.862	3.97
276.122	4.78
276.383	4.4
276.643	6.78
276.904	5.67
277.164	8.07
277.425	8.79
277.685	11.92
277.946	12.29
278.206	12.75
278.467	14.08
278.727	13.85
278.987	12.66
279.248	12.08
279.508	14.64
279.768	16.54
280.029	17.64
280.289	14.75
280.549	12.75
280.81	10.82
281.07	9.52
281.33	11.84
281.59	9.6
281.851	9.85
282.111	8.7
282.371	7.01
282.631	7.74
282.891	6.06
283.151	4.36
283.412	3.84
283.672	4.66
283.932	4.13
284.192	4.96
284.452	3.27
284.712	0.35
284.972	-0.79
285.232	-4.04
285.492	-1.69
285.752	-4.35
286.012	0.77
286.272	2.81
286.532	-0.16
286.792	-0.69
287.052	2.81
287.312	3.66
287.571	1.86
287.831	2.15
288.091	-0.88
288.351	-0.55
288.611	4.34
288.871	3.63
289.13	5.48
289.39	1.04
289.65	2.12
289.91	1.56
290.17	3.78
290.429	6.67
290.689	5.35
290.949	2.64
291.208	4.17
291.468	6.25
291.728	6.32
291.987	7.14
292.247	5.16
292.506	7.52
292.766	11.44
293.026	11.16
293.285	13.08
293.545	15.13
293.804	15.32
294.064	12
294.323	8.6
294.583	9.89
294.842	10.93
295.102	10.82
295.361	10.51
295.621	10.72
295.88	10.9
296.139	11.46
296.399	12.65
296.658	8.1
296.917	8.69
297.177	5.34
297.436	8.4
297.695	6.77
297.955	6.98
298.214	5.72
298.473	6.98
298.732	8.12
298.992	11.6
299.251	10.83
299.51	7.23
299.769	7.96
300.028	8.28
300.287	8.21
300.547	8.93
300.806	6.44
301.065	8.15
301.324	9.19
301.583	5.57
301.842	1.89
302.101	0.66
302.36	1.22
302.619	0.75
302.878	1.33
303.137	-1.5
303.396	-0.01
303.655	1.27
303.914	-1.04
304.173	-1.92
304.432	-1.64
304.691	0.31
304.95	-0.91
305.208	2.3
305.467	1.49
305.726	1.9
305.985	2.87
306.244	4.11
306.503	3.35
306.761	2.45
307.02	-0.13
307.279	0.84
307.537	2.7
307.796	-0.14
308.055	-2.77
308.314	-1.9
308.572	-3.89
308.831	-2.62
309.09	-2.71
309.348	-1.2
309.607	-1.13
309.865	3.26
310.124	3.58
310.382	5.75
310.641	7
310.9	4.83
311.158	6.42
311.417	6.9
311.675	6.8
311.933	8.3
312.192	10.31
312.45	9.24
312.709	8.78
312.967	7.46
313.226	8.18
313.484	7.92
313.742	6.93
314.001	5.65
314.259	3.76
314.517	5.84
314.776	7.69
315.034	8.84
315.292	6.17
315.55	3.82
315.809	2.89
316.067	5.24
316.325	3.79
316.583	4.94
316.841	3.24
317.1	2.1
317.358	-1.82
317.616	-1.68
317.874	-2.92
318.132	-3.44
318.39	-4
318.648	-4.56
318.906	-4.82
319.164	-5.85
319.422	-7.96
319.68	-9.35
319.938	-9.63
320.196	-9.08
320.454	-7.63
320.712	-8.3
320.97	-7.1
321.228	-8.31
321.486	-8.18
321.744	-7.09
322.002	-5.64
322.26	-6.9
322.517	-9.16
322.775	-11.93
323.033	-12.74
323.291	-9.57
323.549	-7.28
323.806	-5.97
324.064	-6.7
324.322	-4.36
324.58	-4.74
324.837	-2.71
325.095	-5
325.353	-3.66
325.61	-2.34
325.868	-3.41
326.126	-1.52
326.383	-2.33
326.641	-3.48
326.898	-2.02
327.156	-1.13
327.413	-1.56
327.671	-0.71
327.928	0.55
328.186	-0.77
328.443	-1.52
328.701	1.78
328.958	2.53
329.216	2.04
329.473	2.01
329.731	1.85
329.988	1.89
330.245	4.78
330.503	6.37
330.76	6.58
331.017	10.14
331.275	8.28
331.532	8.05
331.789	8.22
332.047	8.22
332.304	5.51
332.561	5.85
332.818	5.04
333.076	8.7
333.333	11.12
333.59	10.72
333.847	11.6
334.104	10.92
334.361	9.37
334.618	8.1
334.876	6.45
335.133	6.06
335.39	5.65
335.647	7.18
335.904	3.53
336.161	3.14
336.418	3.86
336.675	0.44
336.932	2.06
337.189	1.3
337.446	2.01
337.703	0.81
337.96	-3.22
338.216	-4.61
338.473	-8.05
338.73	-6.71
338.987	-8.29
339.244	-6.73
339.501	-8.99
339.757	-9.83
340.014	-8.75
340.271	-8.1
340.528	-7.99
340.785	-4.98
341.041	-6.04
341.298	-10.3
341.555	-8.94
341.811	-8.92
342.068	-11.24
342.325	-9.48
342.581	-7.74
342.838	-6.75
343.094	-7.2
343.351	-6.94
343.608	-9.22
343.864	-6.17
344.121	-4.77
344.377	-6.37
344.634	-7.1
344.89	-8.6
345.147	-8.7
345.403	-10.83
345.66	-11.22
345.916	-7.94
346.172	-8.53
346.429	-7.7
346.685	-10.12
346.942	-9.7
347.198	-12.77
347.454	-10.43
347.711	-9.46
347.967	-12.18
348.223	-12.4
348.48	-12.76
348.736	-8.98
348.992	-9.04
349.248	-5.98
349.504	-8.66
349.761	-8.72
350.017	-8.7
350.273	-9.11
350.529	-9.08
350.785	-9.31
351.041	-9.66
351.297	-8.4
351.554	-10.2
351.81	-11.18
352.066	-13.03
352.322	-12.42
352.578	-11.07
352.834	-11.66
353.09	-11.29
353.346	-10.55
353.602	-10.76
353.858	-12.43
354.114	-13.27
354.369	-12.33
354.625	-9.55
354.881	-12.19
355.137	-9.13
355.393	-9.38
355.649	-8.74
355.905	-6.67
356.16	-5.08
356.416	-5.15
356.672	-12.87
356.928	-13.56
357.183	-13.78
357.439	-13.45
357.695	-14.73
357.951	-9.9
358.206	-10.36
358.462	-11.31
358.718	-12.5
358.973	-11.32
359.229	-11.28
359.484	-10.54
359.74	-9.31
359.996	-8.55
360.251	-4.82
360.507	-6.31
360.762	-6.45
361.018	-4.64
361.273	-7.01
361.529	-5.84
361.784	-6.1
362.04	-4.22
362.295	-4.38
362.55	-3.29
362.806	-0.61
363.061	-0.88
363.316	-0.68
363.572	-0.88
363.827	0.5
364.082	-1.93
364.338	-1
364.593	-0.27
364.848	1.22
365.104	-0.36
365.359	2.82
365.614	3.15
365.869	0.13
366.124	0.59
366.38	0.47
366.635	2.14
366.89	4.36
367.145	3.43
367.4	6.63
367.655	7.18
367.91	8.22
368.165	4.68
368.42	3.49
368.675	4.98
368.93	5.18
369.185	4.61
369.44	4.83
369.695	7.02
369.95	6.5
370.205	5.81
370.46	3.65
370.715	2.79
370.97	3.62
371.225	3.5
371.48	4.85
371.734	3.8
371.989	5.09
372.244	4.11
372.499	5.09
372.754	4.2
373.008	2.29
373.263	-0.95
373.518	0.77
373.773	-0.68
374.027	-0.64
374.282	0.65
374.537	1.47
374.791	1.13
375.046	1.68
375.301	0.47
375.555	-1.69
375.81	-0.91
376.064	0.01
376.319	2.53
376.573	1.54
376.828	-2.26
377.082	2.19
377.337	1.49
377.591	-0.04
377.846	-0.38
378.1	1.62
378.355	3.04
378.609	2.18
378.863	-0.3
379.118	1.02
379.372	-0.08
379.627	-0.68
379.881	-2.15
380.135	-2.14
380.389	-1.33
380.644	-0.34
380.898	0.93
381.152	1.03
381.407	1.65
381.661	3.79
381.915	3.67
382.169	4.53
382.423	2.51
382.677	-0.55
382.932	-0.34
383.186	0.65
383.44	1.9
383.694	2.91
383.948	0.81
384.202	-0.08
384.456	1.21
384.71	4
384.964	2.7
385.218	4.1
385.472	5.04
385.726	4.47
385.98	5.04
386.234	4.29
386.488	2.85
386.742	3.62
386.996	1.98
387.249	1.38
387.503	2.92
387.757	4
388.011	4.85
388.265	5.23
388.518	5.67
388.772	7.04
389.026	7.85
389.28	6.14
389.533	4.38
389.787	6.81
390.041	4.56
390.295	5.11
390.548	5.16
390.802	8.26
391.055	6.49
391.309	6.57
391.563	5.71
391.816	7.69
392.07	8.15
392.323	8.58
392.577	9.09
392.83	10.29
393.084	14.7
393.337	16.04
393.591	18.28
393.844	17.94
394.098	21.17
394.351	25.58
394.604	26.49
394.858	28.56
395.111	29.99
395.364	27.8
395.618	28.72
395.871	27.26
396.124	25.06
396.378	24.8
396.631	23.93
396.884	22.05
397.137	21.24
397.391	23.23
397.644	21.33
397.897	21.96
398.15	23.25
398.403	25.98
398.657	24.17
398.91	23.96
399.163	23.62
399.416	22.82
399.669	21.47
399.922	19.79
400.175	18.25
400.428	18.04
400.681	17.95
400.934	14.04
401.187	13.25
401.44	11.91
401.693	9.95
401.946	6.37
402.199	0.9
402.452	0.38
402.704	-4.21
402.957	-6.93
403.21	-5.62
403.463	-5.96
403.716	-4.08
403.969	-2.49
404.221	-4.93
404.474	-2.02
404.727	1.32
404.98	3.87
405.232	4.81
405.485	5.67
405.738	8.07
405.99	8.83
406.243	9.21
406.496	10.6
406.748	10.84
407.001	10.2
407.253	11.15
407.506	11.89
407.759	12.58
408.011	10.85
408.264	10.93
408.516	11.53
408.769	9.56
409.021	11.14
409.274	10.99
409.526	12.83
409.778	12.13
410.031	16.58
410.283	16.9
410.536	22.44
410.788	23.41
411.04	21.64
411.293	23.11
411.545	22.54
411.797	22.18
412.049	23.1
412.302	22.35
412.554	21.86
412.806	20.49
413.058	16.97
413.311	17.81
413.563	17.19
413.815	17.31
414.067	15.19
414.319	14.41
414.571	15.2
414.823	13.77
415.075	11.93
415.328	13.52
415.58	17.01
415.832	18.49
416.084	19.58
416.336	18
416.588	21.09
416.84	19.4
417.091	22.36
417.343	19.23
417.595	22.16
417.847	22.81
418.099	23.57
418.351	23.39
418.603	25.71
418.855	28.21
419.106	28.07
419.358	28.46
419.61	27.85
419.862	29.84
420.114	29.01
420.365	28.02
420.617	28.2
420.869	27.08
421.12	26.2
421.372	26.13
421.624	24.85
421.875	26.72
422.127	23.86
422.379	24.77
422.63	27.41
422.882	26.98
423.133	26.67
423.385	26.85
423.636	27.98
423.888	28.24
424.139	30.56
424.391	30.29
424.642	29.39
424.894	28.94
425.145	29.59
425.396	26.44
425.648	28.63
425.899	27.41
426.151	27.32
426.402	26.86
426.653	26.91
426.905	26.05
427.156	24.22
427.407	23.98
427.658	24.41
427.91	22.45
428.161	24.22
428.412	25.98
428.663	27.96
428.914	29.6
429.166	32.23
429.417	33.88
429.668	32.58
429.919	31.51
430.17	31.12
430.421	30.89
430.672	33.73
430.923	33.82
431.174	33.26
431.425	33.88
431.676	34.92
431.927	32.44
432.178	33.23
432.429	34.34
432.68	34.09
432.931	37.41
433.182	42.09
433.433	39.77
433.683	42.66
433.934	42.91
434.185	42.32
434.436	42.47
434.687	44.57
434.937	49.47
435.188	49.45
435.439	48.95
435.69	52.13
435.94	53.41
436.191	55.61
436.442	58.63
436.692	58.63
436.943	56.48
437.194	55.24
437.444	59.05
437.695	63.91
437.945	66.26
438.196	67.92
438.447	69.38
438.697	71.67
438.948	72.29
439.198	71.2
439.449	68.85
439.699	72.08
439.949	73.7
440.2	75.04
440.45	78.67
440.701	80.2
440.951	80.92
441.201	84.34
441.452	84.89
441.702	87.08
441.952	89.84
442.203	92.36
442.453	93.19
442.703	94.31
442.953	98.03
443.204	102.43
443.454	103.86
443.704	104.83
443.954	105.69
444.204	108.07
444.455	111.66
444.705	116.86
444.955	120.52
445.205	121.45
445.455	121.54
445.705	124.17
445.955	127.02
446.205	129.45
446.455	131.4
446.705	133.74
446.955	137.4
447.205	141.74
447.455	145.34
447.705	146.63
447.955	148.32
448.205	149.4
448.454	151.66
448.704	155.24
448.954	155.7
449.204	157.34
449.454	158.1
449.704	160.27
449.953	161.2
450.203	165.1
450.453	164.31
450.703	168.18
450.952	166.95
451.202	169.55
451.452	172.76
451.701	175.44
451.951	178.79
452.201	179.71
452.45	179.43
452.7	181.41
452.949	183.11
453.199	184.25
453.448	185.84
453.698	187.23
453.947	186.96
454.197	187.62
454.446	186.64
454.696	190.55
454.945	190.13
455.195	187.52
455.444	187.35
455.693	190.97
455.943	189.38
456.192	189.2
456.442	189.11
456.691	188.84
456.94	187.78
457.189	187.32
457.439	186.71
457.688	187.54
457.937	186.04
458.186	186.03
458.436	183.88
458.685	184.91
458.934	182.24
459.183	179.12
459.432	179.03
459.681	177.37
459.93	173.58
460.179	171.05
460.429	168.44
460.678	168.04
460.927	169.13
461.176	165.43
461.425	162.39
461.674	162.49
461.923	159.52
462.172	158.03
462.42	152.74
462.669	153.01
462.918	152.92
463.167	150.76
463.416	145.62
463.665	144.68
463.914	143.04
464.162	137.57
464.411	135.87
464.66	137.07
464.909	133.23
465.158	131.82
465.406	128.59
465.655	128.58
465.904	129.03
466.152	128.38
466.401	126.8
466.65	127.05
466.898	124.72
467.147	119.39
467.395	117.19
467.644	117.88
467.893	115.26
468.141	113.61
468.39	110.24
468.638	106.18
468.887	104.52
469.135	103.86
469.384	102.36
469.632	103.14
469.88	102.19
470.129	103.99
470.377	99.83
470.626	100.24
470.874	101.83
471.122	102.08
471.371	99.38
471.619	98.64
471.867	101.02
472.115	99.07
472.364	94.82
472.612	95.84
472.86	93.79
473.108	95.5
473.356	93.3
473.605	92.09
473.853	88.89
474.101	87.39
474.349	85.45
474.597	86.89
474.845	85.58
475.093	82.88
475.341	80.31
475.589	80.75
475.837	81.15
476.085	81.92
476.333	80.54
476.581	82.05
476.829	80.57
477.077	81.93
477.325	80.19
477.573	81.62
477.821	78.4
478.069	78.81
478.317	77.28
478.564	78.47
478.812	76.82
479.06	75.37
479.308	73.33
479.555	72.97
479.803	71.37
480.051	73.61
480.299	74.08
480.546	74.56
480.794	70.38
481.042	72.03
481.289	70.42
481.537	71.16
481.784	70.6
482.032	72.97
482.28	71.67
482.527	72.48
482.775	73.7
483.022	75.45
483.27	76.77
483.517	78.78
483.765	77.88
484.012	78.04
484.259	74.12
484.507	76.99
484.754	76.91
485.002	75.78
485.249	73.48
485.496	76.31
485.744	76.91
485.991	76.5
486.238	73.72
486.486	77.14
486.733	79.44
486.98	81.62
487.227	79.74
487.474	83.3
487.722	84.02
487.969	82.9
488.216	83.28
488.463	85.14
488.71	82.53
488.957	82.15
489.204	83.1
489.451	82.93
489.699	82.38
489.946	80.92
490.193	80.91
490.44	80.78
490.687	80.8
490.934	78.34
491.18	75.64
491.427	77.35
491.674	80.95
491.921	83.23
492.168	80.55
492.415	78.41
492.662	80.33
492.909	83.41
493.155	82.2
493.402	80.98
493.649	80.1
493.896	81.6
494.142	77.66
494.389	77.43
494.636	76.13
494.883	75.49
495.129	73.68
495.376	72.11
495.623	74.44
495.869	75.46
496.116	76.56
496.362	78.43
496.609	80.64
496.855	85.22
497.102	86.03
497.348	85.29
497.595	86.56
497.841	90.19
498.088	89.42
498.334	89.21
498.581	88.73
498.827	89.73
499.074	89.36
499.32	89.36
499.566	93.12
499.813	94.67
500.059	92.72
500.305	93.4
500.552	93.23
500.798	94.77
501.044	98.26
501.29	97.44
501.537	95.41
501.783	98.42
502.029	101.48
502.275	100.35
502.521	100.02
502.767	100.86
503.013	103.88
503.26	101.73
503.506	99.73
503.752	100.67
503.998	99.28
504.244	100.43
504.49	96.75
504.736	98.58
504.982	98.47
505.228	100.61
505.474	100.2
505.72	102.15
505.966	102.76
506.211	107.08
506.457	106.56
506.703	105.1
506.949	103.5
507.195	100.71
507.441	98.78
507.686	103.35
507.932	102.18
508.178	102.24
508.424	99.58
508.669	99.16
508.915	99.47
509.161	100.8
509.406	101.18
509.652	100.12
509.898	103.36
510.143	104.55
510.389	103.6
510.634	100.59
510.88	103.62
511.125	106.09
511.371	106.96
511.616	107.66
511.862	105.12
512.107	103.3
512.353	103.96
512.598	104.07
512.844	102.01
513.089	99.5
513.335	98.86
513.58	97.5
513.825	96.51
514.071	96.99
514.316	96.97
514.561	98.06
514.806	98.52
515.052	99.76
515.297	96.84
515.542	99.06
515.787	99.95
516.033	101.31
516.278	100.1
516.523	100.26
516.768	99.84
517.013	98.55
517.258	97.89
517.503	96.54
517.748	96.4
517.993	96.42
518.238	95.87
518.483	92.88
518.728	92.33
518.973	90.79
519.218	90.17
519.463	91.49
519.708	90.09
519.953	87.26
520.198	87.33
520.443	89.25
520.688	92.16
520.933	93.56
521.177	93.66
521.422	92.26
521.667	93.56
521.912	93.44
522.157	91.41
522.401	93.62
522.646	94.21
522.891	95.19
523.135	94.06
523.38	94.69
523.625	93.55
523.869	95.54
524.114	97.27
524.358	96.38
524.603	95.73
524.848	93.49
525.092	93.34
525.337	95.16
525.581	98.15
525.826	101.71
526.07	102.99
526.315	102.67
526.559	101.21
526.803	99.61
527.048	101.93
527.292	104.04
527.537	104.3
527.781	104.28
528.025	102.25
528.269	102.68
528.514	100.88
528.758	99.86
529.002	99.3
529.247	100.84
529.491	100.98
529.735	104.36
529.979	102.96
530.223	104.11
530.467	101.74
530.712	100.68
530.956	98.49
531.2	99.67
531.444	97.72
531.688	99.28
531.932	99.13
532.176	100.24
532.42	101.97
532.664	102.75
532.908	100.46
533.152	97.13
533.396	94.19
533.64	94.43
533.884	93.58
534.128	93.39
534.371	94.57
534.615	93.92
534.859	91.78
535.103	90.79
535.347	90.48
535.59	90.82
535.834	87.55
536.078	87.63
536.322	89.28
536.565	91.08
536.809	88.93
537.053	90
537.296	88.2
537.54	87.43
537.784	85.75
538.027	87.23
538.271	86.46
538.514	85.51
538.758	85.19
539.001	83.14
539.245	82.17
539.488	82.01
539.732	82.25
539.975	81.48
540.219	82.02
540.462	82.09
540.706	83.4
540.949	84.07
541.192	83.76
541.436	88.61
541.679	92.93
541.922	93.43
542.166	90.9
542.409	92.19
542.652	93.3
542.895	94.18
543.139	94.39
543.382	98.63
543.625	99.2
543.868	98.77
544.111	98.25
544.354	97.6
544.598	96.17
544.841	95.77
545.084	94.98
545.327	95
545.57	96.04
545.813	97.57
546.056	96.62
546.299	96.4
546.542	98.56
546.785	99.56
547.028	99.91
547.271	99.29
547.514	99.41
547.756	97.4
547.999	97.46
548.242	97.36
548.485	95.98
548.728	95.84
548.971	91.6
549.213	92.51
549.456	90.44
549.699	89.88
549.942	89.77
550.184	89
550.427	88.54
550.67	89.1
550.912	84.99
551.155	86.04
551.398	84.66
551.64	84.31
551.883	84.01
552.125	83.4
552.368	83.94
552.61	81.86
552.853	83.53
553.095	81.88
553.338	81.06
553.58	82.64
553.823	81.56
554.065	84.42
554.308	81.6
554.55	79.88
554.792	77.33
555.035	76.11
555.277	73.29
555.519	75.04
555.762	73.16
556.004	73.21
556.246	70.42
556.488	71.26
556.731	65.92
556.973	67.74
557.215	66.87
557.457	67.39
557.699	69.05
557.941	65.89
558.183	65.04
558.426	67.11
558.668	63.41
558.91	64.32
559.152	63.32
559.394	62.87
559.636	65.3
559.878	65.21
560.12	64.06
560.362	64.9
560.604	64.81
560.845	63.74
561.087	61.64
561.329	63.68
561.571	60.48
561.813	60.12
562.055	59.53
562.297	61.6
562.538	62.58
562.78	66.79
563.022	64.17
563.264	65.76
563.505	65.93
563.747	65.93
563.989	62.77
564.23	64.34
564.472	63.52
564.714	65.95
564.955	66.29
565.197	63.2
565.438	65.82
565.68	67.96
565.921	64.65
566.163	66.01
566.404	64.78
566.646	68.47
566.887	69.67
567.129	70.6
567.37	69.52
567.612	71.37
567.853	68.04
568.094	69.33
568.336	69.86
568.577	71.4
568.818	71.59
569.06	69.17
569.301	67.83
569.542	69.02
569.783	68.7
570.025	68.36
570.266	68.07
570.507	68.71
570.748	68.53
570.989	70.2
571.23	72.49
571.472	73.64
571.713	71.62
571.954	74.25
572.195	73.27
572.436	74.23
572.677	76.51
572.918	78.48
573.159	76.26
573.4	75.99
573.641	74.76
573.882	74.79
574.123	70.41
574.364	67.32
574.604	66.51
574.845	65.02
575.086	64.95
575.327	65.49
575.568	64.87
575.809	63.77
576.049	61.94
576.29	58.98
576.531	63.62
576.771	66.24
577.012	68.42
577.253	68.39
577.494	67.36
577.734	67.31
577.975	67.24
578.215	66.34
578.456	63.85
578.697	64.21
578.937	65.02
579.178	64.46
579.418	61.35
579.659	59.99
579.899	55.79
580.14	54.36
580.38	52.11
580.62	51.22
580.861	54.81
581.101	54.93
581.342	55.55
581.582	52.78
581.822	53.99
582.063	51.95
582.303	53.17
582.543	53.99
582.783	54.79
583.024	55.39
583.264	58.2
583.504	56.27
583.744	57.79
583.984	55.5
584.224	54.92
584.465	51.06
584.705	51.73
584.945	52.92
585.185	52.87
585.425	53.55
585.665	53.99
585.905	52.76
586.145	51.2
586.385	49.64
586.625	52.44
586.865	51.6
587.105	51.17
587.345	52.99
587.585	52.44
587.824	52.04
588.064	53.57
588.304	50.66
588.544	51.31
588.784	49.18
589.024	51.47
589.263	51.42
589.503	50.83
589.743	51.99
589.982	51.01
590.222	50.6
590.462	48.78
590.701	45.92
590.941	50.08
591.181	49.37
591.42	48.33
591.66	49.45
591.899	53.35
592.139	51.87
592.378	52.57
592.618	51.52
592.857	49.72
593.097	48.86
593.336	48.7
593.576	46.54
593.815	47.76
594.055	46.45
594.294	47.78
594.533	47.27
594.773	46.49
595.012	49.3
595.251	48.6
595.491	50.2
595.73	51.72
595.969	51.74
596.208	53.76
596.447	57.69
596.687	57.64
596.926	57.49
597.165	55.21
597.404	57.21
597.643	56.27
597.882	55.3
598.121	56.83
598.36	56.2
598.599	57.19
598.838	56.51
599.077	53.97
599.316	54.33
599.555	54.75
599.794	55.1
600.033	55.23
600.272	57.58
600.511	55.99
600.75	57.79
600.989	61.84
601.228	60.86
601.466	60.52
601.705	60.93
601.944	62.55
602.183	63.62
602.422	61.95
602.66	61.38
602.899	59.26
603.138	58.22
603.376	57.55
603.615	57.04
603.854	55.35
604.092	54.92
604.331	55.53
604.569	57.42
604.808	56.17
605.047	57.67
605.285	58.11
605.524	57.42
605.762	56.59
606	57.13
606.239	58.28
606.477	58.54
606.716	55.07
606.954	54.32
607.193	51.03
607.431	48.69
607.669	46.56
607.908	47
608.146	48.71
608.384	47.08
608.622	46.89
608.861	46.18
609.099	44.79
609.337	43.62
609.575	43.4
609.813	43.7
610.052	43.55
610.29	40.92
610.528	39.58
610.766	39.01
611.004	38.55
611.242	36.73
611.48	36.6
611.718	35.51
611.956	34.95
612.194	33.75
612.432	31.65
612.67	30.79
612.908	32.92
613.146	31.45
613.384	30.22
613.621	29.27
613.859	30.72
614.097	29.77
614.335	30.73
614.573	32.9
614.811	33.9
615.048	33.46
615.286	34.91
615.524	32.74
615.761	29.5
615.999	30.3
616.237	29.37
616.474	31.29
616.712	30.78
616.95	30.3
617.187	29.87
617.425	31.51
617.662	32.57
617.9	31.45
618.137	30.22
618.375	30.02
618.612	28.84
618.85	31.6
619.087	34.07
619.325	33.39
619.562	32.77
619.799	32.32
620.037	31.77
620.274	29.04
620.511	29.58
620.749	28.42
620.986	26.31
621.223	22.99
621.461	22.63
621.698	23.16
621.935	21.1
622.172	20.56
622.409	22.45
622.647	21.34
622.884	20.38
623.121	22.79
623.358	21.24
623.595	23.2
623.832	22.28
624.069	21.76
624.306	22.24
624.543	23.73
624.78	24.83
625.017	25.44
625.254	27.72
625.491	29.61
625.728	30.65
625.965	32.19
626.202	30.1
626.438	28.03
626.675	27.49
626.912	28.8
627.149	29.53
627.386	29.99
627.622	29.47
627.859	29.06
628.096	29.39
628.333	31.17
628.569	31.21
628.806	33.63
629.043	33.4
629.279	35.52
629.516	36.57
629.752	32.85
629.989	33.49
630.225	31.98
630.462	32.07
630.699	32.23
630.935	31.14
631.171	29.58
631.408	30.03
631.644	27.51
631.881	24.61
632.117	21.95
632.354	22.84
632.59	20.91
632.826	20.39
633.063	19.52
633.299	19.21
633.535	17.74
633.771	16.8
634.008	18.13
634.244	17.9
634.48	16.7
634.716	18.89
634.953	18.9
635.189	20.21
635.425	20.99
635.661	22.99
635.897	23.75
636.133	22.91
636.369	21.78
636.605	19.02
636.841	18.26
637.077	19.06
637.313	18.25
637.549	18.99
637.785	17.77
638.021	18.89
638.257	17.83
638.493	19.07
638.729	17.19
638.965	21.17
639.2	22.67
639.436	21.67
639.672	20.23
639.908	20.01
640.144	23.3
640.379	26.6
640.615	25.09
640.851	27.08
641.086	27.56
641.322	26.54
641.558	26.12
641.793	27.35
642.029	24.94
642.264	23.38
642.5	23.05
642.736	20.43
642.971	20.11
643.207	18.03
643.442	16.08
643.678	16.45
643.913	17.91
644.148	17.38
644.384	21.69
644.619	21.53
644.855	22.77
645.09	24.46
645.325	24.05
645.561	24.62
645.796	22.22
646.031	25.31
646.266	22.07
646.502	20.22
646.737	23.2
646.972	23.58
647.207	23.38
647.442	20.97
647.678	18.98
647.913	21.52
648.148	22.25
648.383	22.87
648.618	22.6
648.853	24.08
649.088	26.08
649.323	28.79
649.558	29.85
649.793	30.38
650.028	32.17
650.263	30.57
650.498	32.62
650.733	32.85
650.968	31.85
651.202	32.94
651.437	31.97
651.672	27.07
651.907	26.46
652.142	26.06
652.376	25.98
652.611	26.5
652.846	27.61
653.081	28.93
653.315	28.11
653.55	29.25
653.785	29.35
654.019	29.27
654.254	28.57
654.488	29.26
654.723	25.56
654.958	22.39
655.192	21.25
655.427	17.76
655.661	18.12
655.896	20.33
656.13	21.02
656.364	17.6
656.599	14.5
656.833	16.2
657.068	18.08
657.302	17.39
657.536	15.56
657.771	16.99
658.005	17.81
658.239	17.79
658.474	15.65
658.708	15.53
658.942	16.48
659.176	15.3
659.41	13.03
659.645	11.49
659.879	10.17
660.113	7.98
660.347	7.41
660.581	4.34
660.815	3.3
661.049	3.01
661.283	0.68
661.517	-0.98
661.751	-1.5
661.985	-0.48
662.219	0.23
662.453	-0.89
662.687	0.48
662.921	-2.53
663.155	-2.35
663.389	-7.4
663.622	-7.97
663.856	-7
664.09	-7.88
664.324	-9.8
664.558	-10.25
664.791	-10.09
665.025	-11.31
665.259	-11.05
665.492	-11.39
665.726	-8.22
665.96	-7.39
666.193	-8.98
666.427	-6.65
666.661	-7.09
666.894	-6.7
667.128	-6.88
667.361	-5.88
667.595	-5.62
667.828	-3.69
668.062	-3.9
668.295	-4.18
668.529	-3.65
668.762	-3.78
668.995	-4.5
669.229	-1.38
669.462	-0.88
669.695	-0.97
669.929	-1.58
670.162	-0.21
670.395	-2.37
670.629	-0.13
670.862	1.63
671.095	-0.05
671.328	0.09
671.561	-1.81
671.795	-0.57
672.028	-0.17
672.261	0.42
672.494	1.36
672.727	0.64
672.96	0.67
673.193	-0.22
673.426	2.58
673.659	2.18
673.892	4.21
674.125	3.61
674.358	3.35
674.591	1.55
674.824	0.1
675.057	-1.68
675.29	-2.94
675.523	-2.16
675.755	-3.81
675.988	-3.66
676.221	-1.65
676.454	-3.33
676.687	-2.36
676.919	-3.54
677.152	-3.62
677.385	-4.75
677.617	-3.96
677.85	-2.94
678.083	-3.49
678.315	-2.41
678.548	-3.86
678.78	-4.16
679.013	-4.42
679.246	-4.23
679.478	-2.7
679.711	-5.04
679.943	-4.04
680.175	-7.44
680.408	-2.96
680.64	-6.82
680.873	-7.41
681.105	-7.09
681.338	-4.07
681.57	-4.38
681.802	-2.53
682.034	-2.21
682.267	1.54
682.499	4.19
682.731	3.28
682.964	3.57
683.196	4.32
683.428	2.63
683.66	1.54
683.892	4.1
684.124	7.07
684.356	9.53
684.589	10.75
684.821	9.21
685.053	8.26
685.285	8.06
685.517	10.6
685.749	10.99
685.981	12.02
686.213	11.75
686.445	12.27
686.676	9.68
686.908	11.25
687.14	10.13
687.372	11.95
687.604	8.55
687.836	10.67
688.068	11.45
688.299	10.31
688.531	7.48
688.763	11.05
688.995	10.45
689.226	12.45
689.458	10.49
689.69	8.23
689.921	7.06
690.153	7.23
690.384	7.8
690.616	7.09
690.848	8.74
691.079	6.1
691.311	3.08
691.542	0.12
691.774	-2.12
692.005	0.13
692.237	2.42
692.468	0.21
692.699	-1.35
692.931	-1.77
693.162	-3.29
693.393	-3.11
693.625	-3.58
693.856	-4.53
694.087	-5.17
694.319	-4.75
694.55	-5.38
694.781	-5.58
695.012	-5.37
695.243	-7.36
695.475	-8.13
695.706	-7.97
695.937	-9.05
696.168	-9.94
696.399	-11.35
696.63	-11.57
696.861	-10.09
697.092	-4.43
697.323	-1.64
697.554	-1.48
697.785	-0.54
698.016	-0.43
698.247	-1.97
698.478	0.36
698.709	2.41
698.94	5.29
699.171	5.38
699.401	2.54
699.632	4.96
699.863	2.16
700.094	2.11
700.325	5.37
700.555	6.24
700.786	7.39
701.017	9.05
701.247	8.39
701.478	9.54
701.709	9.87
701.939	8.08
702.17	10.07
702.401	13.07
702.631	15.44
702.862	14.2
703.092	12.04
703.323	14.55
703.553	16.6
703.784	16.75
704.014	15.75
704.244	10.53
704.475	9.62
704.705	9.82
704.936	10.76
705.166	9.34
705.396	10.04
705.627	9.97
705.857	9.03
706.087	8.05
706.317	6.71
706.548	6.12
706.778	6.33
707.008	7.18
707.238	7.56
707.468	4.89
707.698	2.05
707.928	0.86
708.158	0.16
708.389	0.92
708.619	-0.89
708.849	-1.84
709.079	-0.46
709.309	-4.61
709.539	-7.86
709.768	-8.54
709.998	-5.43
710.228	-5.61
710.458	-7.17
710.688	-9.22
710.918	-9.55
711.148	-11.12
711.378	-10.73
711.607	-12.24
711.837	-11.1
712.067	-10.61
712.297	-10.75
712.526	-9.82
712.756	-9.89
712.986	-11.78
713.215	-12.66
713.445	-12.34
713.674	-11.52
713.904	-12.92
714.134	-9.38
714.363	-9.64
714.593	-11.82
714.822	-11.5
715.052	-11.28
715.281	-9.66
715.511	-10.84
715.74	-9.41
715.969	-10.6
716.199	-11.33
716.428	-10.01
716.657	-8.92
716.887	-6.41
717.116	-8.96
717.345	-7.75
717.575	-7.35
717.804	-6.53
718.033	-6.51
718.262	-6.27
718.492	-5.86
718.721	-4.79
718.95	-5.5
719.179	-8.18
719.408	-7.23
719.637	-10.59
719.866	-11.91
720.095	-10.11
720.324	-9.98
720.553	-13.89
720.782	-15.18
721.011	-15.59
721.24	-18
721.469	-18.67
721.698	-17.12
721.927	-16.7
722.156	-18.89
722.385	-20.87
722.613	-18.21
722.842	-18.12
723.071	-13.96
723.3	-12.73
723.529	-12.58
723.757	-12.3
723.986	-15.21
724.215	-15.86
724.443	-14.75
724.672	-13.45
724.901	-14.69
725.129	-13.51
725.358	-10.44
725.586	-12.81
725.815	-13.7
726.043	-15.83
726.272	-16.4
726.5	-16.96
726.729	-15
726.957	-16.61
727.186	-17.25
727.414	-15.78
727.642	-14.42
727.871	-13.77
728.099	-14
728.327	-14.91
728.556	-14.13
728.784	-12.13
729.012	-13.77
729.241	-9.92
729.469	-10.07
729.697	-13.25
729.925	-13.73
730.153	-16.55
730.381	-16.87
730.61	-16.24
730.838	-17.62
731.066	-17.89
731.294	-17.79
731.522	-20.33
731.75	-23.44
731.978	-23.04
732.206	-23.56
732.434	-24.1
732.662	-20.82
732.89	-21.66
733.118	-21.43
733.346	-20.66
733.573	-19.76
733.801	-19.7
734.029	-14.52
734.257	-14.76
734.485	-12.09
734.712	-9.31
734.94	-10.77
735.168	-7.17
735.396	-6.01
735.623	-6.59
735.851	-7.51
736.078	-6.01
736.306	-6.11
736.534	-6.17
736.761	-5.11
736.989	-6.77
737.216	-8.02
737.444	-9.85
737.671	-10.18
737.899	-7.05
738.126	-8.45
738.354	-7.84
738.581	-7.5
738.809	-5.61
739.036	-7.2
739.263	-6.62
739.491	-8.45
739.718	-8.44
739.945	-4.48
740.173	-3.28
740.4	-4.06
740.627	-5.56
740.854	-4.69
741.081	-7.54
741.309	-7.6
741.536	-12.11
741.763	-14.64
741.99	-13.85
742.217	-15.05
742.444	-16.4
742.671	-14.5
742.898	-14.67
743.125	-17.03
743.352	-19.8
743.579	-19.99
743.806	-20.27
744.033	-17.3
744.26	-16.17
744.487	-15.79
744.714	-15.41
744.941	-15.25
745.167	-10.59
745.394	-11.65
745.621	-11.8
745.848	-11.67
746.075	-9.67
746.301	-8.13
746.528	-4.53
746.755	-6.67
746.981	-7.39
747.208	-4.84
747.435	-2.2
747.661	-2.2
747.888	-1.85
748.114	-3.23
748.341	-0.98
748.567	0.63
748.794	-0.02
749.02	0.21
749.247	-1.43
749.473	-1.52
749.7	-2.24
749.926	-1.76
750.152	2.19
750.379	2.07
750.605	1.99
750.831	1.67
751.058	0.16
751.284	-0.85
751.51	0.59
751.737	3.44
751.963	1.8
752.189	-0.11
752.415	-1.33
752.641	-0.23
752.867	-1.71
753.094	-3.07
753.32	-3.86
753.546	-5.52
753.772	-4.01
753.998	-5.88
754.224	-6.64
754.45	-8.08
754.676	-7.59
754.902	-8.64
755.128	-8.27
755.354	-9.46
755.579	-7.66
755.805	-5.73
756.031	-6.42
756.257	-7.58
756.483	-9
756.709	-10.01
756.934	-10.03
757.16	-11.57
757.386	-11.59
757.612	-12.66
757.837	-13.21
758.063	-10.94
758.289	-8.11
758.514	-8.17
758.74	-11.88
758.965	-13.05
759.191	-11.54
759.416	-9.37
759.642	-9.7
759.868	-9.32
760.093	-7.24
760.318	-8.69
760.544	-8.94
760.769	-9.65
760.995	-9.22
761.22	-10.43
761.445	-7.76
761.671	-6.27
761.896	-4
762.121	-4.88
762.347	-5.48
762.572	-8.45
762.797	-8.17
763.022	-7.68
763.248	-2.29
763.473	-0.8
763.698	-1.65
763.923	-2.1
764.148	-2.66
764.373	-1.8
764.598	0.33
764.823	2.19
765.048	-0.42
765.273	-3.29
765.498	-4.19
765.723	-4.7
765.948	-3.55
766.173	-4.06
766.398	-2.44
766.623	-4.64
766.848	-4.74
767.073	-6.39
767.298	-7.51
767.522	-6.99
767.747	-7.32
767.972	-7.82
768.197	-7.95
768.421	-10.45
768.646	-12.71
768.871	-14.48
769.095	-12.95
769.32	-12.04
769.545	-11.29
769.769	-11.32
769.994	-10.53
770.218	-13.68
770.443	-12.7
770.667	-10.75
770.892	-10.27
771.116	-10.24
771.341	-10.8
771.565	-11.55
771.79	-11.93
772.014	-11.97
772.238	-13.97
772.463	-11.74
772.687	-9.31
772.911	-10.93
773.136	-14.28
773.36	-14.41
773.584	-12.1
773.808	-13.37
774.033	-13.64
774.257	-12.97
774.481	-14.36
774.705	-13.63
774.929	-13.3
775.153	-12.9
775.377	-11.03
775.602	-10.54
775.826	-10.84
776.05	-8.72
776.274	-10.13
776.498	-11.02
776.722	-11.28
776.945	-9.95
777.169	-10.58
777.393	-10.84
777.617	-13.3
777.841	-12.99
778.065	-11.68
778.289	-11.52
778.512	-12.39
778.736	-11.39
778.96	-11.64
779.184	-8.37
779.407	-9.93
779.631	-10.47
779.855	-10.75
780.078	-8.35
780.302	-10.46
780.526	-12.68
780.749	-12.07
780.973	-9.78
781.196	-9.54
781.42	-10.92
781.643	-10.4
781.867	-9.54
782.09	-11.04
782.314	-11.36
782.537	-11.53
782.76	-11.72
782.984	-11.56
783.207	-10.53
783.431	-10.5
783.654	-12.09
783.877	-14.66
784.1	-15.09
784.324	-16.9
784.547	-16.65
784.77	-18.95
784.993	-19.6
785.216	-19.3
785.44	-18.55
785.663	-19.55
785.886	-17.66
786.109	-17.55
786.332	-17.25
786.555	-17.3
786.778	-15.94
787.001	-16
787.224	-13.1
787.447	-11.37
787.67	-10.3
787.893	-9.92
788.116	-8.92
788.339	-7.23
788.561	-8.51
788.784	-11.49
789.007	-12.73
789.23	-14.14
789.453	-15.17
789.675	-16.58
789.898	-18.8
790.121	-20.8
790.344	-20.43
790.566	-19.75
790.789	-18.26
791.012	-18.05
791.234	-14.95
791.457	-11.5
791.679	-10.3
791.902	-10.86
792.124	-12.06
792.347	-12.84
792.569	-13.96
792.792	-16.79
793.014	-14.65
793.237	-12.41
793.459	-13.1
793.681	-13.55
793.904	-13.79
794.126	-16.14
794.348	-17.01
794.571	-14.95
794.793	-18.18
795.015	-17.52
795.237	-19.72
795.46	-18.77
795.682	-17.44
795.904	-14.81
796.126	-16.14
796.348	-17.04
796.57	-14.03
796.792	-13.61
797.014	-9.82
797.237	-8.99
797.459	-5.94
797.681	-5.8
797.903	-7.59
798.124	-7.19
798.346	1.28
798.568	2.06
798.79	5.22
799.012	7.65
799.234	8.73
799.456	10.86
799.678	13.03
799.899	9.6
800.121	6.02
800.343	6.78
800.565	7.09
800.786	7.01
801.008	8.12
801.23	7.19
801.451	6.81
801.673	6.46
801.895	5.29
802.116	8.51
802.338	9.47
802.559	8.26
802.781	6.35
803.002	8.53
803.224	10.42
803.445	8.6
803.667	9.44
803.888	6.84
804.109	7.49
804.331	5.23
804.552	5.46
804.773	8.65
804.995	5.65
805.216	-5.46
805.437	-7.11
805.658	-10.09
805.88	-12.36
806.101	-11.85
806.322	-13.05
806.543	-14.47
806.764	-16.12
806.985	-13.83
807.207	-14.4
807.428	-14.19
807.649	-16.7
807.87	-17.38
808.091	-16.06
808.312	-16.79
808.533	-12.88
808.754	-11.76
808.975	-13.95
809.195	-12.3
809.416	-10.73
809.637	-10.24
809.858	-12.69
810.079	-12.76
810.3	-11.72
810.52	-12.65
810.741	-13.74
810.962	-14.98
811.183	-15.37
811.403	-16.28
811.624	-17.15
811.845	-14.62
812.065	-12.7
812.286	-12.13
812.506	-11.95
812.727	-12.06
812.948	-10.94
813.168	-9.9
813.389	-9.95
813.609	-8.95
813.83	-9.25
814.05	-9.74
814.27	-9.46
814.491	-5.67
814.711	-7.53
814.931	-9.86
815.152	-9.86
815.372	-10.87
815.592	-10.97
815.813	-12.02
816.033	-13.53
816.253	-12.84
816.473	-14.67
816.694	-13.33
816.914	-12.25
817.134	-11.21
817.354	-12.61
817.574	-11.06
817.794	-11.15
818.014	-11.31
818.234	-10.35
818.454	-11.28
818.674	-12.92
818.894	-15.27
819.114	-13.39
819.334	-13.1
819.554	-11.29
819.774	-9.81
819.994	-11.33
820.214	-12.4
820.433	-11.48
820.653	-13.87
820.873	-11.76
821.093	-11.36
821.312	-14.13
821.532	-12.3
821.752	-10.3
821.972	-10.92
822.191	-11.04
822.411	-12.92
822.63	-10.7
822.85	-10.79
823.07	-13.6
823.289	-11.79
823.509	-12.54
823.728	-11.2
823.948	-13.14
824.167	-13.56
824.387	-13.74
824.606	-11.72
824.825	-13.25
825.045	-13.38
825.264	-13.25
825.483	-12.86
825.703	-12.09
825.922	-14.14
826.141	-13.94
826.361	-13.23
826.58	-16.92
826.799	-17.46
827.018	-15.66
827.237	-14.07
827.456	-12.58
827.676	-12.48
827.895	-11.89
828.114	-11.1
828.333	-11.7
828.552	-9.4
828.771	-9.83
828.99	-11.78
829.209	-9.7
829.428	-8.81
829.647	-8.61
829.866	-5.6
830.084	-6.63
830.303	-7.72
830.522	-9.78
830.741	-9.75
830.96	-8.71
831.179	-8.57
831.397	-10.64
831.616	-9.16
831.835	-10.3
832.053	-9.08
832.272	-7.8
832.491	-5.43
832.709	-6.67
832.928	-6.65
833.147	-7.15
833.365	-5.89
833.584	-4.44
833.802	-2.78
834.021	-3.8
834.239	-2.5
834.458	-4.35
834.676	-7.33
834.894	-7.19
835.113	-6.84
835.331	-9.08
835.55	-8.09
835.768	-6.54
835.986	-6.85
836.204	-9
836.423	-8.7
836.641	-10.93
836.859	-10.71
837.077	-8.38
837.296	-8.35
837.514	-8.98
837.732	-9.69
837.95	-11.07
838.168	-9.61
838.386	-10.9
838.604	-8.88
838.822	-9.18
839.04	-10.98
839.258	-11.97
839.476	-9.38
839.694	-10.23
839.912	-10.69
840.13	-10.86
840.348	-9.32
840.566	-11.99
840.783	-10.09
841.001	-10.88
841.219	-9.12
841.437	-8.79
841.655	-7.24
841.872	-7.14
842.09	-7.5
842.308	-7.74
842.525	-6.89
842.743	-5.52
842.961	-5.82
843.178	-8.21
843.396	-4.26
843.613	-3.43
843.831	-2.06
844.048	-2.15
844.266	-1.51
844.483	-1.24
844.701	-2.19
844.918	-2.78
845.136	-2.27
845.353	-4.07
845.57	-4.17
845.788	-1.39
846.005	-1.84
846.222	-2.94
846.439	-1.14
846.657	-1.81
846.874	-2.02
847.091	-3.49
847.308	-2.45
847.526	-4.46
847.743	-4.86
847.96	-7.6
848.177	-6.45
848.394	-7.97
848.611	-8.06
848.828	-7.87
849.045	-8.21
849.262	-8.43
849.479	-9.29
849.696	-10.51
849.913	-11.15
850.13	-16.23
850.347	-13.64
850.564	-15.08
850.78	-16.02
850.997	-17.78
851.214	-17.82
851.431	-16.7
851.647	-17.44
851.864	-16.64
852.081	-15.45
852.298	-18.21
852.514	-19.64
852.731	-20.14
852.948	-18.9
853.164	-18.26
853.381	-17.6
853.597	-18.34
853.814	-19.23
854.03	-21.82
854.247	-20
854.463	-19.98
854.68	-20.93
854.896	-20.71
855.113	-20.43
855.329	-20.88
855.545	-19.62
855.762	-19.47
855.978	-22.8
856.194	-24.42
856.411	-20.78
856.627	-19.27
856.843	-18.43
857.059	-18.99
857.275	-20.93
857.492	-19.85
857.708	-16.29
857.924	-15.58
858.14	-14.15
858.356	-15.17
858.572	-15.89
858.788	-16.97
859.004	-16.24
859.22	-18.16
859.436	-18.01
859.652	-19.16
859.868	-20.89
860.084	-22.66
860.3	-21.72
860.516	-21.97
860.731	-21.09
860.947	-22.92
861.163	-21.26
861.379	-19.06
861.595	-18.13
861.81	-17.27
862.026	-17.35
862.242	-16.87
862.457	-18.08
862.673	-16.4
862.889	-15.69
863.104	-16.13
863.32	-14.9
863.535	-13.98
863.751	-16.54
863.966	-12.97
864.182	-11.05
864.397	-12.97
864.613	-14.67
864.828	-15.29
865.044	-15.06
865.259	-13.33
865.474	-12.87
865.69	-9.97
865.905	-8.51
866.12	-8.3
866.336	-8.21
866.551	-7.86
866.766	-8.03
866.981	-9.44
867.196	-9.23
867.412	-8.15
867.627	-8.97
867.842	-10.49
868.057	-10.43
868.272	-11.88
868.487	-12.95
868.702	-13.68
868.917	-15.45
869.132	-13.35
869.347	-13.09
869.562	-14.93
869.777	-14.83
869.992	-15.79
870.207	-16.57
870.422	-16.64
870.636	-19.38
870.851	-21.6
871.066	-23.24
871.281	-21
871.495	-23.04
871.71	-19.44
871.925	-20.54
872.14	-22.13
872.354	-25.24
872.569	-25.27
872.783	-24.87
872.998	-24.44
873.213	-25.85
873.427	-22.33
873.642	-20.8
873.856	-20.32
874.071	-21.44
874.285	-22.28
874.5	-24.1
874.714	-24.89
874.928	-24.16
875.143	-24.38
875.357	-24.87
875.571	-25.92
875.786	-25.95
876	-22.47
876.214	-20.24
876.429	-22.46
876.643	-22.61
876.857	-20.75
877.071	-20.09
877.285	-20.22
877.499	-22.8
877.714	-19.16
877.928	-19.05
878.142	-19.54
878.356	-21.9
878.57	-21.36
878.784	-19.48
878.998	-20.35
879.212	-19.54
879.426	-22.01
879.639	-20.88
879.853	-20.36
880.067	-21.46
880.281	-23.64
880.495	-22.26
880.709	-19.65
880.922	-18.5
881.136	-15.95
881.35	-14.43
881.564	-15.02
881.777	-17.04
881.991	-15.28
882.205	-12.42
882.418	-13.29
882.632	-15.63
882.845	-16.21
883.059	-16.5
883.273	-17.18
883.486	-19.01
883.7	-16.65
883.913	-16.67
884.126	-14.85
884.34	-18.53
884.553	-20.41
884.767	-16.04
884.98	-16.6
885.193	-18.52
885.407	-19.79
885.62	-17.1
885.833	-16.91
886.046	-14.89
886.26	-17.24
886.473	-18.04
886.686	-18.69
886.899	-16.57
887.112	-18.37
887.326	-21.49
887.539	-20.41
887.752	-19.31
887.965	-22.6
888.178	-21.63
888.391	-20.97
888.604	-20.73
888.817	-21.7
889.03	-20.44
889.243	-21.23
889.455	-24.23
889.668	-22.42
889.881	-18.98
890.094	-19.89
890.307	-22.92
890.52	-22.23
890.732	-21.27
890.945	-20.71
891.158	-20.6
891.37	-23.68
891.583	-23.19
891.796	-21.09
892.008	-22.41
892.221	-23.64
892.434	-27.33
892.646	-27.57
892.859	-26.51
893.071	-24.37
893.284	-22.3
893.496	-22.8
893.709	-21.86
893.921	-19.46
894.133	-20.37
894.346	-21.27
894.558	-20.36
894.771	-20.51
894.983	-17.48
895.195	-16.97
895.407	-17.3
895.62	-18.87
895.832	-19.27
896.044	-15.81
896.256	-17.13
896.468	-19.8
896.681	-17.32
896.893	-17.18
897.105	-16.89
897.317	-18.36
897.529	-17.76
897.741	-15.62
897.953	-13.77
898.165	-15.1
898.377	-16.6
898.589	-13.76
898.801	-13.29
899.013	-10.21
899.224	-9.11
899.436	-7.72
899.648	-9.09
899.86	-10.94
900.072	-8.77
900.283	-8.28
900.495	-8.55
900.707	-8.14
900.919	-10.87
901.13	-10.63
901.342	-11.95
901.554	-14.14
901.765	-14.86
901.977	-17.16
902.188	-17.62
902.4	-18.95
902.611	-21.19
902.823	-20.91
903.034	-22.3
903.246	-24.55
903.457	-24.76
903.669	-24.83
903.88	-23.71
904.091	-22.23
904.303	-21.95
904.514	-22.59
904.725	-21.19
904.936	-20.24
905.148	-21.9
905.359	-20.61
905.57	-22.08
905.781	-23.7
905.992	-24.42
906.204	-24.59
906.415	-24.85
906.626	-26.95
906.837	-24.74
907.048	-25.16
907.259	-25.24
907.47	-25.9
907.681	-24.85
907.892	-22.4
908.103	-22.22
908.314	-23.38
908.525	-19.92
908.735	-18.93
908.946	-19.93
909.157	-19.5
909.368	-17.79
909.579	-16.29
909.789	-17.9
910	-18.12
910.211	-16.15
910.421	-16.67
910.632	-16.49
910.843	-18.81
911.053	-16.32
911.264	-14.09
911.475	-15.38
911.685	-14.19
911.896	-14.07
912.106	-13.29
912.317	-14.32
912.527	-12.94
912.737	-12.24
912.948	-12
913.158	-11.4
913.369	-15.23
913.579	-12.22
913.789	-11.45
914	-8.47
914.21	-7.91
914.42	-9.4
914.63	-9.21
914.841	-8.77
915.051	-7.23
915.261	-7.7
915.471	-3.48
915.681	-2.35
915.891	-3.02
916.101	-5.31
916.311	-3.8
916.521	-2.93
916.731	-3.48
916.941	-1.55
917.151	-3.09
917.361	-0.56
917.571	-3.82
917.781	-6.01
917.991	-7.68
918.201	-7.96
918.411	-10.76
918.621	-10.95
918.83	-8.94
919.04	-11.61
919.25	-9.25
919.46	-6.89
919.669	-8.58
919.879	-8.69
920.089	-12.71
920.298	-14.55
920.508	-13.97
920.717	-14.06
920.927	-15.44
921.136	-15.31
921.346	-17.16
921.555	-20.16
921.765	-19.7
921.974	-21.48
922.184	-24.28
922.393	-24.7
922.603	-23.89
922.812	-22.57
923.021	-23.16
923.23	-25.34
923.44	-28.25
923.649	-29.03
923.858	-30.47
924.067	-30.66
924.277	-31.84
924.486	-29.49
924.695	-30.25
924.904	-28.85
925.113	-28.42
925.322	-28.62
925.531	-27.31
925.74	-30.81
925.949	-32.01
926.158	-30.82
926.367	-29.79
926.576	-27.14
926.785	-27.84
926.994	-29.95
927.203	-29.17
927.412	-28.22
927.621	-27.64
927.83	-24.7
928.038	-24.72
928.247	-25.27
928.456	-26.95
928.665	-25.39
928.873	-24.02
929.082	-22.34
929.291	-22.18
929.499	-22.03
929.708	-22.29
929.916	-21.08
930.125	-20.65
930.333	-20.88
930.542	-17.9
930.75	-15.35
930.959	-13.7
931.167	-13.27
931.376	-13.87
931.584	-13.22
931.793	-13.23
932.001	-13.03
932.209	-13.4
932.418	-15.91
932.626	-17.24
932.834	-18.85
933.042	-22.15
933.251	-22.04
933.459	-20.43
933.667	-21.63
933.875	-22.49
934.083	-22.09
934.291	-21.06
934.499	-21.28
934.707	-21.08
934.915	-19.24
935.123	-18.44
935.331	-20.13
935.539	-22.49
935.747	-22.9
935.955	-22.24
936.163	-21.66
936.371	-22.2
936.579	-20.78
936.787	-20.67
936.995	-22.61
937.202	-25.53
937.41	-26.97
937.618	-27.64
937.826	-26.82
938.033	-30.06
938.241	-30.92
938.449	-30.15
938.656	-28.31
938.864	-28.97
939.071	-28.37
939.279	-26.71
939.486	-23.73
939.694	-23.58
939.901	-24.99
940.109	-25.3
940.316	-24.24
940.524	-24.53
940.731	-26.74
940.939	-25.53
941.146	-26.02
941.353	-26.62
941.561	-25.91
941.768	-26.12
941.975	-24.21
942.182	-23.97
942.39	-23.95
942.597	-20.93
942.804	-20.33
943.011	-21.66
943.218	-20.61
943.425	-21.69
943.632	-20.66
943.839	-22.69
944.046	-23.17
944.253	-22.71
944.46	-22.91
944.667	-19.02
944.874	-19.1
945.081	-17.08
945.288	-16.26
945.495	-13.99
945.702	-14.45
945.909	-16.34
946.115	-14.52
946.322	-16.27
946.529	-16.4
946.736	-15.54
946.942	-15.76
947.149	-16.1
947.356	-17.48
947.562	-19.15
947.769	-20.01
947.976	-21.28
948.182	-19.71
948.389	-20.46
948.595	-19.93
948.802	-19.75
949.008	-21.9
949.215	-21.04
949.421	-21.65
949.628	-22.76
949.834	-21.91
950.04	-21.95
950.247	-17.9
950.453	-16.65
950.659	-17.24
950.865	-15.79
951.072	-20.33
951.278	-19.85
951.484	-22.49
951.69	-23.3
951.896	-24.37
952.103	-24.52
952.309	-22.66
952.515	-23.72
952.721	-19.57
952.927	-18.45
953.133	-20.59
953.339	-21.03
953.545	-20.77
953.751	-19.88
953.957	-16.73
954.163	-17.7
954.369	-16.02
954.574	-17.32
954.78	-17.73
954.986	-17.42
955.192	-15.37
955.398	-16.39
955.603	-17.76
955.809	-15.07
956.015	-14.74
956.22	-13.62
956.426	-13.33
956.632	-15.72
956.837	-15.93
957.043	-15.66
957.248	-14.19
957.454	-15.21
957.66	-16.52
957.865	-16.27
958.07	-15
958.276	-16.67
958.481	-17.43
958.687	-19.98
958.892	-18.35
959.097	-19.79
959.303	-21.17
959.508	-21.85
959.713	-22.14
959.919	-22.95
960.124	-23.61
960.329	-24.01
960.534	-20.89
960.739	-20.22
960.945	-18
961.15	-17.49
961.355	-20.28
961.56	-24.11
961.765	-24.7
961.97	-24.75
962.175	-24.02
962.38	-26.67
962.585	-27.22
962.79	-28.41
962.995	-28.76
963.2	-29.7
963.404	-30.15
963.609	-31.71
963.814	-30.93
964.019	-33.4
964.224	-35.17
964.428	-33.14
964.633	-31.98
964.838	-30.61
965.042	-30.01
965.247	-32.34
965.452	-32.79
965.656	-30.23
965.861	-28.38
966.066	-28.48
966.27	-25.48
966.475	-22.6
966.679	-25.69
966.884	-25.42
967.088	-28.16
967.292	-30.76
967.497	-30.21
967.701	-30.25
967.906	-27.41
968.11	-24.23
968.314	-21.47
968.518	-23.1
968.723	-19.36
968.927	-18.15
969.131	-17.33
969.335	-15.41
969.539	-14.31
969.744	-12.64
969.948	-10.44
970.152	-9.91
970.356	-8.63
970.56	-8.21
970.764	-9.56
970.968	-7.1
971.172	-7.02
971.376	-5.79
971.58	-3.55
971.784	-3.74
971.988	-7.15
972.192	-4.5
972.395	-4.99
972.599	-7.68
972.803	-8.61
973.007	-6.58
973.21	-6.94
973.414	-7.18
973.618	-7.16
973.822	-7.22
974.025	-6.29
974.229	-7.74
974.432	-12.56
974.636	-14.66
974.84	-13.4
975.043	-14.25
975.247	-15.63
975.45	-15.66
975.654	-15.16
975.857	-14.12
976.06	-15.1
976.264	-18.7
976.467	-17.84
976.671	-18.22
976.874	-16.57
977.077	-17.2
977.28	-19.21
977.484	-20.48
977.687	-20.86
977.89	-21.55
978.093	-21.06
978.297	-19.24
978.5	-23.33
978.703	-23.12
978.906	-23.04
979.109	-23.59
979.312	-22.58
979.515	-23.25
979.718	-22.93
979.921	-22.11
980.124	-24.18
980.327	-23.43
980.53	-23.1
980.733	-20.43
980.936	-17.49
981.138	-19.29
981.341	-19.02
981.544	-19.53
981.747	-18.85
981.949	-20.95
982.152	-20.65
982.355	-22.22
982.558	-17.89
982.76	-19.19
982.963	-19.75
983.165	-18.72
983.368	-18.13
983.571	-18.89
983.773	-15.19
983.976	-15.33
984.178	-14.31
984.381	-14.76
984.583	-16.62
984.785	-15.06
984.988	-12.97
985.19	-10.81
985.392	-12.1
985.595	-14.68
985.797	-14.98
985.999	-12.77
986.202	-11.63
986.404	-11.36
986.606	-10.47
986.808	-11.39
987.01	-10.13
987.212	-13.12
987.415	-14.67
987.617	-14.9
987.819	-14.98
988.021	-14.36
988.223	-14.85
988.425	-16.48
988.627	-15.38
988.829	-19.42
989.031	-18.02
989.232	-17.7
989.434	-17.34
989.636	-17.13
989.838	-17.1
990.04	-16.92
990.242	-17.18
990.443	-18.85
990.645	-17.82
990.847	-15.98
991.048	-16.56
991.25	-17.22
991.452	-18.84
991.653	-18.93
991.855	-19.08
992.057	-18.64
992.258	-18.47
992.46	-19.42
992.661	-18.79
992.863	-19.91
993.064	-19.68
993.265	-21.23
993.467	-21.55
993.668	-19.37
993.87	-19.7
994.071	-20.02
994.272	-20.23
994.473	-18.48
994.675	-17.78
994.876	-16.6
995.077	-15.05
995.278	-14.08
995.48	-12.82
995.681	-15.11
995.882	-14.54
996.083	-14.46
996.284	-18.42
996.485	-19.01
996.686	-20.31
996.887	-20.89
997.088	-23.37
997.289	-24.05
997.49	-25.66
997.691	-25.24
997.892	-26.29
998.092	-23.2
998.293	-23.09
998.494	-25.02
998.695	-25.08
998.896	-22.35
999.096	-22.43
999.297	-21.81
999.498	-22.14
999.698	-23.35
999.899	-25.56
1000.1	-27.93
1000.3	-28.2
1000.501	-28.17
1000.701	-28.38
1000.902	-28.67
1001.102	-29.21
1001.303	-28.65
1001.503	-31.37
1001.704	-30.79
1001.904	-30.68
1002.105	-31.68
1002.305	-31.53
1002.505	-31.45
1002.706	-32.3
1002.906	-31.73
1003.106	-31.55
1003.306	-30.14
1003.507	-28.8
1003.707	-29.01
1003.907	-25.88
1004.107	-23.87
1004.307	-24.16
1004.507	-24.22
1004.707	-22.94
1004.907	-23.67
1005.107	-24.83
1005.308	-24.91
1005.507	-27.62
1005.707	-26
1005.907	-25.64
1006.107	-22.84
1006.307	-19.54
1006.507	-19.41
1006.707	-19.64
1006.907	-19.51
1007.106	-19.71
1007.306	-20.87
1007.506	-20.93
1007.706	-19.93
1007.905	-22.76
1008.105	-23.92
1008.305	-24.45
1008.504	-24.42
1008.704	-21.82
1008.903	-20.34
1009.103	-18.93
1009.303	-20.85
1009.502	-20.28
1009.702	-21.26
1009.901	-20.54
1010.1	-24.91
1010.3	-22.32
1010.499	-23.18
1010.699	-23.85
1010.898	-24.97
1011.097	-25.02
1011.296	-25.19
1011.496	-24.67
1011.695	-22.54
1011.894	-24.53
1012.093	-22.05
1012.293	-22.4
1012.492	-23.14
1012.691	-22.72
1012.89	-23.46
1013.089	-26.72
1013.288	-25.45
1013.487	-24.85
1013.686	-24.74
1013.885	-25.25
1014.084	-23.56
1014.283	-23.12
1014.482	-22.87
1014.681	-22.55
1014.88	-24.84
1015.078	-23.38
1015.277	-25.22
1015.476	-25.43
1015.675	-26.27
1015.873	-24.65
1016.072	-25.81
1016.271	-22.51
1016.47	-28.29
1016.668	-27.05
1016.867	-27.47
1017.065	-29.87
1017.264	-28.72
1017.463	-28.96
1017.661	-29.04
1017.86	-29.87
1018.058	-28.42
1018.256	-29.45
1018.455	-30.08
1018.653	-30.09
1018.852	-28.93
1019.05	-30.04
1019.248	-28.72
1019.447	-29.44
1019.645	-29.77
1019.843	-31.28
1020.041	-30.89
1020.24	-30.44
1020.438	-26.93
1020.636	-27.21
1020.834	-29.61
1021.032	-27.12
1021.23	-29.29
1021.428	-27.9
1021.626	-24.49
1021.824	-22.95
1022.022	-25.14
1022.22	-23.17
1022.418	-22.84
1022.616	-22.52
1022.814	-23.8
1023.012	-24.54
1023.21	-22.57
1023.408	-24.42
1023.606	-24.03
1023.803	-20.43
1024.001	-20.06
1024.199	-22.59
1024.397	-22.18
1024.594	-22.46
1024.792	-25.02
1024.99	-25.82
1025.187	-25.76
1025.385	-22.51
1025.582	-22.75
1025.78	-21.27
1025.977	-20.31
1026.175	-20.49
1026.372	-21.21
1026.57	-23.76
1026.767	-22.07
1026.965	-20.45
1027.162	-21.12
1027.359	-21.19
1027.557	-21.51
1027.754	-24.71
1027.951	-26.5
1028.148	-24.66
1028.346	-27
1028.543	-29.64
1028.74	-29.75
1028.937	-33.43
1029.134	-32.79
1029.331	-33.8
1029.528	-32.68
1029.725	-34.27
1029.923	-36.93
1030.12	-33.92
1030.317	-32.7
1030.513	-31.3
1030.71	-31.29
1030.907	-28.12
1031.104	-27.55
1031.301	-27.38
1031.498	-27.22
1031.695	-27.64
1031.892	-29.71
1032.088	-29.3
1032.285	-30.55
1032.482	-31.75
1032.678	-34.08
1032.875	-35.72
1033.072	-34.9
1033.268	-35.06
1033.465	-34.74
1033.662	-36.78
1033.858	-35.2
1034.055	-33.99
1034.251	-31.28
1034.448	-30.73
1034.644	-29.39
1034.84	-25.45
1035.037	-22.05
1035.233	-22.5
1035.43	-20.44
1035.626	-20.67
1035.822	-19.99
1036.019	-20.87
1036.215	-23.66
1036.411	-23.88
1036.607	-25.68
1036.803	-26.55
1037	-27.86
1037.196	-29.82
1037.392	-30.89
1037.588	-34.12
1037.784	-33.45
1037.98	-32.28
1038.176	-32.12
1038.372	-31.9
1038.568	-30.13
1038.764	-27.04
1038.96	-26.21
1039.156	-27.92
1039.352	-29.41
1039.547	-27.63
1039.743	-25.64
1039.939	-25.04
1040.135	-25.92
1040.331	-28.11
1040.526	-26.08
1040.722	-26.98
1040.918	-29.05
1041.113	-30.83
1041.309	-30.51
1041.505	-31.58
1041.7	-30.59
1041.896	-30.12
1042.091	-29.84
1042.287	-29.05
1042.482	-28
1042.678	-28.2
1042.873	-27.41
1043.069	-27.46
1043.264	-26.19
1043.459	-24.35
1043.655	-22.89
1043.85	-23.47
1044.045	-23.4
1044.24	-23.59
1044.436	-21.24
1044.631	-21.32
1044.826	-22.79
1045.021	-23.3
1045.216	-21.53
