Data from FLMT021711__4__17-05-39-982.txt Node

Date: Tue Nov 05 17:05:39 CET 2024
User: Etudiants TP
Spectrometer: FLMT02171
Trigger mode: 0
Integration Time (sec): 1.000000E-1
Scans to average: 5
Electric dark correction enabled: true
Nonlinearity correction enabled: false
Boxcar width: 15
XAxis mode: Wavelengths
Number of Pixels in Spectrum: 3648
>>>>>Begin Spectral Data<<<<<
194.658	-52.16
194.923	-50.89
195.188	-44.04
195.453	-43.78
195.717	-38.75
195.982	-37.78
196.247	-36.24
196.512	-38.53
196.777	-37.65
197.042	-37.14
197.307	-37.17
197.572	-33.55
197.837	-33.1
198.101	-32.05
198.366	-29.38
198.631	-28.35
198.896	-23.61
199.161	-18.82
199.425	-13.49
199.69	-5.22
199.955	-5.8
200.22	-8.74
200.484	-9.79
200.749	-11.53
201.014	-10.57
201.278	-9.28
201.543	-9.55
201.807	-9.93
202.072	-8.5
202.337	-8.04
202.601	-8.7
202.866	-10.3
203.13	-8.09
203.395	-10.51
203.659	-10.45
203.924	-11.13
204.189	-11.36
204.453	-11.24
204.717	-8.63
204.982	-7.17
205.246	-5.22
205.511	-3.22
205.775	-4.46
206.04	0.62
206.304	2.45
206.568	4.25
206.833	4.1
207.097	5.38
207.361	7.85
207.626	11.45
207.89	11.36
208.154	11.84
208.419	13.43
208.683	11.79
208.947	13.42
209.211	12.07
209.476	12.19
209.74	13.09
210.004	12.78
210.268	12.79
210.532	14.86
210.796	14.46
211.061	16.57
211.325	15.46
211.589	13.53
211.853	14.35
212.117	14.23
212.381	14.81
212.645	15.92
212.909	15.27
213.173	13.7
213.437	13.08
213.701	13.38
213.965	14.75
214.229	9.64
214.493	8.2
214.757	6.22
215.021	6.3
215.285	8.86
215.549	10.45
215.813	8.17
216.077	7.83
216.34	10.31
216.604	9.13
216.868	9.94
217.132	12.24
217.396	12.68
217.659	13.29
217.923	10.74
218.187	11.15
218.451	11.03
218.714	8.92
218.978	9.94
219.242	11.15
219.505	11.7
219.769	13.69
220.033	13.31
220.296	13.2
220.56	14.15
220.824	11.76
221.087	11.23
221.351	11.34
221.614	11.2
221.878	11.74
222.142	11.05
222.405	10.68
222.669	12.96
222.932	9.67
223.196	8.4
223.459	5.89
223.722	6.3
223.986	6.17
224.249	5.37
224.513	3.78
224.776	4.5
225.04	4.57
225.303	2.64
225.566	2.19
225.83	1.56
226.093	4.27
226.356	3.28
226.62	1.13
226.883	2.11
227.146	2.56
227.409	1.86
227.673	-0.09
227.936	-1.19
228.199	-1.28
228.462	-3.12
228.725	-4.31
228.989	-4.48
229.252	-1.88
229.515	2.07
229.778	0.18
230.041	-0.31
230.304	-2.4
230.567	-1.15
230.83	-3.58
231.093	-1.42
231.356	-1.53
231.619	3.63
231.882	2.04
232.145	3.18
232.408	2.56
232.671	2.46
232.934	1.9
233.197	0.52
233.46	-0.14
233.723	1.21
233.986	0.71
234.249	-2.92
234.512	-3.12
234.775	0.54
235.037	0.22
235.3	0.12
235.563	-1.01
235.826	1.2
236.089	4.57
236.351	3.32
236.614	5.47
236.877	7.19
237.14	9.87
237.402	8.73
237.665	2.36
237.928	3.61
238.19	2.34
238.453	4.43
238.716	3.46
238.978	4.5
239.241	4.74
239.503	7.24
239.766	3.44
240.029	1.98
240.291	5.55
240.554	6.67
240.816	4.69
241.079	4.94
241.341	5.7
241.604	4.53
241.866	1.53
242.129	2.92
242.391	6.43
242.653	7.45
242.916	7.76
243.178	7.93
243.441	8.39
243.703	8.04
243.965	5.25
244.228	4.3
244.49	5.25
244.752	6.17
245.015	6.35
245.277	7.77
245.539	7.16
245.801	10.1
246.064	8.78
246.326	7.79
246.588	7.63
246.85	9.56
247.112	9.72
247.374	10.19
247.637	11.54
247.899	11.07
248.161	11.84
248.423	5.68
248.685	4.76
248.947	5.96
249.209	5.27
249.471	6.4
249.733	7.51
249.995	5.62
250.257	4
250.519	2.43
250.781	5.19
251.043	1.94
251.305	3.64
251.567	6.15
251.829	6.2
252.091	5.87
252.353	2.54
252.615	3.48
252.876	2.77
253.138	1.18
253.4	-2.27
253.662	-1.83
253.924	-0.72
254.185	1.59
254.447	0.91
254.709	0.57
254.971	1.61
255.232	3.39
255.494	0.58
255.756	-0.89
256.017	-0.35
256.279	0.22
256.541	1.5
256.802	2.23
257.064	2.89
257.326	3.16
257.587	3.33
257.849	4.16
258.11	8.55
258.372	10.58
258.633	11.28
258.895	9.58
259.156	9.22
259.418	7
259.679	2.9
259.941	1.56
260.202	3.94
260.464	5.57
260.725	4.58
260.987	2.19
261.248	1.58
261.509	1.87
261.771	0.95
262.032	2.54
262.293	1.42
262.555	1.77
262.816	0.19
263.077	-1.32
263.338	-3.86
263.6	-2.05
263.861	-3.02
264.122	-4.02
264.383	-1.95
264.645	-1.68
264.906	-3.21
265.167	-2.93
265.428	-3.07
265.689	-1.59
265.95	-3.93
266.211	-2.48
266.473	-3.87
266.734	-7.02
266.995	-10.66
267.256	-9.03
267.517	-5.69
267.778	-2.83
268.039	-1.53
268.3	-1.61
268.561	-3.45
268.822	-0.17
269.083	-1.49
269.344	-2.28
269.604	-2.45
269.865	-1.1
270.126	-5.14
270.387	-3.04
270.648	-1.12
270.909	-1.14
271.17	-2.49
271.43	-5.1
271.691	-7.01
271.952	-7.01
272.213	-5.79
272.473	-9.28
272.734	-7.36
272.995	-5.45
273.256	-5.07
273.516	-2.8
273.777	-4.67
274.038	-2.72
274.298	-6.63
274.559	-5.9
274.82	-1.04
275.08	2.04
275.341	3.1
275.601	1.03
275.862	-0.32
276.122	0.6
276.383	0.51
276.643	1.23
276.904	-0.04
277.164	3.03
277.425	2.73
277.685	6.17
277.946	5.95
278.206	6.47
278.467	6.58
278.727	6.34
278.987	6.89
279.248	7.26
279.508	8.35
279.768	10.73
280.029	10.47
280.289	7.89
280.549	8.65
280.81	8.01
281.07	7.55
281.33	9.32
281.59	6.81
281.851	8.26
282.111	9.31
282.371	10.47
282.631	9.76
282.891	8.23
283.151	7.01
283.412	5.04
283.672	4.94
283.932	5.1
284.192	5.26
284.452	4.14
284.712	3.35
284.972	0.84
285.232	-1.14
285.492	1.55
285.752	-1.37
286.012	4.13
286.272	5.8
286.532	3.56
286.792	2.72
287.052	3.46
287.312	2.97
287.571	2.38
287.831	2.44
288.091	0.57
288.351	1.17
288.611	3.93
288.871	3.24
289.13	2.58
289.39	-0.57
289.65	0.36
289.91	-1.52
290.17	-0.89
290.429	0.04
290.689	-1.46
290.949	-4.25
291.208	-2.47
291.468	-0.78
291.728	1.13
291.987	1.3
292.247	0.91
292.506	3.24
292.766	6.35
293.026	7
293.285	7.32
293.545	8.92
293.804	9.6
294.064	4.95
294.323	2.43
294.583	3.09
294.842	3.94
295.102	3.42
295.361	4.07
295.621	4.26
295.88	5.05
296.139	5.78
296.399	7.08
296.658	2.71
296.917	2.18
297.177	0.08
297.436	0.56
297.695	0.15
297.955	0.82
298.214	0.36
298.473	2.33
298.732	4.78
298.992	6.66
299.251	5.63
299.51	3.09
299.769	3.01
300.028	2.81
300.287	4.08
300.547	2.89
300.806	0.82
301.065	3.35
301.324	5.26
301.583	1.89
301.842	-1.86
302.101	-3.96
302.36	-2.79
302.619	-3.3
302.878	-2.92
303.137	-4.13
303.396	-4.08
303.655	-2.23
303.914	-5.9
304.173	-5.49
304.432	-6.37
304.691	-3.51
304.95	-4.04
305.208	0.53
305.467	0.83
305.726	0.86
305.985	2.23
306.244	2.66
306.503	1.37
306.761	-0.61
307.02	-2.88
307.279	-2.19
307.537	-1.94
307.796	-5.1
308.055	-7.54
308.314	-8.22
308.572	-9.54
308.831	-8.38
309.09	-8.83
309.348	-7.95
309.607	-8.18
309.865	-4.1
310.124	-3.12
310.382	-1.34
310.641	0.03
310.9	-1.71
311.158	-0.72
311.417	-0.16
311.675	0.57
311.933	2.73
312.192	4.05
312.45	4.64
312.709	5.13
312.967	4.62
313.226	3.44
313.484	2.2
313.742	1.06
314.001	-1.16
314.259	-2.95
314.517	-1.85
314.776	0.55
315.034	3.03
315.292	1.22
315.55	-0.35
315.809	-0.46
316.067	1.11
316.325	0.43
316.583	1.27
316.841	0.92
317.1	-1.38
317.358	-4
317.616	-4.67
317.874	-6.31
318.132	-6.91
318.39	-7.66
318.648	-9.73
318.906	-9.68
319.164	-10.1
319.422	-11.34
319.68	-13.71
319.938	-13.6
320.196	-14.35
320.454	-14.08
320.712	-15.09
320.97	-14.76
321.228	-16.53
321.486	-13.61
321.744	-13.75
322.002	-12.31
322.26	-13.4
322.517	-14.29
322.775	-16.85
323.033	-17.96
323.291	-15.7
323.549	-12.47
323.806	-11.09
324.064	-11.41
324.322	-10.78
324.58	-12.02
324.837	-11.23
325.095	-11.92
325.353	-10.83
325.61	-7.39
325.868	-7.87
326.126	-6.32
326.383	-6.27
326.641	-6.76
326.898	-4.55
327.156	-4.79
327.413	-3.33
327.671	-3.04
327.928	-1.23
328.186	0.05
328.443	-0.82
328.701	1.2
328.958	2.75
329.216	3.3
329.473	1.9
329.731	3.28
329.988	4.65
330.245	7.68
330.503	8.79
330.76	9.34
331.017	10.56
331.275	7.67
331.532	7.29
331.789	6.33
332.047	7.74
332.304	5.03
332.561	6.41
332.818	5.18
333.076	6.58
333.333	8.22
333.59	7.92
333.847	9.64
334.104	9.13
334.361	7.86
334.618	9.31
334.876	7.05
335.133	6.37
335.39	4.97
335.647	7.89
335.904	4.66
336.161	2.3
336.418	2.28
336.675	-0.12
336.932	0.11
337.189	0.83
337.446	-0.02
337.703	-1.33
337.96	-6.06
338.216	-6.36
338.473	-9.54
338.73	-9.37
338.987	-9.36
339.244	-6.98
339.501	-9.59
339.757	-9.27
340.014	-9.53
340.271	-7.27
340.528	-8.12
340.785	-4.95
341.041	-4.67
341.298	-8.31
341.555	-10.3
341.811	-11.35
342.068	-13.71
342.325	-13.91
342.581	-12.42
342.838	-11.1
343.094	-10.44
343.351	-11.18
343.608	-15.14
343.864	-13.42
344.121	-12.08
344.377	-11.23
344.634	-12.59
344.89	-14.43
345.147	-15.07
345.403	-15.33
345.66	-15.41
345.916	-13.22
346.172	-14.84
346.429	-15.57
346.685	-17.37
346.942	-16.73
347.198	-19.33
347.454	-17.09
347.711	-16.95
347.967	-19.94
348.223	-19.23
348.48	-18.05
348.736	-15.3
348.992	-16.14
349.248	-12.74
349.504	-11.65
349.761	-11.16
350.017	-9
350.273	-9.47
350.529	-9.81
350.785	-9.52
351.041	-9.87
351.297	-8.31
351.554	-8.37
351.81	-9.65
352.066	-10.45
352.322	-10.98
352.578	-9.78
352.834	-9.9
353.09	-10.41
353.346	-10.02
353.602	-11.31
353.858	-11.2
354.114	-12.22
354.369	-10.11
354.625	-7.13
354.881	-8.17
355.137	-5.39
355.393	-6.67
355.649	-7.4
355.905	-5.42
356.16	-6.95
356.416	-7.66
356.672	-13.22
356.928	-12.2
357.183	-14.11
357.439	-15.73
357.695	-17.09
357.951	-14.89
358.206	-15.01
358.462	-16.72
358.718	-19.14
358.973	-18.27
359.229	-18.75
359.484	-17.37
359.74	-14.08
359.996	-13.57
360.251	-11.51
360.507	-11.65
360.762	-12.04
361.018	-9.42
361.273	-11.24
361.529	-9.35
361.784	-9.82
362.04	-8.2
362.295	-9.17
362.55	-9.81
362.806	-7.96
363.061	-8.3
363.316	-7.01
363.572	-6.54
363.827	-5.88
364.082	-8.22
364.338	-7.58
364.593	-7.35
364.848	-5.81
365.104	-6.92
365.359	-3.36
365.614	-3.41
365.869	-5.56
366.124	-4.3
366.38	-3.96
366.635	-2.36
366.89	-1.1
367.145	-0.47
367.4	2.23
367.655	2.03
367.91	1.75
368.165	-0.09
368.42	-1.77
368.675	-0.43
368.93	-1.4
369.185	-3.1
369.44	-3.14
369.695	-1.84
369.95	-2.39
370.205	-1.62
370.46	-2.09
370.715	-3.85
370.97	-3
371.225	-3.82
371.48	-2.23
371.734	-0.95
371.989	1.6
372.244	0.68
372.499	1.87
372.754	-0.34
373.008	-1.29
373.263	-5.93
373.518	-2.62
373.773	-4.1
374.027	-4.65
374.282	-2.72
374.537	-1.47
374.791	-0.65
375.046	-1.14
375.301	-2.67
375.555	-5.57
375.81	-3.98
376.064	-2.62
376.319	0.9
376.573	0.3
376.828	-2.47
377.082	1.83
377.337	0.86
377.591	-1.57
377.846	-1.09
378.1	-0.02
378.355	0.23
378.609	-0.31
378.863	-2.66
379.118	-0.98
379.372	-3.39
379.627	-6.48
379.881	-8.08
380.135	-7.71
380.389	-8.75
380.644	-8.14
380.898	-7.01
381.152	-5.25
381.407	-5.62
381.661	-3.06
381.915	-1.64
382.169	-1.21
382.423	-2.76
382.677	-6.22
382.932	-6.41
383.186	-5.97
383.44	-4.86
383.694	-3.92
383.948	-5.96
384.202	-8.78
384.456	-7.62
384.71	-6.75
384.964	-7.91
385.218	-7.43
385.472	-5.13
385.726	-5.99
385.98	-6.63
386.234	-6.41
386.488	-7.64
386.742	-6.86
386.996	-7.52
387.249	-5.14
387.503	-2.4
387.757	-0.52
388.011	0.37
388.265	0.89
388.518	1.33
388.772	2.69
389.026	4.22
389.28	1.95
389.533	-0.07
389.787	1.35
390.041	-1.59
390.295	-1.33
390.548	0.18
390.802	2.39
391.055	1.96
391.309	2.13
391.563	-0.11
391.816	1.58
392.07	0.8
392.323	2.84
392.577	4.76
392.83	6.63
393.084	11.91
393.337	13.95
393.591	15.61
393.844	15.9
394.098	18.97
394.351	22.99
394.604	24.56
394.858	25.27
395.111	25.37
395.364	23.26
395.618	24.3
395.871	22.08
396.124	21.66
396.378	20.78
396.631	20.61
396.884	16.61
397.137	16.42
397.391	17.7
397.644	14.85
397.897	14.65
398.15	14.21
398.403	15.38
398.657	14.49
398.91	13.88
399.163	13.47
399.416	13.48
399.669	11.59
399.922	12.2
400.175	9.68
400.428	7.26
400.681	6.65
400.934	1.65
401.187	0.75
401.44	0.22
401.693	-1.66
401.946	-4.94
402.199	-10.56
402.452	-11.02
402.704	-14.28
402.957	-15.26
403.21	-13.63
403.463	-13.76
403.716	-11.75
403.969	-10.96
404.221	-11.31
404.474	-9.94
404.727	-5.93
404.98	-3.19
405.232	-1.83
405.485	-0.49
405.738	0.82
405.99	0.7
406.243	1.04
406.496	2.79
406.748	2.33
407.001	1.75
407.253	2.32
407.506	2.71
407.759	3.1
408.011	1.25
408.264	2.97
408.516	3.89
408.769	3.13
409.021	3.36
409.274	2.09
409.526	4.56
409.778	4.39
410.031	8.61
410.283	8.45
410.536	12.37
410.788	11.47
411.04	11.08
411.293	11.79
411.545	11.42
411.797	11.04
412.049	11.25
412.302	11.84
412.554	11.56
412.806	8.47
413.058	5.14
413.311	5.92
413.563	6.62
413.815	8.35
414.067	6.77
414.319	5.6
414.571	6
414.823	5.27
415.075	5.17
415.328	5.45
415.58	7.72
415.832	8.76
416.084	9.76
416.336	8.41
416.588	12.76
416.84	11.41
417.091	14.85
417.343	11.8
417.595	13.87
417.847	14.89
418.099	15.55
418.351	16.35
418.603	19.17
418.855	19.79
419.106	19.58
419.358	21.34
419.61	21.88
419.862	24.06
420.114	21.79
420.365	21.65
420.617	22.32
420.869	21.83
421.12	20.93
421.372	20.92
421.624	19.21
421.875	20.43
422.127	18.1
422.379	18.43
422.63	19.84
422.882	18.98
423.133	19.98
423.385	20.25
423.636	21.57
423.888	23.24
424.139	24.98
424.391	22.34
424.642	20.94
424.894	19.95
425.145	20
425.396	17.88
425.648	19.69
425.899	18.95
426.151	17.68
426.402	15.46
426.653	15.98
426.905	15.26
427.156	12.07
427.407	11.71
427.658	10.52
427.91	10.2
428.161	9.78
428.412	12.63
428.663	14.68
428.914	16.23
429.166	18.35
429.417	20.49
429.668	20.35
429.919	19.06
430.17	19.12
430.421	19.99
430.672	23.71
430.923	23.81
431.174	23.28
431.425	24.46
431.676	24.18
431.927	21.44
432.178	23.75
432.429	25.71
432.68	25.33
432.931	30.38
433.182	32.94
433.433	31.07
433.683	32.1
433.934	31.7
434.185	31.67
434.436	31.87
434.687	33.71
434.937	36.97
435.188	36.06
435.439	36.86
435.69	37.79
435.94	39.02
436.191	40.21
436.442	42.2
436.692	42.31
436.943	39.74
437.194	40.24
437.444	43.24
437.695	47.86
437.945	49.86
438.196	50.15
438.447	49.45
438.697	50.64
438.948	50.5
439.198	48.05
439.449	44.93
439.699	47.47
439.949	47.64
440.2	47.69
440.45	49.51
440.701	48.32
440.951	49.2
441.201	50.81
441.452	52.03
441.702	54.07
441.952	56.78
442.203	57.45
442.453	56.77
442.703	58.67
442.953	60.58
443.204	61.23
443.454	62.17
443.704	62.63
443.954	61
444.204	61.3
444.455	64.04
444.705	68.71
444.955	68.54
445.205	67.44
445.455	66.97
445.705	68.32
445.955	68.82
446.205	69.68
446.455	72.08
446.705	75.01
446.955	77.53
447.205	81.29
447.455	83.94
447.705	83.36
447.955	84.38
448.205	86.39
448.454	86.8
448.704	89.39
448.954	89.4
449.204	90.96
449.454	93.87
449.704	93.79
449.953	95.25
450.203	98.61
450.453	97.22
450.703	100.54
450.952	102.54
451.202	105.13
451.452	107.22
451.701	110.25
451.951	113.94
452.201	112.94
452.45	112.22
452.7	115.37
452.949	117.17
453.199	117.87
453.448	119.48
453.698	121.92
453.947	121.73
454.197	120.65
454.446	119.03
454.696	123.92
454.945	123.7
455.195	122.61
455.444	123.66
455.693	125.93
455.943	123.82
456.192	123.78
456.442	123.14
456.691	122.08
456.94	119.88
457.189	116.5
457.439	117.82
457.688	118.05
457.937	116.41
458.186	117.02
458.436	116.27
458.685	116.42
458.934	113.34
459.183	112.9
459.432	113.57
459.681	111.88
459.93	110.49
460.179	108.92
460.429	105.38
460.678	105.46
460.927	106.6
461.176	105.27
461.425	102.35
461.674	102.2
461.923	101.59
462.172	100.14
462.42	95.73
462.669	96.69
462.918	93.92
463.167	92.54
463.416	89.21
463.665	89.61
463.914	89.36
464.162	86.57
464.411	86.51
464.66	87.04
464.909	85.18
465.158	83.99
465.406	82.91
465.655	83.68
465.904	83.97
466.152	82.86
466.401	81.71
466.65	83.35
466.898	80.03
467.147	76.62
467.395	75.28
467.644	76.64
467.893	75.47
468.141	74.04
468.39	71.08
468.638	68.5
468.887	65.26
469.135	65.35
469.384	65.01
469.632	64.47
469.88	64.27
470.129	66.12
470.377	63.24
470.626	66.58
470.874	67.54
471.122	68.4
471.371	66.35
471.619	65.38
471.867	67.35
472.115	67.79
472.364	66.51
472.612	69.36
472.86	67.63
473.108	67.49
473.356	66.34
473.605	64.75
473.853	62.84
474.101	61.17
474.349	58.07
474.597	59.96
474.845	59.24
475.093	57.19
475.341	54.44
475.589	53.28
475.837	54.72
476.085	55
476.333	53.41
476.581	54.95
476.829	53.68
477.077	56.02
477.325	55.35
477.573	57.09
477.821	54.61
478.069	54.04
478.317	52.94
478.564	54.04
478.812	52.38
479.06	50.96
479.308	49.98
479.555	49.12
479.803	47.89
480.051	48.16
480.299	46.14
480.546	46.35
480.794	44.63
481.042	43.96
481.289	43.02
481.537	43.62
481.784	43.34
482.032	47.48
482.28	47.23
482.527	45.39
482.775	46.07
483.022	47.09
483.27	49.82
483.517	52.79
483.765	53.35
484.012	53.28
484.259	50.68
484.507	54.15
484.754	53.45
485.002	51.53
485.249	48.99
485.496	51.09
485.744	51.47
485.991	49.97
486.238	48.59
486.486	51.06
486.733	52.05
486.98	54.96
487.227	53.11
487.474	54.02
487.722	57.02
487.969	56.5
488.216	57.27
488.463	56.52
488.71	56.17
488.957	55.74
489.204	55.45
489.451	56.23
489.699	55.15
489.946	53.25
490.193	53.97
490.44	54.26
490.687	55.04
490.934	52.69
491.18	49.84
491.427	50.3
491.674	53.4
491.921	54.86
492.168	52.23
492.415	50.53
492.662	53.42
492.909	56.65
493.155	55.06
493.402	54.79
493.649	54.15
493.896	54.27
494.142	51
494.389	51.34
494.636	49.12
494.883	47.58
495.129	46.62
495.376	44.79
495.623	46.35
495.869	48.56
496.116	51.08
496.362	52.43
496.609	54.83
496.855	59.69
497.102	59.51
497.348	58.73
497.595	58.94
497.841	62.64
498.088	62.29
498.334	60.95
498.581	60.28
498.827	60.89
499.074	61.52
499.32	61.15
499.566	64.69
499.813	65.4
500.059	63.58
500.305	63.87
500.552	62.72
500.798	63.2
501.044	66.71
501.29	68
501.537	65.77
501.783	69.56
502.029	71.47
502.275	70.46
502.521	71.13
502.767	71.91
503.013	74.52
503.26	72.09
503.506	68.04
503.752	68.92
503.998	68.33
504.244	69.98
504.49	67.14
504.736	69.26
504.982	68.91
505.228	72.27
505.474	71.75
505.72	73.29
505.966	73.25
506.211	76.31
506.457	75.92
506.703	74.77
506.949	75.46
507.195	73.75
507.441	71.73
507.686	75.44
507.932	74.97
508.178	76.57
508.424	75.6
508.669	73.97
508.915	74.37
509.161	77.45
509.406	78.03
509.652	78.45
509.898	81.52
510.143	82.4
510.389	82.31
510.634	78.76
510.88	82.72
511.125	85.46
511.371	85.57
511.616	85.74
511.862	82.56
512.107	81.35
512.353	81.01
512.598	82.48
512.844	79.85
513.089	78.78
513.335	79.02
513.58	79.73
513.825	79.48
514.071	80.52
514.316	80.35
514.561	80.43
514.806	79.13
515.052	82.16
515.297	81.03
515.542	82.33
515.787	82.68
516.033	84.71
516.278	84.77
516.523	83.59
516.768	82.85
517.013	81.01
517.258	81.98
517.503	82.12
517.748	82.67
517.993	82.25
518.238	83.3
518.483	82
518.728	81.86
518.973	80.6
519.218	80.72
519.463	82.41
519.708	81.87
519.953	81.45
520.198	82.52
520.443	84.91
520.688	88.04
520.933	87.55
521.177	86.59
521.422	85.92
521.667	86.54
521.912	86.52
522.157	83.53
522.401	86.12
522.646	85.95
522.891	86.14
523.135	86.66
523.38	86.65
523.625	85.08
523.869	87
524.114	87.95
524.358	87.37
524.603	86.98
524.848	83.79
525.092	83.03
525.337	85.75
525.581	87.6
525.826	88.23
526.07	88.93
526.315	89.98
526.559	89.44
526.803	88.42
527.048	90.19
527.292	91.29
527.537	91.05
527.781	90.71
528.025	88.89
528.269	88.77
528.514	89.87
528.758	89.73
529.002	90.21
529.247	94.08
529.491	94.09
529.735	99.08
529.979	99.26
530.223	99.48
530.467	97.64
530.712	95.42
530.956	94.29
531.2	95.83
531.444	94.11
531.688	95.75
531.932	96.24
532.176	98
532.42	99.59
532.664	100.52
532.908	97.82
533.152	96.5
533.396	95.89
533.64	93.78
533.884	91.67
534.128	91.2
534.371	91.85
534.615	93.35
534.859	92.71
535.103	92.11
535.347	90.25
535.59	91.73
535.834	88.34
536.078	89.74
536.322	91.87
536.565	94.03
536.809	92.02
537.053	94.2
537.296	91.54
537.54	90.88
537.784	90.04
538.027	91.57
538.271	91.81
538.514	90.81
538.758	89.93
539.001	88.18
539.245	86.96
539.488	85.82
539.732	86.46
539.975	87.12
540.219	88.41
540.462	89.11
540.706	90.3
540.949	90.91
541.192	90.78
541.436	95.85
541.679	100.52
541.922	101.73
542.166	97.71
542.409	96.97
542.652	97.11
542.895	99.12
543.139	99.89
543.382	104.79
543.625	102.65
543.868	102.63
544.111	100.74
544.354	97.73
544.598	94.91
544.841	95.79
545.084	95.41
545.327	95.64
545.57	96.64
545.813	97.88
546.056	98.61
546.299	97.77
546.542	99.03
546.785	101.94
547.028	103.38
547.271	103.17
547.514	101.66
547.756	98.04
547.999	97.93
548.242	99.34
548.485	96.77
548.728	98.23
548.971	94.55
549.213	94.96
549.456	92.81
549.699	92.73
549.942	93.22
550.184	93.09
550.427	92.07
550.67	90.86
550.912	86.14
551.155	86.88
551.398	86.8
551.64	85.86
551.883	86.38
552.125	87.15
552.368	86.69
552.61	83.87
552.853	85.76
553.095	84.07
553.338	83.97
553.58	83.77
553.823	83.12
554.065	84.64
554.308	81.03
554.55	78.71
554.792	75.49
555.035	75.62
555.277	76.58
555.519	76.64
555.762	73.53
556.004	76.38
556.246	73.39
556.488	73.43
556.731	70.35
556.973	72.48
557.215	72.51
557.457	73.74
557.699	75.87
557.941	73.28
558.183	73.13
558.426	75.44
558.668	72.86
558.91	72.26
559.152	72.6
559.394	72.43
559.636	73.62
559.878	74.98
560.12	74.11
560.362	75.23
560.604	74.52
560.845	73.23
561.087	73.18
561.329	75.97
561.571	74.01
561.813	73.95
562.055	73.79
562.297	75.58
562.538	76.75
562.78	78.48
563.022	76.4
563.264	77.26
563.505	75.86
563.747	77.28
563.989	76.1
564.23	75.26
564.472	74.87
564.714	76.42
564.955	76.9
565.197	74.3
565.438	76.24
565.68	78.66
565.921	77.42
566.163	78.56
566.404	78.13
566.646	79.07
566.887	81.48
567.129	81.9
567.37	80.1
567.612	82.85
567.853	79.84
568.094	81.32
568.336	81.69
568.577	81.69
568.818	82.4
569.06	81.31
569.301	79.49
569.542	80.42
569.783	80.92
570.025	80.49
570.266	80.08
570.507	81.62
570.748	81.77
570.989	82.58
571.23	84.25
571.472	84.42
571.713	82.84
571.954	83.12
572.195	83.53
572.436	84.65
572.677	86.3
572.918	87.8
573.159	86.02
573.4	84.07
573.641	84.15
573.882	84.15
574.123	82.91
574.364	77.88
574.604	77.42
574.845	75.76
575.086	76.07
575.327	75.95
575.568	75.61
575.809	75.41
576.049	74.51
576.29	71.64
576.531	76.3
576.771	78.79
577.012	80.24
577.253	81.86
577.494	80.49
577.734	80.38
577.975	80.92
578.215	80.28
578.456	78.86
578.697	79.45
578.937	80.88
579.178	80.94
579.418	78.88
579.659	76.9
579.899	73.02
580.14	71.92
580.38	70.88
580.62	70.52
580.861	73.83
581.101	73.49
581.342	74.15
581.582	71.34
581.822	74.44
582.063	73.37
582.303	74.66
582.543	75.21
582.783	76.36
583.024	77.61
583.264	80.62
583.504	79.09
583.744	80.92
583.984	78.14
584.224	78.18
584.465	76.49
584.705	74.59
584.945	76.15
585.185	75.63
585.425	76.62
585.665	76.45
585.905	76.48
586.145	76.12
586.385	74.24
586.625	77.02
586.865	77.15
587.105	77.1
587.345	78.07
587.585	78.63
587.824	78.51
588.064	78.05
588.304	75.94
588.544	75.47
588.784	72.44
589.024	73.48
589.263	71.53
589.503	70.82
589.743	73.06
589.982	71.08
590.222	70.89
590.462	68.01
590.701	64.26
590.941	67.12
591.181	64.85
591.42	63.1
591.66	65.71
591.899	68.6
592.139	67.88
592.378	67.38
592.618	66.08
592.857	63.79
593.097	64.57
593.336	63.31
593.576	62.33
593.815	63.01
594.055	61.74
594.294	62.34
594.533	62.61
594.773	62.7
595.012	63.61
595.251	63.11
595.491	66.13
595.73	69.15
595.969	69.08
596.208	70.33
596.447	75.03
596.687	75.92
596.926	76.07
597.165	72.07
597.404	73.83
597.643	71.58
597.882	71.38
598.121	72.71
598.36	72.86
598.599	73.7
598.838	74.49
599.077	70.27
599.316	71.21
599.555	70.28
599.794	70.85
600.033	73.49
600.272	75.27
600.511	73.91
600.75	76.3
600.989	76.47
601.228	75.34
601.466	75.24
601.705	75.29
601.944	75.29
602.183	76.72
602.422	74.84
602.66	74.84
602.899	72.36
603.138	69.81
603.376	70.17
603.615	71.62
603.854	70.05
604.092	70.96
604.331	70.73
604.569	72.17
604.808	71.31
605.047	73.11
605.285	74.23
605.524	74.13
605.762	73
606	73.87
606.239	74.82
606.477	75.72
606.716	71.02
606.954	71.94
607.193	69.77
607.431	66.66
607.669	65.11
607.908	64.95
608.146	65.85
608.384	64.58
608.622	63.99
608.861	64.21
609.099	63.64
609.337	62.51
609.575	61.65
609.813	63.49
610.052	62.5
610.29	59.52
610.528	58.68
610.766	57.2
611.004	55.76
611.242	53.86
611.48	53.6
611.718	52.61
611.956	51.9
612.194	50.65
612.432	49.45
612.67	47.18
612.908	47.39
613.146	46.01
613.384	45.76
613.621	44.89
613.859	45.96
614.097	45.28
614.335	44.03
614.573	45.41
614.811	46.01
615.048	44.62
615.286	44.19
615.524	43
615.761	40.71
615.999	41.62
616.237	41.98
616.474	43.59
616.712	44.9
616.95	43.49
617.187	41.67
617.425	42.76
617.662	44.14
617.9	43.13
618.137	42.21
618.375	41.64
618.612	39.87
618.85	40.52
619.087	42.06
619.325	42.31
619.562	40.76
619.799	39.9
620.037	39.8
620.274	38.09
620.511	38.14
620.749	35.38
620.986	33.34
621.223	30.48
621.461	30.04
621.698	32.17
621.935	29.47
622.172	27.15
622.409	28.56
622.647	28.67
622.884	25.08
623.121	27.24
623.358	26.18
623.595	25.36
623.832	24.22
624.069	21.86
624.306	22.69
624.543	24.38
624.78	24.77
625.017	24.62
625.254	25.71
625.491	27.48
625.728	28.81
625.965	28.33
626.202	26.66
626.438	25.39
626.675	24.45
626.912	28.1
627.149	28.73
627.386	28.21
627.622	28.44
627.859	28.98
628.096	30.43
628.333	30.41
628.569	31.55
628.806	34.96
629.043	33.98
629.279	36.53
629.516	38.27
629.752	36.46
629.989	36.08
630.225	35.31
630.462	34.79
630.699	34.91
630.935	33.33
631.171	31.86
631.408	32.82
631.644	30.93
631.881	27.81
632.117	25.27
632.354	26.21
632.59	25.82
632.826	25.67
633.063	24.94
633.299	27.28
633.535	25.49
633.771	25.2
634.008	27.82
634.244	26.35
634.48	25.62
634.716	27.38
634.953	26.36
635.189	26.1
635.425	26.57
635.661	29.33
635.897	28.26
636.133	27.33
636.369	27.17
636.605	23.42
636.841	22.98
637.077	23.7
637.313	24.8
637.549	26.31
637.785	26.98
638.021	26.7
638.257	26.14
638.493	27.92
638.729	26.05
638.965	29.21
639.2	31.14
639.436	30.62
639.672	29.89
639.908	28.21
640.144	31.09
640.379	32.48
640.615	29.23
640.851	30.95
641.086	31.65
641.322	29.55
641.558	29.5
641.793	30.42
642.029	29.35
642.264	28.1
642.5	27.32
642.736	24.46
642.971	24.45
643.207	22
643.442	20.29
643.678	21.11
643.913	23.05
644.148	23.44
644.384	25.59
644.619	24.79
644.855	25.74
645.09	26
645.325	25.14
645.561	26.2
645.796	23.5
646.031	26.3
646.266	23.35
646.502	22.61
646.737	25.92
646.972	26.29
647.207	26.66
647.442	23.56
647.678	21.41
647.913	24.54
648.148	25.18
648.383	25.51
648.618	24.38
648.853	23.94
649.088	24.71
649.323	27.12
649.558	28.11
649.793	29.3
650.028	29.16
650.263	25.56
650.498	28.1
650.733	26.2
650.968	23.39
651.202	23.55
651.437	21.21
651.672	18.18
651.907	17.02
652.142	15.96
652.376	15.8
652.611	18.04
652.846	19
653.081	19.63
653.315	18.6
653.55	19.47
653.785	17.82
654.019	18.34
654.254	16.15
654.488	16.8
654.723	15.07
654.958	14.2
655.192	12.24
655.427	9.42
655.661	10.03
655.896	12.5
656.13	15.27
656.364	12.88
656.599	9.34
656.833	16.63
657.068	17.99
657.302	18.7
657.536	18.81
657.771	19.49
658.005	21.97
658.239	24.02
658.474	22.74
658.708	23.53
658.942	24.11
659.176	23.28
659.41	21.99
659.645	21.03
659.879	20.2
660.113	15.47
660.347	14.8
660.581	12.01
660.815	10.85
661.049	11.29
661.283	7.83
661.517	5.42
661.751	4.59
661.985	3.92
662.219	4.61
662.453	4.11
662.687	5.99
662.921	3.05
663.155	2.01
663.389	-4.38
663.622	-5.32
663.856	-2.75
664.09	-10.11
664.324	-11.24
664.558	-10.67
664.791	-12.66
665.025	-12.39
665.259	-13.32
665.492	-15.26
665.726	-13.21
665.96	-13.2
666.193	-14.5
666.427	-13.14
666.661	-13.14
666.894	-15
667.128	-16.25
667.361	-12.16
667.595	-12.98
667.828	-11.77
668.062	-12.73
668.295	-13
668.529	-13.04
668.762	-11.74
668.995	-12.86
669.229	-9.95
669.462	-9.58
669.695	-9.09
669.929	-10.06
670.162	-10.11
670.395	-10.85
670.629	-8.85
670.862	-6.31
671.095	-8.9
671.328	-8.35
671.561	-10.47
671.795	-9.39
672.028	-7.91
672.261	-8.04
672.494	-6.29
672.727	-7.82
672.96	-6.6
673.193	-6.82
673.426	-3.21
673.659	-3.27
673.892	-2.78
674.125	-2.11
674.358	-1.66
674.591	-3.26
674.824	-3.44
675.057	-4.27
675.29	-4.71
675.523	-3.7
675.755	-3.67
675.988	-2.75
676.221	0.61
676.454	-0.72
676.687	0.01
676.919	-0.17
677.152	-0.21
677.385	-0.07
677.617	-0.69
677.85	-0.4
678.083	-2.38
678.315	-0.38
678.548	-1.55
678.78	-2.96
679.013	-3.87
679.246	-1.79
679.478	-1.16
679.711	-4.01
679.943	-0.99
680.175	-3.62
680.408	0.39
680.64	-4.26
680.873	-4.35
681.105	-2.74
681.338	-0.23
681.57	0.02
681.802	1.3
682.034	0.79
682.267	4.66
682.499	6.78
682.731	4.87
682.964	4.09
683.196	2.63
683.428	-0.35
683.66	-2.12
683.892	0.11
684.124	1.31
684.356	3.75
684.589	3.71
684.821	3.42
685.053	3.93
685.285	4.47
685.517	4.79
685.749	5.29
685.981	7.84
686.213	8.53
686.445	8.24
686.676	4.8
686.908	6.67
687.14	4.35
687.372	4.17
687.604	0.56
687.836	3.05
688.068	3.27
688.299	3.03
688.531	0.91
688.763	3.28
688.995	1.69
689.226	5
689.458	1.9
689.69	0.48
689.921	0.22
690.153	-0.15
690.384	1.06
690.616	1.81
690.848	2.34
691.079	-0.08
691.311	-1.67
691.542	-4.33
691.774	-5.79
692.005	-3.34
692.237	-0.97
692.468	-1.4
692.699	-1.8
692.931	-1.47
693.162	-3.98
693.393	-4.16
693.625	-5.43
693.856	-3.94
694.087	-4.95
694.319	-3.31
694.55	-2.91
694.781	-3.62
695.012	-4.68
695.243	-6.16
695.475	-7.04
695.706	-6.78
695.937	-7.3
696.168	-6.93
696.399	-9.58
696.63	-8.76
696.861	-7.73
697.092	-3.32
697.323	0.38
697.554	1.82
697.785	2.07
698.016	4.23
698.247	2.47
698.478	3.7
698.709	4.74
698.94	6.31
699.171	6.28
699.401	1.98
699.632	3.5
699.863	1.24
700.094	0.9
700.325	4.02
700.555	3.79
700.786	5.55
701.017	5.92
701.247	5.44
701.478	5.34
701.709	5.38
701.939	4.43
702.17	6.6
702.401	8.65
702.631	8.88
702.862	8.65
703.092	5.26
703.323	6.98
703.553	10.51
703.784	9.64
704.014	9.23
704.244	4.4
704.475	3.27
704.705	3.27
704.936	2.39
705.166	0.95
705.396	2.43
705.627	2.35
705.857	1.87
706.087	3.4
706.317	1.46
706.548	0.88
706.778	-0.87
707.008	-0.43
707.238	0.28
707.468	-1.81
707.698	-3.56
707.928	-5
708.158	-5.24
708.389	-4.16
708.619	-6.08
708.849	-6.63
709.079	-5.59
709.309	-7.78
709.539	-10.1
709.768	-10.25
709.998	-9.55
710.228	-9.37
710.458	-10.49
710.688	-14.45
710.918	-13.98
711.148	-13.57
711.378	-12.45
711.607	-13.32
711.837	-12.55
712.067	-11.7
712.297	-12.11
712.526	-12.31
712.756	-11.37
712.986	-12.59
713.215	-14.42
713.445	-13.31
713.674	-11.95
713.904	-10.89
714.134	-8.78
714.363	-9.56
714.593	-9.65
714.822	-9.18
715.052	-9.21
715.281	-7.51
715.511	-8.94
715.74	-8.13
715.969	-9.71
716.199	-9.13
716.428	-7.95
716.657	-7.03
716.887	-4.36
717.116	-5.24
717.345	-2.92
717.575	-3.13
717.804	-2.61
718.033	-3.39
718.262	-5.04
718.492	-4.37
718.721	-4.43
718.95	-6.53
719.179	-8.41
719.408	-6.63
719.637	-8.96
719.866	-10.32
720.095	-9.33
720.324	-9.38
720.553	-12.68
720.782	-13.09
721.011	-13.78
721.24	-14.69
721.469	-16.1
721.698	-16.41
721.927	-16.6
722.156	-17.63
722.385	-18.76
722.613	-15.82
722.842	-13.63
723.071	-10.03
723.3	-8.63
723.529	-10.49
723.757	-10.15
723.986	-14.75
724.215	-16.3
724.443	-15.41
724.672	-13.33
724.901	-12.7
725.129	-11.85
725.358	-9.49
725.586	-12.55
725.815	-12.74
726.043	-12.74
726.272	-13.73
726.5	-14.16
726.729	-12.69
726.957	-15.89
727.186	-18.08
727.414	-18.34
727.642	-16.18
727.871	-15.61
728.099	-16.83
728.327	-16.76
728.556	-14.6
728.784	-12.63
729.012	-13.26
729.241	-11.27
729.469	-12.7
729.697	-15.78
729.925	-17.1
730.153	-19.03
730.381	-20.72
730.61	-18.74
730.838	-20.66
731.066	-18.37
731.294	-16.87
731.522	-20.48
731.75	-24.06
731.978	-23.99
732.206	-23.94
732.434	-25.36
732.662	-23.96
732.89	-25.91
733.118	-26.94
733.346	-26.62
733.573	-27.05
733.801	-27.88
734.029	-21.41
734.257	-21.26
734.485	-18.25
734.712	-17.6
734.94	-18.72
735.168	-15.04
735.396	-15.5
735.623	-17.09
735.851	-17.28
736.078	-15.43
736.306	-13.67
736.534	-13.64
736.761	-11.93
736.989	-13.42
737.216	-13.32
737.444	-14.96
737.671	-15.17
737.899	-10.81
738.126	-13
738.354	-13.47
738.581	-12.48
738.809	-11.45
739.036	-13.73
739.263	-14.01
739.491	-15.84
739.718	-15.48
739.945	-10.82
740.173	-9.99
740.4	-9.44
740.627	-10.18
740.854	-9.41
741.081	-11.97
741.309	-12.73
741.536	-15.97
741.763	-16.64
741.99	-15.04
742.217	-15.72
742.444	-16.17
742.671	-14.38
742.898	-15.15
743.125	-17.13
743.352	-21.31
743.579	-21.69
743.806	-23.04
744.033	-20.08
744.26	-20.19
744.487	-20.52
744.714	-20.03
744.941	-22.26
745.167	-18.58
745.394	-18.48
745.621	-18.97
745.848	-19.14
746.075	-16.29
746.301	-13.37
746.528	-9.32
746.755	-9.93
746.981	-10.88
747.208	-8.57
747.435	-6.5
747.661	-6.08
747.888	-5.4
748.114	-7.61
748.341	-3.98
748.567	-2.3
748.794	-4.27
749.02	-5.25
749.247	-7.52
749.473	-7.24
749.7	-8.09
749.926	-8.08
750.152	-4.89
750.379	-3.35
750.605	-2.54
750.831	-3.49
751.058	-5.38
751.284	-6.5
751.51	-3.66
751.737	-1.49
751.963	-2.23
752.189	-3.61
752.415	-4.3
752.641	-4.2
752.867	-4.65
753.094	-6.19
753.32	-7.94
753.546	-9.11
753.772	-7.83
753.998	-8.24
754.224	-9.35
754.45	-10.28
754.676	-11.2
754.902	-12.05
755.128	-9.79
755.354	-10.93
755.579	-9.36
755.805	-6.6
756.031	-7.88
756.257	-8.21
756.483	-9.46
756.709	-11.17
756.934	-10.82
757.16	-13
757.386	-12.99
757.612	-14.77
757.837	-14.68
758.063	-13.2
758.289	-10.4
758.514	-11.94
758.74	-16.36
758.965	-17.65
759.191	-16
759.416	-15.61
759.642	-13.61
759.868	-13.65
760.093	-11.43
760.318	-13.21
760.544	-12.48
760.769	-12.12
760.995	-13.52
761.22	-14.16
761.445	-12.04
761.671	-10.05
761.896	-7.52
762.121	-9.17
762.347	-10.1
762.572	-13.92
762.797	-15.79
763.022	-15
763.248	-11.44
763.473	-10.02
763.698	-10.04
763.923	-10.25
764.148	-10.96
764.373	-11.82
764.598	-10.28
764.823	-8.27
765.048	-10.28
765.273	-13.59
765.498	-14.55
765.723	-14.1
765.948	-12.1
766.173	-12.66
766.398	-11.23
766.623	-13.47
766.848	-13.11
767.073	-14.63
767.298	-14.59
767.522	-16.33
767.747	-16.21
767.972	-16.25
768.197	-14.69
768.421	-16.72
768.646	-19.11
768.871	-22.41
769.095	-21.98
769.32	-20.57
769.545	-18.53
769.769	-16.73
769.994	-15.63
770.218	-17.56
770.443	-16.32
770.667	-15.79
770.892	-14.88
771.116	-15.44
771.341	-13.48
771.565	-13.9
771.79	-13.08
772.014	-12.79
772.238	-12.92
772.463	-10.03
772.687	-8.74
772.911	-9.53
773.136	-12.13
773.36	-11.86
773.584	-10.25
773.808	-11.26
774.033	-10.96
774.257	-10.48
774.481	-11.07
774.705	-12.42
774.929	-12.56
775.153	-13.08
775.377	-11.85
775.602	-11.76
775.826	-8.99
776.05	-7.3
776.274	-8.48
776.498	-9.01
776.722	-10.24
776.945	-9.82
777.169	-10.24
777.393	-13.05
777.617	-13.73
777.841	-13.41
778.065	-12.28
778.289	-13.14
778.512	-14.2
778.736	-14.28
778.96	-16.29
779.184	-14.66
779.407	-15.89
779.631	-16.45
779.855	-17.6
780.078	-17.6
780.302	-19.54
780.526	-22.66
780.749	-21.54
780.973	-20.34
781.196	-18.62
781.42	-19.27
781.643	-18.75
781.867	-17.16
782.09	-18.85
782.314	-19.68
782.537	-19.28
782.76	-20.25
782.984	-18.46
783.207	-18.14
783.431	-17.94
783.654	-19.51
783.877	-21.49
784.1	-22.28
784.324	-22.94
784.547	-21.52
784.77	-24.59
784.993	-25.39
785.216	-27.36
785.44	-26.3
785.663	-28.26
785.886	-24.64
786.109	-24.22
786.332	-24.09
786.555	-23.37
786.778	-21.98
787.001	-18.97
787.224	-16.78
787.447	-13.84
787.67	-14.21
787.893	-14.38
788.116	-15.48
788.339	-15.09
788.561	-16.34
788.784	-20
789.007	-20.74
789.23	-20.66
789.453	-21.55
789.675	-23.25
789.898	-26.55
790.121	-27.33
790.344	-28.86
790.566	-25.71
790.789	-24.51
791.012	-24.88
791.234	-21.22
791.457	-18.16
791.679	-17.01
791.902	-16.84
792.124	-16.13
792.347	-16.32
792.569	-16.62
792.792	-19.18
793.014	-18.02
793.237	-17.68
793.459	-18.36
793.681	-17.34
793.904	-19.18
794.126	-20.38
794.348	-20.39
794.571	-19.16
794.793	-19.93
795.015	-19.83
795.237	-19.85
795.46	-17.3
795.682	-16.14
795.904	-14.67
796.126	-17.31
796.348	-17.34
796.57	-14.86
796.792	-14.26
797.014	-11.71
797.237	-8.63
797.459	-9.26
797.681	-9.18
797.903	-10.67
798.124	-10.53
798.346	-2.02
798.568	-0.83
798.79	2.51
799.012	3.64
799.234	3.81
799.456	5.8
799.678	7.36
799.899	6
800.121	3.84
800.343	3.42
800.565	2.27
800.786	2.99
801.008	4.05
801.23	2.45
801.451	2.76
801.673	-1.06
801.895	-0.55
802.116	1.6
802.338	1.05
802.559	1.57
802.781	1.29
803.002	3.54
803.224	5.54
803.445	4.1
803.667	5.44
803.888	3.51
804.109	3.63
804.331	3.57
804.552	4.64
804.773	7.59
804.995	4.18
805.216	-7.91
805.437	-10.45
805.658	-12.81
805.88	-13.83
806.101	-12.33
806.322	-12.88
806.543	-13.49
806.764	-14.94
806.985	-12.76
807.207	-11.4
807.428	-11.02
807.649	-14.45
807.87	-16.42
808.091	-15.89
808.312	-15.3
808.533	-9.36
808.754	-8.83
808.975	-11.42
809.195	-9.62
809.416	-9.78
809.637	-10.65
809.858	-11.06
810.079	-13.06
810.3	-12.01
810.52	-12.71
810.741	-13.24
810.962	-14.97
811.183	-15.58
811.403	-15.52
811.624	-15.91
811.845	-13.76
812.065	-12.04
812.286	-11.69
812.506	-11.58
812.727	-10.13
812.948	-10.54
813.168	-8.67
813.389	-9.32
813.609	-8.16
813.83	-9.35
814.05	-11.16
814.27	-10.61
814.491	-6.92
814.711	-6.75
814.931	-8.14
815.152	-9.22
815.372	-11.74
815.592	-12.14
815.813	-12.87
816.033	-14.11
816.253	-12.88
816.473	-13.9
816.694	-13.67
816.914	-12.4
817.134	-12.68
817.354	-14.94
817.574	-13.72
817.794	-14.47
818.014	-15.12
818.234	-16.47
818.454	-17.08
818.674	-18.46
818.894	-20.32
819.114	-16.65
819.334	-15.87
819.554	-15.99
819.774	-14.16
819.994	-16.56
820.214	-17.74
820.433	-16.76
820.653	-17.57
820.873	-16.04
821.093	-16.5
821.312	-18.9
821.532	-17.04
821.752	-15.88
821.972	-16.29
822.191	-15.09
822.411	-16.67
822.63	-15.5
822.85	-14.66
823.07	-18.29
823.289	-16.99
823.509	-18.67
823.728	-17.36
823.948	-18.84
824.167	-19.19
824.387	-21.32
824.606	-19.25
824.825	-21.14
825.045	-20.03
825.264	-20.43
825.483	-19.29
825.703	-18.65
825.922	-22.16
826.141	-24.17
826.361	-24.71
826.58	-27.97
826.799	-29.42
827.018	-27.34
827.237	-27.08
827.456	-23.42
827.676	-22.49
827.895	-22.07
828.114	-20.82
828.333	-21.09
828.552	-19.97
828.771	-19.5
828.99	-20.58
829.209	-19.5
829.428	-17.15
829.647	-17.71
829.866	-16.62
830.084	-16.78
830.303	-16.57
830.522	-17.19
830.741	-16.5
830.96	-15.71
831.179	-14.29
831.397	-16.19
831.616	-14.27
831.835	-15.38
832.053	-15.28
832.272	-14.54
832.491	-13.54
832.709	-13.11
832.928	-12.71
833.147	-11.25
833.365	-10.12
833.584	-8.38
833.802	-6.11
834.021	-6.22
834.239	-6.58
834.458	-8.68
834.676	-12.42
834.894	-12.44
835.113	-14.67
835.331	-15.27
835.55	-16.02
835.768	-15.36
835.986	-15.36
836.204	-17.47
836.423	-17.9
836.641	-16.49
836.859	-17.04
837.077	-16.33
837.296	-16.34
837.514	-16.78
837.732	-17.85
837.95	-18.37
838.168	-16.58
838.386	-17.45
838.604	-15.86
838.822	-15.1
839.04	-16.79
839.258	-15.84
839.476	-13.95
839.694	-14.36
839.912	-16.57
840.13	-16.06
840.348	-13.2
840.566	-17.27
840.783	-16.83
841.001	-18.48
841.219	-17.07
841.437	-15.65
841.655	-15.09
841.872	-13.63
842.09	-14.55
842.308	-13.47
842.525	-14.45
842.743	-13.65
842.961	-14.11
843.178	-14.87
843.396	-12.12
843.613	-10.68
843.831	-10.24
844.048	-9.85
844.266	-8.69
844.483	-8.24
844.701	-9.02
844.918	-9.38
845.136	-9.62
845.353	-10.56
845.57	-9.97
845.788	-6.25
846.005	-8.61
846.222	-11.19
846.439	-9.95
846.657	-9.2
846.874	-8.6
847.091	-11.43
847.308	-10.16
847.526	-11.92
847.743	-11.23
847.96	-12.63
848.177	-12.04
848.394	-13.15
848.611	-13.04
848.828	-13.06
849.045	-13.57
849.262	-12.04
849.479	-12.4
849.696	-12.63
849.913	-14.5
850.13	-18.07
850.347	-15.76
850.564	-15.81
850.78	-18.41
850.997	-22.06
851.214	-21.41
851.431	-20.95
851.647	-23.38
851.864	-22.36
852.081	-21.27
852.298	-23.45
852.514	-25.92
852.731	-24.95
852.948	-22.66
853.164	-21.74
853.381	-21.44
853.597	-23.07
853.814	-24.96
854.03	-27.12
854.247	-24.82
854.463	-25.57
854.68	-26.5
854.896	-25.73
855.113	-26.14
855.329	-25.9
855.545	-23.28
855.762	-24.11
855.978	-27.63
856.194	-30.74
856.411	-28.81
856.627	-27.17
856.843	-26.93
857.059	-25.95
857.275	-26.64
857.492	-24.6
857.708	-21.2
857.924	-20.27
858.14	-17.21
858.356	-17.65
858.572	-17.56
858.788	-18.75
859.004	-17.15
859.22	-18.93
859.436	-17.56
859.652	-18.81
859.868	-20.54
860.084	-21.66
860.3	-22.11
860.516	-20.87
860.731	-19.65
860.947	-22.37
861.163	-21.52
861.379	-19.69
861.595	-18.31
861.81	-16.18
862.026	-16.18
862.242	-17.98
862.457	-17.96
862.673	-14.87
862.889	-13.31
863.104	-13.42
863.32	-13.06
863.535	-13.07
863.751	-15.73
863.966	-12.45
864.182	-12.25
864.397	-13.17
864.613	-14.75
864.828	-17.6
865.044	-16.19
865.259	-15.37
865.474	-15.74
865.69	-14.55
865.905	-13.16
866.12	-15.61
866.336	-15.87
866.551	-14.07
866.766	-14.66
866.981	-15.17
867.196	-14.49
867.412	-14.11
867.627	-12.97
867.842	-13.78
868.057	-14
868.272	-14.85
868.487	-15.72
868.702	-18.21
868.917	-17.84
869.132	-15.54
869.347	-15.3
869.562	-15.59
869.777	-16.23
869.992	-17.41
870.207	-16.72
870.422	-18.06
870.636	-21.09
870.851	-21.54
871.066	-22.55
871.281	-22.44
871.495	-22.53
871.71	-20.29
871.925	-22.84
872.14	-24.84
872.354	-27.46
872.569	-28.32
872.783	-27.4
872.998	-27.51
873.213	-28.29
873.427	-25.45
873.642	-24.05
873.856	-25.25
874.071	-25.46
874.285	-26.81
874.5	-27.43
874.714	-29.09
874.928	-29.13
875.143	-29.77
875.357	-28.32
875.571	-30.13
875.786	-31.32
876	-29.49
876.214	-28.19
876.429	-30.72
876.643	-29.44
876.857	-28.12
877.071	-26.94
877.285	-27.07
877.499	-28.78
877.714	-27.15
877.928	-26.16
878.142	-26.56
878.356	-28.21
878.57	-26.09
878.784	-23.42
878.998	-23.73
879.212	-21.77
879.426	-23.2
879.639	-21.73
879.853	-22.5
880.067	-23.32
880.281	-24.85
880.495	-23.67
880.709	-20.91
880.922	-20.74
881.136	-19.33
881.35	-16.81
881.564	-18.43
881.777	-19.93
881.991	-19.48
882.205	-15.88
882.418	-15.33
882.632	-17.94
882.845	-17.67
883.059	-15.97
883.273	-17.17
883.486	-18.79
883.7	-16.99
883.913	-18.34
884.126	-16.69
884.34	-18.56
884.553	-19.29
884.767	-17.9
884.98	-17.48
885.193	-19.36
885.407	-19.69
885.62	-18.76
885.833	-19.09
886.046	-17.65
886.26	-18.98
886.473	-20.37
886.686	-21.11
886.899	-18.98
887.112	-19.45
887.326	-24.16
887.539	-22.03
887.752	-21.31
887.965	-23.19
888.178	-21.3
888.391	-20.72
888.604	-21.65
888.817	-24.26
889.03	-24.49
889.243	-26.17
889.455	-27.59
889.668	-26.8
889.881	-24
890.094	-25.22
890.307	-28.04
890.52	-25.99
890.732	-25.72
890.945	-25.87
891.158	-25.78
891.37	-26.66
891.583	-26.97
891.796	-25.28
892.008	-27.12
892.221	-28.35
892.434	-31.31
892.646	-30.97
892.859	-31.41
893.071	-28.8
893.284	-27.49
893.496	-29.64
893.709	-31.21
893.921	-28.89
894.133	-29.93
894.346	-30.81
894.558	-30.52
894.771	-30.94
894.983	-29.86
895.195	-28.01
895.407	-27.31
895.62	-29.5
895.832	-28.2
896.044	-26.39
896.256	-27.59
896.468	-28.66
896.681	-25.76
896.893	-25.7
897.105	-25.3
897.317	-26.29
897.529	-24.87
897.741	-24.79
897.953	-23.73
898.165	-25.85
898.377	-27.09
898.589	-25.07
898.801	-23.48
899.013	-19.94
899.224	-19
899.436	-16.95
899.648	-18.16
899.86	-19.72
900.072	-16.59
900.283	-14.2
900.495	-12.68
900.707	-12.86
900.919	-15.12
901.13	-15.12
901.342	-16.51
901.554	-17.61
901.765	-17.95
901.977	-20.03
902.188	-19.19
902.4	-20.05
902.611	-21.96
902.823	-23.46
903.034	-25.71
903.246	-28.26
903.457	-27.34
903.669	-28.53
903.88	-29.39
904.091	-30.17
904.303	-28.58
904.514	-29.3
904.725	-26.78
904.936	-25.72
905.148	-25.91
905.359	-24.5
905.57	-25.19
905.781	-27.12
905.992	-28
906.204	-26.67
906.415	-26.51
906.626	-28.31
906.837	-25.52
907.048	-25.9
907.259	-26.37
907.47	-27.05
907.681	-27.37
907.892	-23.89
908.103	-22.63
908.314	-24.4
908.525	-21.58
908.735	-22.03
908.946	-23.67
909.157	-24.02
909.368	-21
909.579	-18.85
909.789	-20.37
910	-22.35
910.211	-20.46
910.421	-20.05
910.632	-17.59
910.843	-20.14
911.053	-16.38
911.264	-14.59
911.475	-14.79
911.685	-14.81
911.896	-14.75
912.106	-15.75
912.317	-17.51
912.527	-15.84
912.737	-17.17
912.948	-15.8
913.158	-14.97
913.369	-18.85
913.579	-18.1
913.789	-16.6
914	-13.9
914.21	-14.41
914.42	-16.12
914.63	-17.07
914.841	-16.29
915.051	-15.33
915.261	-13.4
915.471	-10.06
915.681	-9.17
915.891	-9.24
916.101	-11.75
916.311	-10.42
916.521	-9.61
916.731	-8.6
916.941	-6.37
917.151	-8.17
917.361	-5.23
917.571	-9.33
917.781	-10.41
917.991	-12.81
918.201	-14.03
918.411	-16.31
918.621	-15.31
918.83	-12.82
919.04	-14.87
919.25	-12.71
919.46	-11.56
919.669	-14.17
919.879	-12.8
920.089	-14.77
920.298	-16.75
920.508	-16.35
920.717	-14.87
920.927	-15.71
921.136	-15.59
921.346	-16.04
921.555	-18.86
921.765	-20.87
921.974	-22.37
922.184	-23.99
922.393	-24.82
922.603	-24.75
922.812	-23.01
923.021	-22.63
923.23	-24.22
923.44	-26.46
923.649	-26.3
923.858	-27.31
924.067	-27.49
924.277	-29.32
924.486	-27.69
924.695	-26.42
924.904	-24.79
925.113	-25.74
925.322	-25.98
925.531	-25.27
925.74	-27.29
925.949	-29.47
926.158	-26.48
926.367	-28.07
926.576	-26.04
926.785	-26.34
926.994	-27.16
927.203	-26.76
927.412	-27.32
927.621	-27.72
927.83	-26.59
928.038	-26.05
928.247	-25.54
928.456	-25.37
928.665	-24.35
928.873	-23.94
929.082	-21.13
929.291	-20.81
929.499	-20.13
929.708	-22.87
929.916	-21.57
930.125	-22.85
930.333	-23.45
930.542	-21.47
930.75	-19.44
930.959	-18.47
931.167	-18.72
931.376	-20.63
931.584	-20.1
931.793	-19.84
932.001	-19.61
932.209	-22.37
932.418	-23.58
932.626	-25.29
932.834	-26.46
933.042	-29.55
933.251	-29.82
933.459	-29.65
933.667	-30.87
933.875	-29.76
934.083	-27.66
934.291	-26.97
934.499	-26.34
934.707	-26.56
934.915	-27.38
935.123	-25.48
935.331	-25.8
935.539	-29.3
935.747	-31.3
935.955	-31.5
936.163	-29.77
936.371	-30.15
936.579	-28.91
936.787	-29.6
936.995	-30.73
937.202	-32.08
937.41	-31.82
937.618	-32.11
937.826	-30.81
938.033	-33.35
938.241	-34.08
938.449	-32.72
938.656	-29.03
938.864	-28.58
939.071	-28.21
939.279	-25.08
939.486	-21.84
939.694	-21.74
939.901	-22.88
940.109	-21.68
940.316	-23.16
940.524	-25.13
940.731	-26.58
940.939	-25.79
941.146	-25.8
941.353	-26.68
941.561	-27.71
941.768	-28.69
941.975	-26.4
942.182	-26.72
942.39	-26.72
942.597	-24.19
942.804	-25.56
943.011	-25.1
943.218	-24.09
943.425	-24.59
943.632	-24.37
943.839	-25.78
944.046	-25.9
944.253	-26.06
944.46	-25.43
944.667	-22.37
944.874	-23.64
945.081	-22.63
945.288	-21.21
945.495	-20.63
945.702	-20.64
945.909	-23.29
946.115	-22.28
946.322	-23.36
946.529	-25.53
946.736	-23.5
946.942	-21.83
947.149	-22.7
947.356	-23.48
947.562	-24.85
947.769	-24.24
947.976	-25.02
948.182	-23.01
948.389	-24.51
948.595	-22.42
948.802	-22.61
949.008	-24.17
949.215	-23.23
949.421	-24.84
949.628	-25.69
949.834	-25.55
950.04	-27.37
950.247	-22.71
950.453	-22.44
950.659	-23.46
950.865	-21.47
951.072	-25.79
951.278	-23.96
951.484	-25.21
951.69	-28.5
951.896	-29.43
952.103	-30.28
952.309	-29.64
952.515	-29.64
952.721	-26.71
952.927	-25.34
953.133	-26.67
953.339	-28.56
953.545	-28.03
953.751	-27.26
953.957	-24.74
954.163	-25.7
954.369	-25.1
954.574	-25.63
954.78	-23.85
954.986	-24.22
955.192	-22.42
955.398	-23.59
955.603	-25.95
955.809	-23.5
956.015	-22.86
956.22	-21.13
956.426	-18.43
956.632	-22.82
956.837	-22.51
957.043	-21.92
957.248	-21.72
957.454	-20.79
957.66	-22.69
957.865	-23.64
958.07	-22.44
958.276	-22.98
958.481	-23.87
958.687	-24.25
958.892	-24.22
959.097	-24.9
959.303	-23.74
959.508	-24.86
959.713	-23.07
959.919	-22.84
960.124	-24.42
960.329	-23.19
960.534	-19.69
960.739	-18.77
960.945	-18.34
961.15	-20.1
961.355	-20.95
961.56	-24.57
961.765	-25.72
961.97	-24.14
962.175	-23.23
962.38	-25.63
962.585	-26.83
962.79	-28.84
962.995	-29.75
963.2	-31.22
963.404	-30.6
963.609	-33.31
963.814	-34.38
964.019	-36.87
964.224	-38.54
964.428	-36.7
964.633	-35.89
964.838	-33.85
965.042	-33.85
965.247	-35.46
965.452	-35.52
965.656	-34.34
965.861	-33.12
966.066	-34.98
966.27	-33.63
966.475	-29.91
966.679	-33.39
966.884	-32.42
967.088	-36.06
967.292	-35.95
967.497	-33.21
967.701	-33.85
967.906	-30.94
968.11	-27.23
968.314	-23.24
968.518	-24.88
968.723	-22.73
968.927	-21.8
969.131	-20.4
969.335	-16.91
969.539	-17.1
969.744	-15.49
969.948	-13.32
970.152	-12.08
970.356	-9.39
970.56	-8.41
970.764	-10.55
970.968	-8.57
971.172	-9.18
971.376	-7.9
971.58	-6.69
971.784	-6.6
971.988	-8.64
972.192	-6.74
972.395	-6.25
972.599	-8.51
972.803	-11
973.007	-9.96
973.21	-10.93
973.414	-9.13
973.618	-10.74
973.822	-12.43
974.025	-12.04
974.229	-12.8
974.432	-17.16
974.636	-19.82
974.84	-18.45
975.043	-17.76
975.247	-18.45
975.45	-18.56
975.654	-18.77
975.857	-16.76
976.06	-18.57
976.264	-20.22
976.467	-18.38
976.671	-19.05
976.874	-17.59
977.077	-17.5
977.28	-18.11
977.484	-20.63
977.687	-22.87
977.89	-21.64
978.093	-22.09
978.297	-22.17
978.5	-23.67
978.703	-22.49
978.906	-21.51
979.109	-21.5
979.312	-20.41
979.515	-20.94
979.718	-20.46
979.921	-20.27
980.124	-21.29
980.327	-20.73
980.53	-20.91
980.733	-18.53
980.936	-16.75
981.138	-18.34
981.341	-17.88
981.544	-17.82
981.747	-19.26
981.949	-20.05
982.152	-19.76
982.355	-20.56
982.558	-16.52
982.76	-19.27
982.963	-20.79
983.165	-21.46
983.368	-21.4
983.571	-21.99
983.773	-18.49
983.976	-16.52
984.178	-15.31
984.381	-16.14
984.583	-18.08
984.785	-17.08
984.988	-15.5
985.19	-13.57
985.392	-14.63
985.595	-16.45
985.797	-16.73
985.999	-14.98
986.202	-12.52
986.404	-11.65
986.606	-8.85
986.808	-9.71
987.01	-6.74
987.212	-8.04
987.415	-9.29
987.617	-9
987.819	-9.84
988.021	-8.57
988.223	-10.94
988.425	-12.16
988.627	-12.35
988.829	-16.96
989.031	-14.57
989.232	-14.14
989.434	-12.89
989.636	-10.78
989.838	-10.67
990.04	-11.06
990.242	-12.61
990.443	-14.4
990.645	-11.92
990.847	-9.19
991.048	-10.79
991.25	-12.21
991.452	-13.68
991.653	-14.29
991.855	-15.75
992.057	-16.72
992.258	-16.5
992.46	-16.87
992.661	-17.35
992.863	-19.76
993.064	-19.29
993.265	-22.17
993.467	-23.52
993.668	-21.33
993.87	-21.76
994.071	-22.04
994.272	-22.3
994.473	-20.31
994.675	-20.34
994.876	-19.33
995.077	-18.19
995.278	-18.07
995.48	-16.93
995.681	-18.84
995.882	-18.76
996.083	-19.88
996.284	-21.18
996.485	-19.77
996.686	-20.87
996.887	-22.04
997.088	-24.34
997.289	-24.14
997.49	-25.36
997.691	-24.41
997.892	-24.07
998.092	-19.34
998.293	-19.34
998.494	-20.36
998.695	-21.26
998.896	-19.09
999.096	-19.67
999.297	-19.17
999.498	-19.48
999.698	-21.11
999.899	-23.16
1000.1	-25.5
1000.3	-25.37
1000.501	-25.23
1000.701	-24.22
1000.902	-23.42
1001.102	-23.67
1001.303	-21.67
1001.503	-23.93
1001.704	-22.84
1001.904	-23.42
1002.105	-23.87
1002.305	-23.12
1002.505	-26.29
1002.706	-27.42
1002.906	-27.42
1003.106	-28.14
1003.306	-27.98
1003.507	-26.43
1003.707	-25.46
1003.907	-24.36
1004.107	-22.77
1004.307	-23.97
1004.507	-21.67
1004.707	-21.55
1004.907	-22.16
1005.107	-22.56
1005.308	-21.58
1005.507	-23.73
1005.707	-21.82
1005.907	-20.73
1006.107	-19.39
1006.307	-17.02
1006.507	-17.03
1006.707	-16.77
1006.907	-16.93
1007.106	-18.34
1007.306	-18.73
1007.506	-19.32
1007.706	-17.76
1007.905	-21.09
1008.105	-20.21
1008.305	-21.58
1008.504	-20.83
1008.704	-15.58
1008.903	-15.36
1009.103	-13.16
1009.303	-15.02
1009.502	-14.31
1009.702	-15.96
1009.901	-16.23
1010.1	-19.11
1010.3	-18.83
1010.499	-20.13
1010.699	-21.33
1010.898	-22.16
1011.097	-22.86
1011.296	-24.57
1011.496	-26.58
1011.695	-26.84
1011.894	-28.99
1012.093	-26.58
1012.293	-26.48
1012.492	-27.41
1012.691	-27.53
1012.89	-27.5
1013.089	-28.45
1013.288	-26.02
1013.487	-24.79
1013.686	-25.27
1013.885	-27.48
1014.084	-25.51
1014.283	-25.48
1014.482	-24.74
1014.681	-25.04
1014.88	-28.31
1015.078	-26.69
1015.277	-29.73
1015.476	-29.1
1015.675	-28.75
1015.873	-27.88
1016.072	-29.21
1016.271	-25.98
1016.47	-28.5
1016.668	-26.2
1016.867	-27.58
1017.065	-29.77
1017.264	-30.16
1017.463	-29.98
1017.661	-30.02
1017.86	-28.33
1018.058	-27.48
1018.256	-28.61
1018.455	-29.62
1018.653	-29.81
1018.852	-29.14
1019.05	-31.46
1019.248	-33.89
1019.447	-35.94
1019.645	-36.58
1019.843	-37.26
1020.041	-36.09
1020.24	-37.41
1020.438	-32.95
1020.636	-33.09
1020.834	-34.24
1021.032	-31.54
1021.23	-32.88
1021.428	-30.88
1021.626	-28.48
1021.824	-28.3
1022.022	-28.93
1022.22	-26.43
1022.418	-27.16
1022.616	-26.82
1022.814	-28.98
1023.012	-28.69
1023.21	-26.23
1023.408	-25.86
1023.606	-25.6
1023.803	-20.94
1024.001	-21.39
1024.199	-24.18
1024.397	-24.4
1024.594	-23.42
1024.792	-24.42
1024.99	-22.7
1025.187	-21.42
1025.385	-17.81
1025.582	-17.03
1025.78	-18.24
1025.977	-17.73
1026.175	-17
1026.372	-16.74
1026.57	-19.92
1026.767	-17.99
1026.965	-17.16
1027.162	-18.11
1027.359	-18.02
1027.557	-17.78
1027.754	-19.82
1027.951	-20.78
1028.148	-19.66
1028.346	-22.2
1028.543	-23.49
1028.74	-24
1028.937	-25.54
1029.134	-25.62
1029.331	-26.45
1029.528	-27.18
1029.725	-27.6
1029.923	-29.4
1030.12	-26.46
1030.317	-24.35
1030.513	-22.81
1030.71	-22.47
1030.907	-20.08
1031.104	-22.42
1031.301	-23.2
1031.498	-23.75
1031.695	-24.43
1031.892	-22.95
1032.088	-24.17
1032.285	-25.68
1032.482	-26.6
1032.678	-27.86
1032.875	-30.68
1033.072	-30.95
1033.268	-31.19
1033.465	-31.99
1033.662	-33.57
1033.858	-32.84
1034.055	-32.43
1034.251	-31.73
1034.448	-32.28
1034.644	-32.05
1034.84	-29.91
1035.037	-27.89
1035.233	-27.58
1035.43	-26.46
1035.626	-26.42
1035.822	-25.46
1036.019	-27.17
1036.215	-29.95
1036.411	-31.03
1036.607	-32.49
1036.803	-35.8
1037	-38.37
1037.196	-38.71
1037.392	-39.14
1037.588	-40.25
1037.784	-39.12
1037.98	-41.22
1038.176	-40.27
1038.372	-40.42
1038.568	-37.88
1038.764	-37.95
1038.96	-33.98
1039.156	-34.78
1039.352	-34.98
1039.547	-32.59
1039.743	-30.8
1039.939	-30.09
1040.135	-30.46
1040.331	-30.24
1040.526	-25.83
1040.722	-27.6
1040.918	-28.62
1041.113	-31.37
1041.309	-32.54
1041.505	-34.89
1041.7	-34.13
1041.896	-35.07
1042.091	-35.59
1042.287	-35.61
1042.482	-34.62
1042.678	-34.99
1042.873	-32.8
1043.069	-31.66
1043.264	-31
1043.459	-29.65
1043.655	-29.33
1043.85	-30.39
1044.045	-28.02
1044.24	-27.79
1044.436	-25.74
1044.631	-26.94
1044.826	-26.27
1045.021	-31.4
1045.216	-31.07
