Data from FLMT021711__1__17-05-13-404.txt Node

Date: Tue Nov 05 17:05:13 CET 2024
User: Etudiants TP
Spectrometer: FLMT02171
Trigger mode: 0
Integration Time (sec): 1.000000E-1
Scans to average: 5
Electric dark correction enabled: true
Nonlinearity correction enabled: false
Boxcar width: 15
XAxis mode: Wavelengths
Number of Pixels in Spectrum: 3648
>>>>>Begin Spectral Data<<<<<
194.658	-50.89
194.923	-50.91
195.188	-43.34
195.453	-43.89
195.717	-40.59
195.982	-39.82
196.247	-37.83
196.512	-40.95
196.777	-39.4
197.042	-37.48
197.307	-36.74
197.572	-33.44
197.837	-33.19
198.101	-31.87
198.366	-29.85
198.631	-29.32
198.896	-25.02
199.161	-19.66
199.425	-12.74
199.69	-5.62
199.955	-5.79
200.22	-7.7
200.484	-8.53
200.749	-9.75
201.014	-8.93
201.278	-9.12
201.543	-8.1
201.807	-8.8
202.072	-7.35
202.337	-8.7
202.601	-9.48
202.866	-11.07
203.13	-9.21
203.395	-12.61
203.659	-11.66
203.924	-13.05
204.189	-12.36
204.453	-11.89
204.717	-9.23
204.982	-8.49
205.246	-8.05
205.511	-7.09
205.775	-6.63
206.04	-2.04
206.304	-0.19
206.568	1.5
206.833	2.12
207.097	2.99
207.361	4.28
207.626	5.98
207.89	7.86
208.154	9.07
208.419	10.64
208.683	11.28
208.947	12.1
209.211	11.71
209.476	11.57
209.74	12.59
210.004	13.31
210.268	13.26
210.532	16.41
210.796	17.2
211.061	18.55
211.325	18.71
211.589	18.41
211.853	18.16
212.117	19.13
212.381	18.15
212.645	18.74
212.909	19.41
213.173	16.7
213.437	16.85
213.701	17.9
213.965	17.69
214.229	12.45
214.493	11.19
214.757	10.48
215.021	10.51
215.285	14.5
215.549	16.49
215.813	14.25
216.077	12.88
216.34	14.64
216.604	13.15
216.868	13.43
217.132	15.2
217.396	14.86
217.659	16.32
217.923	12.87
218.187	12.12
218.451	11.4
218.714	8.77
218.978	8.69
219.242	9.84
219.505	10.85
219.769	12.01
220.033	13.14
220.296	14.5
220.56	16.87
220.824	14.84
221.087	14.06
221.351	13.25
221.614	12.88
221.878	12.85
222.142	11.8
222.405	12.42
222.669	14.95
222.932	10.2
223.196	9.47
223.459	6.49
223.722	7.52
223.986	7.06
224.249	5.49
224.513	4.55
224.776	5.13
225.04	4.14
225.303	3.1
225.566	3.79
225.83	3.47
226.093	7.38
226.356	5.1
226.62	4.44
226.883	6.65
227.146	6.09
227.409	5.69
227.673	3.98
227.936	2.2
228.199	1.78
228.462	-0.52
228.725	-1.31
228.989	-1.4
229.252	0.39
229.515	6.03
229.778	5.99
230.041	5.82
230.304	3.19
230.567	4.52
230.83	2.66
231.093	6.09
231.356	5.53
231.619	10.96
231.882	8.33
232.145	10.15
232.408	10.39
232.671	9.79
232.934	8.65
233.197	7.87
233.46	7.88
233.723	7.99
233.986	7.06
234.249	3.57
234.512	6.86
234.775	9.97
235.037	8.35
235.3	9.2
235.563	8.89
235.826	9.1
236.089	11.58
236.351	10.93
236.614	12.85
236.877	13.51
237.14	16.1
237.402	14.75
237.665	9.73
237.928	7.94
238.19	4.91
238.453	8.75
238.716	8.39
238.978	6.87
239.241	5.63
239.503	9.1
239.766	4.36
240.029	4.16
240.291	6.91
240.554	8.09
240.816	8.37
241.079	8.75
241.341	9.53
241.604	8.24
241.866	6.34
242.129	7.37
242.391	9.2
242.653	7.64
242.916	7.14
243.178	7.04
243.441	7.83
243.703	6.41
243.965	5.24
244.228	5.76
244.49	5.8
244.752	7.19
245.015	7.9
245.277	8.61
245.539	8.92
245.801	10.12
246.064	10.78
246.326	11.27
246.588	9.03
246.85	9.97
247.112	10.79
247.374	13.77
247.637	14.54
247.899	14.27
248.161	15.09
248.423	11.15
248.685	10.5
248.947	10.15
249.209	10.45
249.471	11.08
249.733	11.83
249.995	10.65
250.257	9.87
250.519	8.15
250.781	10.63
251.043	9.18
251.305	10.45
251.567	11.59
251.829	13.21
252.091	12.92
252.353	9.08
252.615	9.84
252.876	6.22
253.138	4.25
253.4	1.04
253.662	1.25
253.924	3.13
254.185	4.44
254.447	3.93
254.709	4.71
254.971	6.2
255.232	7.69
255.494	4.94
255.756	1.61
256.017	2.69
256.279	1.8
256.541	1.38
256.802	1.58
257.064	1.8
257.326	0.94
257.587	1.09
257.849	2.55
258.11	5.16
258.372	7.24
258.633	9.79
258.895	8.43
259.156	7.17
259.418	6.98
259.679	3.45
259.941	1.34
260.202	3.5
260.464	5.86
260.725	5.16
260.987	5.77
261.248	4.62
261.509	5.48
261.771	4.21
262.032	4.5
262.293	3.71
262.555	5.3
262.816	4.35
263.077	2.55
263.338	2.12
263.6	3.24
263.861	3.79
264.122	3.51
264.383	5.86
264.645	7.35
264.906	6.1
265.167	6.36
265.428	5.07
265.689	6.6
265.95	5.03
266.211	5.31
266.473	3.85
266.734	1.8
266.995	-1.49
267.256	0.21
267.517	1.2
267.778	4.34
268.039	5.77
268.3	5.64
268.561	3.88
268.822	6.85
269.083	4.41
269.344	3.15
269.604	2.09
269.865	2.57
270.126	0.82
270.387	2.27
270.648	2.91
270.909	3.1
271.17	0.87
271.43	-2.67
271.691	-5.54
271.952	-6.62
272.213	-5.48
272.473	-7.84
272.734	-7.02
272.995	-6.22
273.256	-5.05
273.516	-1.37
273.777	-4.25
274.038	-3.07
274.298	-3.37
274.559	-3.88
274.82	-0.57
275.08	1.55
275.341	2.53
275.601	2.29
275.862	0.48
276.122	1.34
276.383	0.57
276.643	2.88
276.904	0.67
277.164	4.16
277.425	6.02
277.685	8.65
277.946	9
278.206	8.89
278.467	10.62
278.727	10.7
278.987	9.96
279.248	11.02
279.508	12.54
279.768	15.97
280.029	17.21
280.289	13.57
280.549	12.42
280.81	12.19
281.07	10.59
281.33	11.04
281.59	9.47
281.851	11.78
282.111	11.5
282.371	10.16
282.631	11.35
282.891	10.22
283.151	9.8
283.412	7.57
283.672	6.27
283.932	5.79
284.192	5.21
284.452	3.65
284.712	0.99
284.972	0.28
285.232	-1.37
285.492	-0.21
285.752	-1.5
286.012	4.11
286.272	5.71
286.532	1.9
286.792	1.46
287.052	2.56
287.312	3.58
287.571	3.64
287.831	4.07
288.091	1.8
288.351	2.79
288.611	6.89
288.871	6.63
289.13	8.1
289.39	4.09
289.65	5.33
289.91	3.91
290.17	5.8
290.429	8.13
290.689	7.13
290.949	4.11
291.208	4.91
291.468	8.03
291.728	8.26
291.987	10.83
292.247	9.79
292.506	11.84
292.766	13.88
293.026	11.93
293.285	12.2
293.545	14.93
293.804	15.72
294.064	12.87
294.323	10.28
294.583	11.22
294.842	12.02
295.102	12.59
295.361	12.03
295.621	11.22
295.88	9.79
296.139	9.61
296.399	10.97
296.658	6.46
296.917	6.95
297.177	4.72
297.436	7.91
297.695	6.87
297.955	7.04
298.214	5.82
298.473	6.53
298.732	7.17
298.992	9.78
299.251	9.84
299.51	7.17
299.769	7.39
300.028	5.76
300.287	6.23
300.547	7.21
300.806	6.27
301.065	10.55
301.324	12.64
301.583	8.3
301.842	5.37
302.101	3.83
302.36	5.16
302.619	5.58
302.878	5.46
303.137	3.28
303.396	4.22
303.655	5.65
303.914	4.02
304.173	5.8
304.432	5.65
304.691	8.33
304.95	5.73
305.208	9.39
305.467	9.09
305.726	7.79
305.985	10.42
306.244	10.71
306.503	10.72
306.761	9.03
307.02	5.41
307.279	5.24
307.537	4.24
307.796	2.55
308.055	-0.19
308.314	0.99
308.572	-1.31
308.831	-1.83
309.09	-1.92
309.348	-1.12
309.607	0.15
309.865	3.57
310.124	2.65
310.382	4.95
310.641	4.98
310.9	3.95
311.158	4.79
311.417	5.1
311.675	5.83
311.933	6.03
312.192	5.76
312.45	3.84
312.709	4.42
312.967	3.38
313.226	2.49
313.484	0.65
313.742	0.25
314.001	-2.9
314.259	-4.47
314.517	-4.78
314.776	-2.45
315.034	0.47
315.292	-1.23
315.55	-1.37
315.809	-2.23
316.067	0.48
316.325	-1.07
316.583	0.72
316.841	1.11
317.1	-0.34
317.358	-3.41
317.616	-5.2
317.874	-8.27
318.132	-8.5
318.39	-9.35
318.648	-10.03
318.906	-11.16
319.164	-12.02
319.422	-13.05
319.68	-14.72
319.938	-12.56
320.196	-12.25
320.454	-9.16
320.712	-11.17
320.97	-10.09
321.228	-11.79
321.486	-9.73
321.744	-8.22
322.002	-5.77
322.26	-6.67
322.517	-6.2
322.775	-8.83
323.033	-10.08
323.291	-7.55
323.549	-6.3
323.806	-3.5
324.064	-4.15
324.322	-2.39
324.58	-4.92
324.837	-3.46
325.095	-6.23
325.353	-3.66
325.61	-1.77
325.868	-0.75
326.126	0.6
326.383	-0.54
326.641	-1.86
326.898	0.28
327.156	1.16
327.413	1.01
327.671	1.88
327.928	2.45
328.186	2.3
328.443	-0.12
328.701	4.16
328.958	4.19
329.216	4.98
329.473	3.23
329.731	3.48
329.988	3.16
330.245	6.51
330.503	7.01
330.76	6.96
331.017	9.43
331.275	7.55
331.532	5.8
331.789	4.25
332.047	3.75
332.304	0.68
332.561	3.07
332.818	2.11
333.076	5.5
333.333	5.14
333.59	5.16
333.847	6.09
334.104	5.72
334.361	5.92
334.618	5.51
334.876	2.87
335.133	2.22
335.39	-0.19
335.647	0.24
335.904	-3.21
336.161	-4.3
336.418	-4.07
336.675	-8.62
336.932	-6.67
337.189	-5.82
337.446	-5.09
337.703	-6.97
337.96	-10.79
338.216	-11.11
338.473	-13.22
338.73	-11.45
338.987	-11.25
339.244	-8.66
339.501	-8.19
339.757	-8.11
340.014	-5.96
340.271	-4.76
340.528	-4.48
340.785	-0.94
341.041	-1.99
341.298	-4.11
341.555	-3.84
341.811	-4.74
342.068	-6.68
342.325	-6.56
342.581	-3.93
342.838	-0.96
343.094	-0.31
343.351	1.2
343.608	-0.19
343.864	2.76
344.121	3.14
344.377	2.9
344.634	3.61
344.89	3.43
345.147	2.9
345.403	3.17
345.66	4.11
345.916	6.19
346.172	3.68
346.429	2.09
346.685	1.37
346.942	0.48
347.198	-3.06
347.454	-3.56
347.711	-2.72
347.967	-6.65
348.223	-5.01
348.48	-5.88
348.736	-3.91
348.992	-3.78
349.248	-2.3
349.504	-3.25
349.761	-3.63
350.017	-4.15
350.273	-4.51
350.529	-4.75
350.785	-5.79
351.041	-6.91
351.297	-6.06
351.554	-6.89
351.81	-8.86
352.066	-8.2
352.322	-8.91
352.578	-8.22
352.834	-8.63
353.09	-8.82
353.346	-10.28
353.602	-11.8
353.858	-11.9
354.114	-11.34
354.369	-9.82
354.625	-9.69
354.881	-11.17
355.137	-9.36
355.393	-8.11
355.649	-8.72
355.905	-7.5
356.16	-8.2
356.416	-8.18
356.672	-14.23
356.928	-14.43
357.183	-14.67
357.439	-14.21
357.695	-14.94
357.951	-10.28
358.206	-10.59
358.462	-10.63
358.718	-13.1
358.973	-11.22
359.229	-11.08
359.484	-11.51
359.74	-10.16
359.996	-11.03
360.251	-6.52
360.507	-7.41
360.762	-8.73
361.018	-7.12
361.273	-7.95
361.529	-5.98
361.784	-6.26
362.04	-5.63
362.295	-5.37
362.55	-4.85
362.806	-2.76
363.061	-2.06
363.316	-1.21
363.572	-0.38
363.827	0.66
364.082	-2
364.338	-2.2
364.593	-1.47
364.848	-1.01
365.104	-2.53
365.359	-0.63
365.614	-0.1
365.869	-2.81
366.124	-2.02
366.38	-3.36
366.635	-0.89
366.89	-0.9
367.145	-0.6
367.4	3.42
367.655	5.04
367.91	5.57
368.165	3.88
368.42	2.33
368.675	2.3
368.93	2.56
369.185	1.32
369.44	1.93
369.695	4.6
369.95	4.34
370.205	3.28
370.46	3.32
370.715	3.27
370.97	4.17
371.225	3.36
371.48	4.5
371.734	5.2
371.989	6.34
372.244	5.73
372.499	6.8
372.754	5.46
373.008	3.55
373.263	0.58
373.518	3.64
373.773	2.62
374.027	0.83
374.282	2.16
374.537	2.93
374.791	4.14
375.046	3.73
375.301	1.97
375.555	-1.52
375.81	0.14
376.064	0.35
376.319	3.47
376.573	3.38
376.828	0.3
377.082	3.67
377.337	1.67
377.591	-0.91
377.846	-0.6
378.1	1.41
378.355	2.76
378.609	1.94
378.863	-1.65
379.118	0.51
379.372	-0.45
379.627	-2.08
379.881	-3.41
380.135	-3.93
380.389	-3.85
380.644	-1.83
380.898	-0.57
381.152	0.13
381.407	-1.18
381.661	0.76
381.915	2.28
382.169	2.88
382.423	1.01
382.677	-1.33
382.932	-1.12
383.186	-0.17
383.44	1.44
383.694	2.07
383.948	-0.08
384.202	-1.08
384.456	1.38
384.71	2.89
384.964	2.48
385.218	3.53
385.472	2.46
385.726	1.86
385.98	1.92
386.234	-0.31
386.488	-2.23
386.742	-0.22
386.996	-2.61
387.249	-2.76
387.503	0.12
387.757	2.66
388.011	4.01
388.265	4.56
388.518	4.9
388.772	8.15
389.026	9.63
389.28	7.72
389.533	5
389.787	7.3
390.041	5.65
390.295	6.18
390.548	5.65
390.802	8.63
391.055	7.86
391.309	7.89
391.563	6.28
391.816	6.98
392.07	5.81
392.323	5.88
392.577	6.92
392.83	7.64
393.084	13.31
393.337	17.13
393.591	18.27
393.844	18.84
394.098	23.49
394.351	27.9
394.604	29.06
394.858	30
395.111	30.67
395.364	28.02
395.618	28.3
395.871	27.43
396.124	25.08
396.378	24.41
396.631	22.88
396.884	19.76
397.137	19.93
397.391	22.85
397.644	19.13
397.897	19.74
398.15	20.44
398.403	23.36
398.657	21.17
398.91	20.29
399.163	20.22
399.416	19.95
399.669	18.7
399.922	17.79
400.175	15.38
400.428	14.38
400.681	13.67
400.934	8.1
401.187	6.84
401.44	5.84
401.693	4.12
401.946	1.25
402.199	-4.21
402.452	-5.47
402.704	-8.48
402.957	-8.04
403.21	-6.04
403.463	-6.41
403.716	-5.96
403.969	-3.55
404.221	-4.1
404.474	-2.43
404.727	0.67
404.98	2.79
405.232	3.32
405.485	5.94
405.738	7.29
405.99	7.53
406.243	7.45
406.496	9.59
406.748	10.27
407.001	9.12
407.253	9.49
407.506	10.28
407.759	11.23
408.011	10.82
408.264	11.25
408.516	12.35
408.769	11.07
409.021	11.76
409.274	12.47
409.526	14.24
409.778	13.31
410.031	16.88
410.283	18
410.536	24.32
410.788	21.98
411.04	20.14
411.293	21.05
411.545	23.7
411.797	23.12
412.049	23.96
412.302	24.17
412.554	25.3
412.806	24.43
413.058	23.89
413.311	24.28
413.563	24.06
413.815	24.31
414.067	22.19
414.319	20.89
414.571	21.49
414.823	20.88
415.075	21.52
415.328	23.53
415.58	26.43
415.832	27.33
416.084	28.96
416.336	28.24
416.588	33.21
416.84	32.67
417.091	35.6
417.343	33.78
417.595	36.24
417.847	37.02
418.099	38.8
418.351	36.05
418.603	39.55
418.855	42.46
419.106	44.34
419.358	44.41
419.61	46.45
419.862	46.91
420.114	46.52
420.365	46.96
420.617	49.11
420.869	48.72
421.12	49.03
421.372	51.5
421.624	52.43
421.875	55.94
422.127	55.87
422.379	57.41
422.63	61.69
422.882	60.92
423.133	62.64
423.385	64.16
423.636	66.26
423.888	69.62
424.139	72.97
424.391	71.14
424.642	72.29
424.894	73.07
425.145	75.32
425.396	75.14
425.648	79.75
425.899	79.76
426.151	83.87
426.402	85.08
426.653	86.8
426.905	87.14
427.156	86.94
427.407	87.66
427.658	90.28
427.91	90.77
428.161	93.1
428.412	96.74
428.663	100.14
428.914	102.76
429.166	105.39
429.417	109.2
429.668	109.13
429.919	109.38
430.17	111.54
430.421	114.67
430.672	121.84
430.923	123.6
431.174	126.32
431.425	130.87
431.676	133.43
431.927	134.77
432.178	140.17
432.429	143.37
432.68	145.86
432.931	152.23
433.182	158.22
433.433	158.2
433.683	162.99
433.934	167.13
434.185	169.02
434.436	172
434.687	178.57
434.937	185.03
435.188	188.06
435.439	191.66
435.69	199.26
435.94	203.1
436.191	207.91
436.442	211.6
436.692	216.39
436.943	217.9
437.194	220.08
437.444	229.47
437.695	238.74
437.945	244.85
438.196	247.45
438.447	251.97
438.697	258.41
438.948	263.57
439.198	266.38
439.449	268.57
439.699	275.78
439.949	281.4
440.2	286.92
440.45	294.37
440.701	299.37
440.951	302.33
441.201	310.65
441.452	316.46
441.702	321.85
441.952	331.07
442.203	338.7
442.453	343
442.703	350.47
442.953	359.1
443.204	367.97
443.454	373.03
443.704	380.06
443.954	384.33
444.204	392.13
444.455	400.68
444.705	412.06
444.955	421.67
445.205	426.39
445.455	432.91
445.705	441.04
445.955	450.73
446.205	457.4
446.455	465.41
446.705	473.84
446.955	483.49
447.205	493.55
447.455	502.98
447.705	509.42
447.955	518.53
448.205	526.98
448.454	534.73
448.704	546.61
448.954	553.59
449.204	561.14
449.454	569.43
449.704	575.32
449.953	582.97
450.203	591.82
450.453	596.1
450.703	604.58
450.952	609.59
451.202	617.2
451.452	623.18
451.701	630.58
451.951	639.58
452.201	643.61
452.45	645.87
452.7	649.1
452.949	654.99
453.199	658.14
453.448	663.12
453.698	666.66
453.947	668.76
454.197	669.86
454.446	669.57
454.696	673.46
454.945	672.59
455.195	670.15
455.444	670.16
455.693	670.87
455.943	667.29
456.192	663.89
456.442	660.02
456.691	656.99
456.94	653.18
457.189	647.76
457.439	646.6
457.688	644.24
457.937	639.33
458.186	635.41
458.436	630.58
458.685	625.91
458.934	619.52
459.183	613.59
459.432	609.18
459.681	601.72
459.93	595.72
460.179	590.33
460.429	583.68
460.678	579.62
460.927	573.97
461.176	564.77
461.425	556.09
461.674	551.25
461.923	545.01
462.172	538.43
462.42	529.79
462.669	525.84
462.918	517.01
463.167	510.08
463.416	501.97
463.665	496.49
463.914	491.16
464.162	483.42
464.411	478.4
464.66	474.83
464.909	467.32
465.158	461.17
465.406	453.71
465.655	449.14
465.904	446.55
466.152	441.3
466.401	436.44
466.65	433.15
466.898	425.82
467.147	418.41
467.395	413.03
467.644	409.5
467.893	403.12
468.141	398.59
468.39	390.75
468.638	384.99
468.887	379.99
469.135	376.82
469.384	372.79
469.632	368.89
469.88	363.43
470.129	360.22
470.377	352.34
470.626	354.47
470.874	351.71
471.122	348.02
471.371	342.76
471.619	339.56
471.867	339.73
472.115	334.93
472.364	329.5
472.612	330.16
472.86	326.26
473.108	325.02
473.356	322.18
473.605	318.17
473.853	312.98
474.101	309.58
474.349	305.08
474.597	306.57
474.845	301.87
475.093	298.67
475.341	294.21
475.589	293.28
475.837	292.59
476.085	291.39
476.333	289.13
476.581	288.25
476.829	287.02
477.077	286.28
477.325	284.68
477.573	285.8
477.821	283.46
478.069	283.86
478.317	280.35
478.564	281.73
478.812	279.96
479.06	278.8
479.308	277.77
479.555	276.59
479.803	275.63
480.051	276.18
480.299	274.55
480.546	273.94
480.794	270.37
481.042	270.84
481.289	269.43
481.537	268.64
481.784	267.26
482.032	269.69
482.28	268.57
482.527	269.94
482.775	271.06
483.022	272.76
483.27	273.85
483.517	278.42
483.765	279.24
484.012	279.73
484.259	278.67
484.507	280.2
484.754	280.78
485.002	280.7
485.249	280.1
485.496	283.44
485.744	284.37
485.991	285.35
486.238	285.18
486.486	289.27
486.733	291.64
486.98	294.69
487.227	293.2
487.474	295.41
487.722	298.82
487.969	298.28
488.216	299.08
488.463	301.94
488.71	300.8
488.957	301.28
489.204	303.4
489.451	306.65
489.699	307.37
489.946	306.59
490.193	307.72
490.44	308.46
490.687	309.6
490.934	308.97
491.18	305.31
491.427	306.83
491.674	310.15
491.921	312.13
492.168	312.48
492.415	312.42
492.662	314.25
492.909	318.36
493.155	317.65
493.402	317.29
493.649	317.35
493.896	320.58
494.142	317.94
494.389	318.83
494.636	318.45
494.883	320.08
495.129	321.33
495.376	322.87
495.623	327.45
495.869	330.99
496.116	333.08
496.362	337.44
496.609	343.06
496.855	349.61
497.102	350.96
497.348	351.44
497.595	355.21
497.841	360.28
498.088	361.12
498.334	364.34
498.581	364.65
498.827	367.51
499.074	370.11
499.32	372.44
499.566	378.55
499.813	381.2
500.059	381.65
500.305	385.07
500.552	386.58
500.798	388.66
501.044	395.44
501.29	397.09
501.537	395.26
501.783	401.67
502.029	406.71
502.275	406.74
502.521	406.83
502.767	409.73
503.013	411.56
503.26	409.55
503.506	408.95
503.752	411.22
503.998	409.32
504.244	411.26
504.49	410.29
504.736	414.29
504.982	416.19
505.228	420.08
505.474	423.27
505.72	426.49
505.966	425.65
506.211	431.4
506.457	432.61
506.703	431.18
506.949	431.34
507.195	430.82
507.441	428.98
507.686	433.4
507.932	433.41
508.178	435.48
508.424	435.2
508.669	434.32
508.915	436.03
509.161	439.3
509.406	439.77
509.652	440.49
509.898	445.05
510.143	446.59
510.389	446.33
510.634	445.77
510.88	451.13
511.125	454.16
511.371	456.81
511.616	460.82
511.862	458.29
512.107	457.55
512.353	458.2
512.598	461.11
512.844	459.81
513.089	459.12
513.335	460.55
513.58	461.96
513.825	463.11
514.071	462.76
514.316	464.1
514.561	467.6
514.806	466.92
515.052	470.74
515.297	469.97
515.542	474.27
515.787	476.43
516.033	479.09
516.278	479.86
516.523	480.59
516.768	481.07
517.013	480
517.258	480.36
517.503	481.21
517.748	484.18
517.993	485.29
518.238	485.84
518.483	485.11
518.728	484.07
518.973	483.15
519.218	481.98
519.463	484.34
519.708	484.47
519.953	484.68
520.198	484.1
520.443	486.17
520.688	489.11
520.933	489.34
521.177	490.33
521.422	489.37
521.667	493.67
521.912	494.6
522.157	491.96
522.401	496.51
522.646	497.21
522.891	498.46
523.135	497.91
523.38	498.11
523.625	498.05
523.869	500.66
524.114	503.22
524.358	502.86
524.603	504.56
524.848	503.4
525.092	502.06
525.337	504.69
525.581	506.74
525.826	509.29
526.07	510.67
526.315	512.24
526.559	511.28
526.803	510.99
527.048	514.64
527.292	515.95
527.537	514.61
527.781	515.34
528.025	514.59
528.269	513.92
528.514	515.01
528.758	515.02
529.002	513.9
529.247	515.9
529.491	516.71
529.735	520.68
529.979	517.95
530.223	519.85
530.467	518.46
530.712	516.82
530.956	514.73
531.2	514.89
531.444	513.25
531.688	514.2
531.932	514.49
532.176	513.73
532.42	514.06
532.664	515.9
532.908	514.24
533.152	512.93
533.396	512.39
533.64	510.77
533.884	509.52
534.128	509.49
534.371	512.25
534.615	511.97
534.859	511.45
535.103	513.3
535.347	512.92
535.59	513.09
535.834	510.46
536.078	510.71
536.322	511.2
536.565	514.74
536.809	513.74
537.053	514.64
537.296	511.51
537.54	513.03
537.784	511.44
538.027	512.76
538.271	512.67
538.514	510.76
538.758	511.42
539.001	509.43
539.245	509.48
539.488	510.87
539.732	513.69
539.975	514.47
540.219	516.27
540.462	514.21
540.706	514.47
540.949	514.16
541.192	514.52
541.436	518.87
541.679	522.74
541.922	522.66
542.166	518.63
542.409	519.15
542.652	517.78
542.895	518.24
543.139	517.47
543.382	521.37
543.625	520.42
543.868	520.33
544.111	519.08
544.354	517.41
544.598	516.13
544.841	517.35
545.084	516.07
545.327	515.18
545.57	516.09
545.813	517.36
546.056	518.63
546.299	519.7
546.542	522.27
546.785	524.37
547.028	524.56
547.271	522.96
547.514	522.83
547.756	520.14
547.999	521.09
548.242	522.04
548.485	519.68
548.728	520.07
548.971	516.15
549.213	516.81
549.456	514.9
549.699	515.53
549.942	514.23
550.184	513.33
550.427	512.84
550.67	514.29
550.912	509.96
551.155	511.37
551.398	511.76
551.64	511.79
551.883	510.87
552.125	509.3
552.368	508.77
552.61	505.93
552.853	507.43
553.095	506.72
553.338	505.57
553.58	505.6
553.823	502.63
554.065	503.52
554.308	497.81
554.55	493.6
554.792	491.1
555.035	488.3
555.277	485.87
555.519	486.96
555.762	484.48
556.004	484.77
556.246	480.63
556.488	480.73
556.731	476.76
556.973	478.16
557.215	475.86
557.457	477.49
557.699	480.17
557.941	478.07
558.183	476.55
558.426	478.73
558.668	473.27
558.91	471.88
559.152	471.62
559.394	470.57
559.636	472.47
559.878	472.85
560.12	472.84
560.362	472.89
560.604	471.34
560.845	469.46
561.087	468.52
561.329	469.79
561.571	466.45
561.813	468.31
562.055	467.99
562.297	469.17
562.538	470
562.78	472.03
563.022	469.64
563.264	471.12
563.505	471.21
563.747	472.33
563.989	470.12
564.23	469.74
564.472	467.85
564.714	471.05
564.955	471.43
565.197	468.18
565.438	468.68
565.68	470.96
565.921	468.17
566.163	471.15
566.404	470.12
566.646	471.96
566.887	475.27
567.129	476.1
567.37	474.34
567.612	475.68
567.853	473.33
568.094	475.74
568.336	476.72
568.577	479.02
568.818	480.82
569.06	480.37
569.301	478.3
569.542	479.39
569.783	480.95
570.025	481.28
570.266	482.21
570.507	483.14
570.748	482.2
570.989	483.41
571.23	486.01
571.472	486.39
571.713	483.5
571.954	484.56
572.195	482.03
572.436	482.66
572.677	484.6
572.918	485.66
573.159	482.53
573.4	480.77
573.641	480.55
573.882	480.42
574.123	477.07
574.364	471.09
574.604	471.59
574.845	469.03
575.086	469.12
575.327	468.92
575.568	466.73
575.809	464.04
576.049	461.73
576.29	458.3
576.531	462.24
576.771	464.37
577.012	464.39
577.253	462.6
577.494	461.44
577.734	459.21
577.975	458.86
578.215	458.2
578.456	454.95
578.697	453.12
578.937	454.52
579.178	454.09
579.418	451.28
579.659	450.29
579.899	446.71
580.14	444.81
580.38	442.58
580.62	442.44
580.861	444.85
581.101	443.47
581.342	442.88
581.582	437.84
581.822	439.24
582.063	436.09
582.303	438.21
582.543	436.74
582.783	436.55
583.024	435.24
583.264	437.75
583.504	434.16
583.744	433.82
583.984	429.76
584.224	426.75
584.465	425.63
584.705	424.39
584.945	423.61
585.185	423.49
585.425	422.28
585.665	419.97
585.905	418.85
586.145	417.98
586.385	414.41
586.625	415.5
586.865	413.82
587.105	412.25
587.345	411.01
587.585	409.32
587.824	406.99
588.064	406.62
588.304	403.04
588.544	401.45
588.784	398.96
589.024	400.69
589.263	398.59
589.503	396.15
589.743	394.45
589.982	392.23
590.222	391.49
590.462	388.64
590.701	384.68
590.941	387.7
591.181	386.82
591.42	384.99
591.66	385.81
591.899	388.67
592.139	386.68
592.378	387.58
592.618	385.18
592.857	385.2
593.097	385.5
593.336	384.51
593.576	383.32
593.815	384.69
594.055	384.48
594.294	385.48
594.533	385.72
594.773	385.91
595.012	387
595.251	390.06
595.491	391.53
595.73	393.55
595.969	392.87
596.208	394.41
596.447	398.44
596.687	398.98
596.926	399.77
597.165	397.34
597.404	400.31
597.643	399.42
597.882	399.39
598.121	401.31
598.36	401.26
598.599	400.95
598.838	400.83
599.077	398.57
599.316	397.74
599.555	399.41
599.794	398.64
600.033	400.97
600.272	401.1
600.511	398.96
600.75	400.55
600.989	402.04
601.228	399.93
601.466	399.68
601.705	399.51
601.944	399.27
602.183	399.67
602.422	398.51
602.66	396.29
602.899	395.04
603.138	394.16
603.376	394.84
603.615	394.6
603.854	391.48
604.092	391.31
604.331	391.02
604.569	392.82
604.808	389.43
605.047	390.06
605.285	389.29
605.524	387.46
605.762	384.19
606	384.66
606.239	384.48
606.477	382.72
606.716	377.35
606.954	372.82
607.193	370.76
607.431	364.84
607.669	360.9
607.908	358.91
608.146	358.3
608.384	356
608.622	354.98
608.861	352.39
609.099	349.47
609.337	346.52
609.575	343.11
609.813	342.87
610.052	340.45
610.29	335.49
610.528	333.42
610.766	329.84
611.004	327.1
611.242	324.31
611.48	322.21
611.718	318.82
611.956	317.64
612.194	316.01
612.432	312.61
612.67	310.38
612.908	310.58
613.146	306.71
613.384	303.46
613.621	301.11
613.859	301.29
614.097	298.68
614.335	298.13
614.573	296.35
614.811	296.46
615.048	294.28
615.286	294.49
615.524	292.03
615.761	288
615.999	287.05
616.237	285
616.474	286.31
616.712	284.76
616.95	283.5
617.187	279.84
617.425	279.79
617.662	278.3
617.9	273.99
618.137	272.43
618.375	270.22
618.612	267.48
618.85	268.5
619.087	270.16
619.325	266.95
619.562	262.77
619.799	260.06
620.037	258.6
620.274	255.69
620.511	256.64
620.749	253.13
620.986	250.11
621.223	246.29
621.461	246.53
621.698	246.56
621.935	244.96
622.172	242.46
622.409	243.56
622.647	241.61
622.884	239.18
623.121	240.22
623.358	237.06
623.595	235.18
623.832	232.88
624.069	232.68
624.306	232.17
624.543	232.56
624.78	231.1
625.017	230.82
625.254	232.38
625.491	232.31
625.728	232.89
625.965	232.31
626.202	229.31
626.438	225.63
626.675	224.24
626.912	225.95
627.149	225.91
627.386	225.43
627.622	223.47
627.859	222.69
628.096	223.1
628.333	221.82
628.569	221.83
628.806	221.62
629.043	220.71
629.279	220.15
629.516	221.99
629.752	217.83
629.989	217.08
630.225	213.91
630.462	212.89
630.699	211.55
630.935	211.75
631.171	208.89
631.408	207.7
631.644	206.07
631.881	202.88
632.117	200.32
632.354	200.06
632.59	198.67
632.826	197.72
633.063	196.49
633.299	196.38
633.535	194.16
633.771	192.01
634.008	193.08
634.244	192.42
634.48	191
634.716	191.73
634.953	190.41
635.189	188.74
635.425	189.32
635.661	190.81
635.897	188.6
636.133	188.42
636.369	186.01
636.605	182.26
636.841	179.7
637.077	180.09
637.313	179.2
637.549	179.12
637.785	177.35
638.021	178.18
638.257	174.95
638.493	176.43
638.729	172.74
638.965	173.95
639.2	174.62
639.436	174.34
639.672	172.51
639.908	169.31
640.144	171.72
640.379	172.57
640.615	169.57
640.851	171.27
641.086	172.19
641.322	169.46
641.558	168.97
641.793	167.6
642.029	163.37
642.264	161.43
642.5	161.39
642.736	157.62
642.971	158.53
643.207	156.78
643.442	153.08
643.678	152.87
643.913	152.87
644.148	151.71
644.384	152.86
644.619	151.85
644.855	153.35
645.09	153.12
645.325	151.27
645.561	152.22
645.796	148.73
646.031	152.11
646.266	149.49
646.502	148.22
646.737	148.12
646.972	147.31
647.207	147.59
647.442	144.43
647.678	141.13
647.913	143.42
648.148	140.98
648.383	138.67
648.618	138.63
648.853	137.45
649.088	139.59
649.323	142.98
649.558	143.91
649.793	142.32
650.028	141.47
650.263	136.4
650.498	137.65
650.733	137.22
650.968	135.19
651.202	135.83
651.437	133.62
651.672	130.27
651.907	129.77
652.142	128.73
652.376	128.15
652.611	129.44
652.846	129.44
653.081	129.1
653.315	126.89
653.55	124.56
653.785	123.04
654.019	124.17
654.254	122.98
654.488	123.23
654.723	119.13
654.958	116.6
655.192	113.46
655.427	110.43
655.661	111.47
655.896	111.67
656.13	111.94
656.364	108.04
656.599	103.25
656.833	110.35
657.068	111.54
657.302	112.04
657.536	111.57
657.771	112.57
658.005	112.46
658.239	111.81
658.474	110.28
658.708	111.55
658.942	111.99
659.176	109.76
659.41	105.25
659.645	103.41
659.879	102.73
660.113	99.28
660.347	98.93
660.581	95.21
660.815	95.94
661.049	94.33
661.283	89.31
661.517	85.89
661.751	85.29
661.985	84.11
662.219	84.35
662.453	83.47
662.687	85.34
662.921	81.39
663.155	80.28
663.389	75.69
663.622	73.75
663.856	74.54
664.09	65.45
664.324	64.16
664.558	62.43
664.791	61
665.025	58.48
665.259	57.5
665.492	57.05
665.726	58.68
665.96	57.24
666.193	54.45
666.427	55.42
666.661	56.76
666.894	54.26
667.128	52.42
667.361	54.54
667.595	52.9
667.828	53.68
668.062	52.82
668.295	52.21
668.529	53.03
668.762	53.44
668.995	51.09
669.229	53.71
669.462	55.15
669.695	55.48
669.929	52.79
670.162	54
670.395	52.11
670.629	52.63
670.862	54.81
671.095	52.58
671.328	52.86
671.561	50.04
671.795	50.84
672.028	52.42
672.261	53.49
672.494	54.2
672.727	52.95
672.96	53.22
673.193	52.53
673.426	56.16
673.659	54.87
673.892	54.53
674.125	54.71
674.358	54.36
674.591	52.4
674.824	51.57
675.057	49.42
675.29	47.48
675.523	48.86
675.755	48.38
675.988	48.54
676.221	50.19
676.454	48.1
676.687	49.29
676.919	48.43
677.152	48.6
677.385	47.94
677.617	47.42
677.85	48.01
678.083	46.44
678.315	47.95
678.548	46.16
678.78	45.62
679.013	45.18
679.246	45.06
679.478	45.48
679.711	43.34
679.943	43.69
680.175	39.47
680.408	41.7
680.64	37.77
680.873	39.24
681.105	38.81
681.338	42.82
681.57	42.06
681.802	42.82
682.034	41.82
682.267	46.46
682.499	46.95
682.731	44.57
682.964	42.46
683.196	40.75
683.428	39.07
683.66	38.95
683.892	39.88
684.124	40.11
684.356	41.95
684.589	42.17
684.821	41.65
685.053	42.08
685.285	42.62
685.517	44.32
685.749	45.23
685.981	46.42
686.213	46.79
686.445	46.44
686.676	43.01
686.908	44.51
687.14	44.88
687.372	46.43
687.604	44.07
687.836	45.05
688.068	43.97
688.299	43.84
688.531	39.24
688.763	42.57
688.995	40.61
689.226	43.54
689.458	40.95
689.69	40.14
689.921	38.99
690.153	39.79
690.384	41.64
690.616	40.74
690.848	41.01
691.079	36.92
691.311	35.6
691.542	33.01
691.774	30.38
692.005	32.89
692.237	34.49
692.468	32.93
692.699	31.15
692.931	30.27
693.162	27.03
693.393	25.63
693.625	24.75
693.856	24.83
694.087	23.84
694.319	23.06
694.55	22.17
694.781	20.91
695.012	20.03
695.243	17.89
695.475	17.57
695.706	18.17
695.937	17.02
696.168	16.24
696.399	14.51
696.63	12.78
696.861	13.22
697.092	17.08
697.323	19.91
697.554	20.18
697.785	20.75
698.016	21.4
698.247	19.97
698.478	20.91
698.709	22.27
698.94	25.45
699.171	24.65
699.401	21.04
699.632	22.69
699.863	19.57
700.094	18.97
700.325	22.93
700.555	23.48
700.786	24.65
701.017	26.4
701.247	26.03
701.478	27.09
701.709	26.88
701.939	25.88
702.17	28.5
702.401	29.67
702.631	29.82
702.862	29.23
703.092	25.23
703.323	28.29
703.553	29.83
703.784	31.83
704.014	32.18
704.244	28.38
704.475	26.6
704.705	26.32
704.936	26.15
705.166	25.97
705.396	27.28
705.627	29.1
705.857	29.04
706.087	28.41
706.317	26.02
706.548	24.65
706.778	22.11
707.008	23.68
707.238	24.45
707.468	21.81
707.698	19.98
707.928	18.47
708.158	16.27
708.389	16.24
708.619	14.57
708.849	14.32
709.079	15.21
709.309	12.27
709.539	11.09
709.768	11.73
709.998	14.45
710.228	14.78
710.458	13.71
710.688	10.49
710.918	9.45
711.148	8.22
711.378	8.07
711.607	6.48
711.837	6.85
712.067	6.23
712.297	6.03
712.526	5.29
712.756	4.25
712.986	0.99
713.215	-0.46
713.445	1.17
713.674	2.59
713.904	3.16
714.134	5.04
714.363	4.63
714.593	4.07
714.822	3.51
715.052	2.3
715.281	3.78
715.511	2.32
715.74	1.72
715.969	-0.26
716.199	-1.39
716.428	-1.42
716.657	-1.86
716.887	-0.23
717.116	-4.19
717.345	-2.23
717.575	-1.63
717.804	-0.66
718.033	-2.28
718.262	-2.69
718.492	-0.92
718.721	0.41
718.95	0.25
719.179	-0.49
719.408	-0.27
719.637	-1.53
719.866	-3.09
720.095	-0.52
720.324	-1.75
720.553	-5.96
720.782	-7.41
721.011	-6.48
721.24	-9.32
721.469	-9.77
721.698	-10.22
721.927	-9.23
722.156	-9.65
722.385	-10.95
722.613	-8.79
722.842	-7.26
723.071	-3.58
723.3	-1.67
723.529	-1.34
723.757	0.39
723.986	-3.66
724.215	-4.07
724.443	-3.32
724.672	-2.71
724.901	-2.25
725.129	0.18
725.358	3.14
725.586	0.84
725.815	0.42
726.043	-2.03
726.272	-3.36
726.5	-5.57
726.729	-5.35
726.957	-8.05
727.186	-9.78
727.414	-8.03
727.642	-4.42
727.871	-3.13
728.099	-4.13
728.327	-4.51
728.556	-2.56
728.784	-1.14
729.012	-1.94
729.241	0.31
729.469	0.48
729.697	-0.79
729.925	-0.6
730.153	-3.21
730.381	-2.56
730.61	-3.42
730.838	-6.03
731.066	-4.9
731.294	-4.06
731.522	-7.24
731.75	-11.37
731.978	-11.32
732.206	-13.03
732.434	-15.33
732.662	-15.26
732.89	-16.81
733.118	-15.94
733.346	-15.23
733.573	-13.75
733.801	-14.3
734.029	-8.47
734.257	-7.87
734.485	-5.53
734.712	-5.09
734.94	-6.74
735.168	-4.39
735.396	-3.63
735.623	-6.22
735.851	-5.39
736.078	-4.32
736.306	-3.75
736.534	-3.7
736.761	-3.78
736.989	-6.51
737.216	-6.11
737.444	-8.89
737.671	-8.03
737.899	-4.07
738.126	-4.97
738.354	-4.13
738.581	-2.53
738.809	-1.05
739.036	-3.06
739.263	-2.55
739.491	-3.85
739.718	-3.38
739.945	1.52
740.173	2.59
740.4	2.5
740.627	1.54
740.854	2.1
741.081	-0.41
741.309	-1.53
741.536	-5.27
741.763	-7.42
741.99	-6.13
742.217	-6.48
742.444	-6.02
742.671	-4.5
742.898	-5.77
743.125	-7.46
743.352	-11.71
743.579	-12.35
743.806	-11.98
744.033	-8.78
744.26	-7.15
744.487	-7.67
744.714	-6.76
744.941	-8.78
745.167	-4.11
745.394	-6.15
745.621	-6.63
745.848	-6.38
746.075	-4.43
746.301	-0.38
746.528	3.55
746.755	1.12
746.981	0.59
747.208	1.1
747.435	2.49
747.661	2.06
747.888	3.91
748.114	2.52
748.341	4.36
748.567	5.98
748.794	5.02
749.02	5.4
749.247	3.01
749.473	1.64
749.7	2.31
749.926	3.19
750.152	6.41
750.379	7.58
750.605	7.58
750.831	6.16
751.058	3.83
751.284	1.54
751.51	4.79
751.737	5.81
751.963	5.21
752.189	2.97
752.415	3.39
752.641	3.87
752.867	2.95
753.094	1.36
753.32	-0.05
753.546	-2.56
753.772	0.67
753.998	-1.76
754.224	-2.37
754.45	-2.92
754.676	-3.09
754.902	-4.09
755.128	-4.08
755.354	-3.39
755.579	-3.1
755.805	-1.51
756.031	-3.8
756.257	-2.8
756.483	-2.66
756.709	-4.96
756.934	-5.7
757.16	-7.57
757.386	-6.97
757.612	-8.28
757.837	-9.46
758.063	-6.37
758.289	-4.19
758.514	-5.98
758.74	-9.92
758.965	-11.55
759.191	-10.76
759.416	-9.87
759.642	-10.1
759.868	-9.12
760.093	-6.93
760.318	-9.42
760.544	-8.82
760.769	-10.1
760.995	-9.88
761.22	-10.22
761.445	-7.95
761.671	-6.46
761.896	-4.25
762.121	-4.79
762.347	-6.19
762.572	-8.48
762.797	-8.79
763.022	-9.06
763.248	-6.84
763.473	-5.23
763.698	-6.11
763.923	-5.11
764.148	-5.34
764.373	-5.13
764.598	-3.32
764.823	-0.64
765.048	-3.66
765.273	-6.13
765.498	-6.49
765.723	-5.34
765.948	-4.19
766.173	-6.11
766.398	-5.11
766.623	-7.16
766.848	-6.92
767.073	-9.01
767.298	-8.87
767.522	-10.34
767.747	-8.9
767.972	-10.27
768.197	-9.56
768.421	-11.17
768.646	-12.91
768.871	-16.68
769.095	-14.87
769.32	-13.28
769.545	-12.76
769.769	-11.19
769.994	-8.5
770.218	-11.7
770.443	-10.69
770.667	-9.07
770.892	-10.28
771.116	-11.31
771.341	-9.66
771.565	-10.22
771.79	-12.31
772.014	-13.09
772.238	-13.29
772.463	-11.63
772.687	-10.84
772.911	-11.49
773.136	-13.77
773.36	-13.45
773.584	-11.28
773.808	-13.37
774.033	-12.77
774.257	-12.41
774.481	-13.27
774.705	-14.39
774.929	-14.21
775.153	-13.82
775.377	-14.57
775.602	-13.55
775.826	-10.37
776.05	-9.72
776.274	-11.22
776.498	-11.8
776.722	-11.99
776.945	-12
777.169	-11.71
777.393	-14.27
777.617	-14.35
777.841	-13.34
778.065	-12.34
778.289	-14.56
778.512	-15.62
778.736	-13.81
778.96	-13.39
779.184	-11.15
779.407	-12.23
779.631	-11.96
779.855	-12.5
780.078	-8.54
780.302	-10.27
780.526	-12.35
780.749	-12
780.973	-10.6
781.196	-10.36
781.42	-11.63
781.643	-11.34
781.867	-10.76
782.09	-13.75
782.314	-13.12
782.537	-15.16
782.76	-16.95
782.984	-15.96
783.207	-16.11
783.431	-15.86
783.654	-17.69
783.877	-19.54
784.1	-20.35
784.324	-20.59
784.547	-20.85
784.77	-24.63
784.993	-25.41
785.216	-25.06
785.44	-24.97
785.663	-26.31
785.886	-23.88
786.109	-25.45
786.332	-24.74
786.555	-24.62
786.778	-23.2
787.001	-23.67
787.224	-22.39
787.447	-20.33
787.67	-19.09
787.893	-19.99
788.116	-20.27
788.339	-18.78
788.561	-19.72
788.784	-22.12
789.007	-22.98
789.23	-23.91
789.453	-23.17
789.675	-25.07
789.898	-27.15
790.121	-29.23
790.344	-29.07
790.566	-28.08
790.789	-27.31
791.012	-25.24
791.234	-22.82
791.457	-20.42
791.679	-18.18
791.902	-18.31
792.124	-18.31
792.347	-17.96
792.569	-17.49
792.792	-20.52
793.014	-18.2
793.237	-17.24
793.459	-18.05
793.681	-17.59
793.904	-18.63
794.126	-19.81
794.348	-21.21
794.571	-20.15
794.793	-19.95
795.015	-20.36
795.237	-20.38
795.46	-18.08
795.682	-16.18
795.904	-12.84
796.126	-13.43
796.348	-14.58
796.57	-10.04
796.792	-10.04
797.014	-6.04
797.237	-3.85
797.459	-2.59
797.681	-2.04
797.903	-4.9
798.124	-4.57
798.346	5.16
798.568	5.75
798.79	8.59
799.012	10.08
799.234	10.87
799.456	11.91
799.678	14.36
799.899	13.09
800.121	10.49
800.343	11.75
800.565	11.43
800.786	11.99
801.008	12.98
801.23	13.41
801.451	13.93
801.673	12.53
801.895	11.96
802.116	14.84
802.338	14.18
802.559	13.5
802.781	10.75
803.002	12.03
803.224	15.29
803.445	12.21
803.667	13.32
803.888	11.4
804.109	10.28
804.331	8.82
804.552	8.85
804.773	10.33
804.995	7.41
805.216	-4.8
805.437	-6.48
805.658	-9.88
805.88	-10.87
806.101	-10.6
806.322	-10.56
806.543	-11.92
806.764	-13.35
806.985	-11.31
807.207	-12.58
807.428	-12.46
807.649	-15.94
807.87	-17.85
808.091	-17.83
808.312	-17.79
808.533	-14.48
808.754	-12.17
808.975	-14.47
809.195	-12.56
809.416	-12.16
809.637	-12.32
809.858	-14.8
810.079	-16.57
810.3	-15.77
810.52	-15.98
810.741	-17.96
810.962	-19.57
811.183	-19.75
811.403	-19.54
811.624	-19.92
811.845	-18.46
812.065	-17.56
812.286	-16.49
812.506	-14.69
812.727	-14.84
812.948	-13.94
813.168	-13.39
813.389	-14.43
813.609	-14.66
813.83	-16.04
814.05	-15.43
814.27	-15.01
814.491	-11.08
814.711	-10.59
814.931	-12.83
815.152	-13
815.372	-13.74
815.592	-14.67
815.813	-16.49
816.033	-17.48
816.253	-17.36
816.473	-16.82
816.694	-13.89
816.914	-13.79
817.134	-13.52
817.354	-16.37
817.574	-14.77
817.794	-13.37
818.014	-13.54
818.234	-13.82
818.454	-13.94
818.674	-15.86
818.894	-17.99
819.114	-16.46
819.334	-15.41
819.554	-13.3
819.774	-11.77
819.994	-13.81
820.214	-14.38
820.433	-13.61
820.653	-13.45
820.873	-12.51
821.093	-11.97
821.312	-14.47
821.532	-12.36
821.752	-9.91
821.972	-12.1
822.191	-12.25
822.411	-13.38
822.63	-10.96
822.85	-11.29
823.07	-11.99
823.289	-10.31
823.509	-12.09
823.728	-10.07
823.948	-12.05
824.167	-11.04
824.387	-12.6
824.606	-12.06
824.825	-12.84
825.045	-12.77
825.264	-13.69
825.483	-11.54
825.703	-9.29
825.922	-10.53
826.141	-11.81
826.361	-14.24
826.58	-17.78
826.799	-18.47
827.018	-17.35
827.237	-17.07
827.456	-16.48
827.676	-16.1
827.895	-16.28
828.114	-15.03
828.333	-15.26
828.552	-15.23
828.771	-13.45
828.99	-14.51
829.209	-13.03
829.428	-12.02
829.647	-13.65
829.866	-14.04
830.084	-15.56
830.303	-15.67
830.522	-16.83
830.741	-15.12
830.96	-14.84
831.179	-13.39
831.397	-14.58
831.616	-14.56
831.835	-13.97
832.053	-11.98
832.272	-12.33
832.491	-11.84
832.709	-13.3
832.928	-13.14
833.147	-13.3
833.365	-11.64
833.584	-8.87
833.802	-6.4
834.021	-6.49
834.239	-4.18
834.458	-6.72
834.676	-8.81
834.894	-8.49
835.113	-9.16
835.331	-9.51
835.55	-11.01
835.768	-10.98
835.986	-10.45
836.204	-12.15
836.423	-10.08
836.641	-10.33
836.859	-10.95
837.077	-10.17
837.296	-8.93
837.514	-10.33
837.732	-11.06
837.95	-11.8
838.168	-9.33
838.386	-9.12
838.604	-8.12
838.822	-8.92
839.04	-9.12
839.258	-9.46
839.476	-7.02
839.694	-7.43
839.912	-6.78
840.13	-6.47
840.348	-4.7
840.566	-8.99
840.783	-7.54
841.001	-9.96
841.219	-8.26
841.437	-7.54
841.655	-8.84
841.872	-9.98
842.09	-10.73
842.308	-8.54
842.525	-8.88
842.743	-8.29
842.961	-9.09
843.178	-11.33
843.396	-7.63
843.613	-6.4
843.831	-6.56
844.048	-5.7
844.266	-5.88
844.483	-6.28
844.701	-6.38
844.918	-7
845.136	-8.29
845.353	-10.46
845.57	-10.17
845.788	-7.2
846.005	-9.42
846.222	-11.74
846.439	-10.05
846.657	-10.97
846.874	-11.83
847.091	-12.72
847.308	-10.15
847.526	-10.99
847.743	-11.03
847.96	-11.71
848.177	-11.42
848.394	-10.09
848.611	-10.22
848.828	-10.35
849.045	-11.92
849.262	-11.34
849.479	-11.74
849.696	-11.66
849.913	-13.32
850.13	-17.36
850.347	-15.47
850.564	-14.16
850.78	-17.51
850.997	-17.84
851.214	-17.04
851.431	-16.53
851.647	-18.87
851.864	-18.44
852.081	-16.46
852.298	-19.03
852.514	-20.48
852.731	-18.73
852.948	-15.2
853.164	-15.55
853.381	-15.76
853.597	-17.3
853.814	-20.23
854.03	-21.84
854.247	-21.17
854.463	-21.12
854.68	-21.57
854.896	-20.74
855.113	-21.1
855.329	-19.82
855.545	-18.83
855.762	-19.51
855.978	-22.22
856.194	-24.04
856.411	-22.27
856.627	-19.09
856.843	-18.46
857.059	-16.22
857.275	-18.23
857.492	-17.66
857.708	-14.52
857.924	-13.43
858.14	-12.52
858.356	-12.66
858.572	-11.89
858.788	-14.34
859.004	-12.6
859.22	-14.85
859.436	-14.27
859.652	-16.63
859.868	-18.08
860.084	-16.57
860.3	-15.23
860.516	-13.89
860.731	-14.16
860.947	-16.42
861.163	-15.32
861.379	-14.07
861.595	-13.68
861.81	-13.13
862.026	-13.08
862.242	-11.64
862.457	-11.22
862.673	-9.42
862.889	-10.5
863.104	-10.19
863.32	-10.16
863.535	-10.15
863.751	-14.6
863.966	-12.44
864.182	-11.56
864.397	-13.71
864.613	-15.15
864.828	-15.76
865.044	-14.93
865.259	-13.05
865.474	-12.43
865.69	-11.29
865.905	-9.75
866.12	-11.92
866.336	-12.43
866.551	-11.48
866.766	-13.91
866.981	-14.75
867.196	-16.8
867.412	-15.49
867.627	-14.13
867.842	-15.69
868.057	-17.48
868.272	-17.7
868.487	-17.15
868.702	-19.57
868.917	-20.55
869.132	-19.65
869.347	-19.31
869.562	-20.17
869.777	-20.95
869.992	-22.57
870.207	-22.22
870.422	-22.72
870.636	-23.76
870.851	-24.92
871.066	-26.57
871.281	-26.57
871.495	-27.35
871.71	-24.63
871.925	-27.01
872.14	-28.11
872.354	-29.15
872.569	-30.84
872.783	-29.93
872.998	-29.03
873.213	-29.24
873.427	-25.99
873.642	-25.18
873.856	-24.2
874.071	-25.22
874.285	-27.22
874.5	-28.61
874.714	-28.96
874.928	-28.77
875.143	-30.61
875.357	-29.31
875.571	-31.69
875.786	-30.38
876	-27.21
876.214	-25.13
876.429	-27.06
876.643	-25.85
876.857	-25.01
877.071	-23.12
877.285	-24.44
877.499	-26.12
877.714	-23.84
877.928	-22.12
878.142	-23.68
878.356	-25.93
878.57	-25.2
878.784	-21.88
878.998	-22.44
879.212	-19.98
879.426	-21.3
879.639	-19.88
879.853	-20.74
880.067	-22.77
880.281	-24.53
880.495	-22.25
880.709	-19.39
880.922	-17.53
881.136	-15.49
881.35	-13.78
881.564	-14.95
881.777	-16.79
881.991	-16.01
882.205	-12.37
882.418	-13.83
882.632	-16.44
882.845	-16.06
883.059	-15.03
883.273	-14.58
883.486	-16.5
883.7	-15.45
883.913	-15.29
884.126	-14.08
884.34	-16.57
884.553	-18.61
884.767	-15.04
884.98	-15.21
885.193	-16.92
885.407	-20.12
885.62	-18.37
885.833	-18.76
886.046	-17.38
886.26	-18.71
886.473	-19.51
886.686	-19.51
886.899	-17.17
887.112	-19.38
887.326	-22.31
887.539	-22.83
887.752	-22.38
887.965	-24.21
888.178	-24.02
888.391	-23.36
888.604	-24.7
888.817	-26.56
889.03	-25.4
889.243	-26.64
889.455	-28.56
889.668	-27.72
889.881	-26.82
890.094	-25.58
890.307	-26.8
890.52	-24.39
890.732	-22.95
890.945	-23.01
891.158	-22.73
891.37	-24.11
891.583	-23.82
891.796	-21.29
892.008	-20.92
892.221	-22.08
892.434	-26.05
892.646	-26.65
892.859	-26.21
893.071	-23.61
893.284	-21.69
893.496	-22.68
893.709	-21.49
893.921	-20.93
894.133	-21.35
894.346	-21.89
894.558	-22.01
894.771	-21.83
894.983	-20.03
895.195	-18.99
895.407	-18.37
895.62	-22.14
895.832	-21.37
896.044	-18.51
896.256	-19.55
896.468	-20.19
896.681	-18.87
896.893	-18.03
897.105	-18.68
897.317	-19.58
897.529	-17.91
897.741	-17.17
897.953	-15.24
898.165	-16.24
898.377	-18.9
898.589	-17.95
898.801	-18.46
899.013	-16.12
899.224	-13.35
899.436	-12.79
899.648	-14.09
899.86	-14.47
900.072	-12.24
900.283	-11.99
900.495	-9.52
900.707	-8.78
900.919	-10.78
901.13	-10.34
901.342	-11.97
901.554	-12.53
901.765	-11.99
901.977	-14.08
902.188	-13.04
902.4	-14.01
902.611	-16.79
902.823	-16.93
903.034	-19.76
903.246	-22.49
903.457	-23.67
903.669	-25.16
903.88	-25.08
904.091	-23.99
904.303	-23.22
904.514	-25.22
904.725	-23.86
904.936	-21.18
905.148	-22.14
905.359	-20
905.57	-19.56
905.781	-21.34
905.992	-22.15
906.204	-21.26
906.415	-22.56
906.626	-24.27
906.837	-22.46
907.048	-24.13
907.259	-24.51
907.47	-24.16
907.681	-25.45
907.892	-21.47
908.103	-22.07
908.314	-25.08
908.525	-23.25
908.735	-22.7
908.946	-23.18
909.157	-23.35
909.368	-22.96
909.579	-22.34
909.789	-22.53
910	-23.16
910.211	-20.69
910.421	-21.03
910.632	-21.36
910.843	-23.3
911.053	-19.46
911.264	-17.27
911.475	-18.64
911.685	-18.29
911.896	-17.81
912.106	-17.27
912.317	-19.47
912.527	-18.4
912.737	-19.85
912.948	-17.79
913.158	-18.07
913.369	-21.65
913.579	-19.23
913.789	-18.65
914	-15.06
914.21	-13.62
914.42	-14.86
914.63	-13.92
914.841	-11.72
915.051	-10.01
915.261	-9.13
915.471	-6.8
915.681	-4.1
915.891	-3.56
916.101	-2.08
916.311	-2.36
916.521	-0.91
916.731	-1.27
916.941	1.45
917.151	1.71
917.361	4.1
917.571	-0.58
917.781	-2.15
917.991	-3.56
918.201	-2.68
918.411	-6.06
918.621	-6.48
918.83	-4.52
919.04	-5.71
919.25	-4.32
919.46	-5
919.669	-6.95
919.879	-5.99
920.089	-7.81
920.298	-9.03
920.508	-10.61
920.717	-8.99
920.927	-10.9
921.136	-11.11
921.346	-12.29
921.555	-15.6
921.765	-15.68
921.974	-18.31
922.184	-22.24
922.393	-22.61
922.603	-23.56
922.812	-21.35
923.021	-23.12
923.23	-24.12
923.44	-27.41
923.649	-28.04
923.858	-28.81
924.067	-28.33
924.277	-30.91
924.486	-29.44
924.695	-30.47
924.904	-27.86
925.113	-27.15
925.322	-26
925.531	-25.7
925.74	-27.65
925.949	-28.17
926.158	-24.54
926.367	-24.64
926.576	-23.46
926.785	-23.18
926.994	-24.72
927.203	-24.44
927.412	-23.81
927.621	-23.54
927.83	-21.84
928.038	-21.27
928.247	-21.14
928.456	-19.97
928.665	-18.7
928.873	-17.45
929.082	-15.51
929.291	-14.83
929.499	-12.75
929.708	-13.94
929.916	-13.7
930.125	-15.21
930.333	-16.13
930.542	-13.23
930.75	-10.19
930.959	-10.13
931.167	-10.13
931.376	-11.02
931.584	-9.42
931.793	-10.63
932.001	-11.02
932.209	-11.65
932.418	-13.09
932.626	-16.37
932.834	-17.6
933.042	-20.97
933.251	-20.83
933.459	-19.91
933.667	-21.34
933.875	-21.9
934.083	-22.51
934.291	-21.96
934.499	-21.18
934.707	-22.35
934.915	-22.49
935.123	-20.08
935.331	-21.49
935.539	-23.28
935.747	-24.14
935.955	-25.06
936.163	-23.41
936.371	-21.95
936.579	-19.95
936.787	-20.64
936.995	-23.65
937.202	-26.03
937.41	-26.61
937.618	-27.28
937.826	-26.97
938.033	-31.9
938.241	-31.65
938.449	-29.13
938.656	-27.47
938.864	-26.66
939.071	-25.7
939.279	-22.51
939.486	-19.67
939.694	-20.28
939.901	-21.04
940.109	-20.95
940.316	-19.65
940.524	-19.36
940.731	-19.76
940.939	-19.32
941.146	-19.06
941.353	-18.89
941.561	-18.93
941.768	-17.61
941.975	-15.92
942.182	-17.01
942.39	-16.53
942.597	-14.75
942.804	-15.78
943.011	-16.96
943.218	-15.36
943.425	-15.24
943.632	-14.15
943.839	-13.64
944.046	-14.25
944.253	-14.06
944.46	-13.46
944.667	-10.98
944.874	-13.28
945.081	-10.96
945.288	-11.48
945.495	-9.69
945.702	-10.56
945.909	-13.68
946.115	-11.57
946.322	-12.89
946.529	-12.29
946.736	-12.95
946.942	-11.29
947.149	-12.7
947.356	-14.17
947.562	-15.93
947.769	-17.13
947.976	-18.8
948.182	-18.42
948.389	-20.05
948.595	-19.6
948.802	-19.71
949.008	-21.77
949.215	-21.44
949.421	-21.98
949.628	-22.84
949.834	-22.44
950.04	-22.77
950.247	-19.49
950.453	-17.49
950.659	-18.55
950.865	-17.58
951.072	-21.38
951.278	-18.3
951.484	-20.5
951.69	-21.95
951.896	-23.08
952.103	-22.96
952.309	-21.35
952.515	-23.56
952.721	-22.26
952.927	-22.24
953.133	-24.02
953.339	-25.07
953.545	-23.78
953.751	-21.49
953.957	-17.82
954.163	-19.29
954.369	-19.69
954.574	-21.49
954.78	-21.88
954.986	-21.43
955.192	-20.76
955.398	-21.32
955.603	-23.08
955.809	-20.09
956.015	-19.77
956.22	-19.48
956.426	-19.62
956.632	-22.44
956.837	-22.52
957.043	-22.79
957.248	-21.56
957.454	-20.62
957.66	-23.73
957.865	-24.03
958.07	-22.44
958.276	-25.35
958.481	-27.66
958.687	-28.18
958.892	-26.12
959.097	-24.99
959.303	-24.99
959.508	-24.72
959.713	-24.54
959.919	-25.8
960.124	-26.31
960.329	-27.28
960.534	-23.29
960.739	-21.34
960.945	-20.45
961.15	-21.61
961.355	-21.93
961.56	-25.1
961.765	-25.86
961.97	-24.75
962.175	-24.36
962.38	-27.47
962.585	-26.53
962.79	-27.66
962.995	-28.79
963.2	-30.01
963.404	-29.19
963.609	-31.27
963.814	-33.1
964.019	-34.62
964.224	-36.13
964.428	-35.43
964.633	-33.86
964.838	-32.13
965.042	-33.44
965.247	-35.21
965.452	-35.47
965.656	-34.36
965.861	-32.8
966.066	-34.67
966.27	-31.68
966.475	-29.06
966.679	-32.26
966.884	-31.99
967.088	-34.65
967.292	-34.93
967.497	-32.89
967.701	-33.71
967.906	-32.21
968.11	-32.23
968.314	-29.22
968.518	-30.68
968.723	-27.65
968.927	-26.88
969.131	-24.49
969.335	-21.29
969.539	-21.11
969.744	-19.74
969.948	-17.36
970.152	-14.33
970.356	-13.49
970.56	-12.78
970.764	-12.45
970.968	-8.53
971.172	-8.67
971.376	-6.15
971.58	-4.61
971.784	-4.79
971.988	-6.91
972.192	-5.21
972.395	-5.55
972.599	-9.46
972.803	-11.5
973.007	-9.42
973.21	-9.94
973.414	-9.04
973.618	-9.78
973.822	-8.87
974.025	-8.6
974.229	-8.75
974.432	-9.22
974.636	-11.21
974.84	-10.47
975.043	-11.46
975.247	-11.92
975.45	-14.56
975.654	-14.17
975.857	-12.93
976.06	-13.69
976.264	-14.83
976.467	-15.06
976.671	-15.49
976.874	-14.22
977.077	-16.68
977.28	-18.21
977.484	-19.43
977.687	-20.76
977.89	-20.5
978.093	-21.24
978.297	-19.2
978.5	-21.87
978.703	-20.28
978.906	-18.99
979.109	-19.94
979.312	-18.17
979.515	-18.33
979.718	-18.9
979.921	-18.61
980.124	-21.06
980.327	-21.69
980.53	-21.41
980.733	-20.54
980.936	-17.92
981.138	-20.33
981.341	-19.5
981.544	-20.29
981.747	-19.85
981.949	-21.53
982.152	-20.48
982.355	-21.38
982.558	-17.96
982.76	-19.95
982.963	-19.58
983.165	-19.9
983.368	-18.35
983.571	-18.98
983.773	-16.71
983.976	-16.44
984.178	-15.79
984.381	-14.65
984.583	-17.94
984.785	-17.33
984.988	-14.89
985.19	-12.35
985.392	-14.2
985.595	-17.94
985.797	-18.05
985.999	-15.66
986.202	-13.96
986.404	-13.58
986.606	-11.02
986.808	-11.75
987.01	-9.92
987.212	-11.92
987.415	-12.48
987.617	-11.77
987.819	-12.03
988.021	-10.89
988.223	-12.51
988.425	-12.93
988.627	-12.58
988.829	-17.71
989.031	-15.8
989.232	-16.81
989.434	-15.67
989.636	-16.24
989.838	-15.6
990.04	-14.91
990.242	-14.61
990.443	-16.78
990.645	-15.32
990.847	-11.77
991.048	-11.38
991.25	-13.52
991.452	-15.41
991.653	-15.02
991.855	-14.34
992.057	-15.99
992.258	-15.72
992.46	-15.52
992.661	-15.42
992.863	-16.89
993.064	-16.07
993.265	-16.79
993.467	-18.1
993.668	-16.67
993.87	-16.8
994.071	-17.45
994.272	-17.27
994.473	-15.64
994.675	-16.38
994.876	-15.59
995.077	-14.5
995.278	-13.72
995.48	-11.89
995.681	-13.38
995.882	-10.91
996.083	-12.33
996.284	-16.16
996.485	-17.04
996.686	-18.03
996.887	-18.85
997.088	-23.34
997.289	-25.28
997.49	-25.94
997.691	-26.73
997.892	-25.99
998.092	-22.27
998.293	-21.78
998.494	-22.77
998.695	-24.02
998.896	-22.51
999.096	-22.64
999.297	-22.86
999.498	-24.6
999.698	-26.53
999.899	-27.89
1000.1	-29.36
1000.3	-28.98
1000.501	-29.56
1000.701	-29.5
1000.902	-29.7
1001.102	-29.93
1001.303	-28.45
1001.503	-31.03
1001.704	-30.62
1001.904	-31.03
1002.105	-32.56
1002.305	-31.88
1002.505	-32.22
1002.706	-31.83
1002.906	-31.77
1003.106	-34.17
1003.306	-31.62
1003.507	-29.07
1003.707	-29.28
1003.907	-25.76
1004.107	-24.66
1004.307	-25.88
1004.507	-23.76
1004.707	-24.65
1004.907	-26.4
1005.107	-27.03
1005.308	-25.94
1005.507	-26.71
1005.707	-23.88
1005.907	-23.55
1006.107	-20.17
1006.307	-18.08
1006.507	-19.11
1006.707	-17.88
1006.907	-18.38
1007.106	-19.39
1007.306	-20.45
1007.506	-20.61
1007.706	-20.19
1007.905	-22.26
1008.105	-22.04
1008.305	-22.6
1008.504	-22.17
1008.704	-17.81
1008.903	-18.13
1009.103	-15.8
1009.303	-16.29
1009.502	-16.64
1009.702	-17.4
1009.901	-17.23
1010.1	-20.54
1010.3	-19.15
1010.499	-21.2
1010.699	-23.84
1010.898	-24.94
1011.097	-23.51
1011.296	-23.56
1011.496	-23.77
1011.695	-24.27
1011.894	-26.12
1012.093	-23.02
1012.293	-25
1012.492	-26.83
1012.691	-26.75
1012.89	-27.26
1013.089	-28.44
1013.288	-27.21
1013.487	-26.53
1013.686	-27.08
1013.885	-28.35
1014.084	-27.84
1014.283	-28.16
1014.482	-28.63
1014.681	-29.24
1014.88	-31.91
1015.078	-29.54
1015.277	-31.99
1015.476	-31.2
1015.675	-30.25
1015.873	-29.75
1016.072	-29.49
1016.271	-27.29
1016.47	-30.79
1016.668	-29.2
1016.867	-29.54
1017.065	-30.21
1017.264	-30.57
1017.463	-30.02
1017.661	-31.65
1017.86	-30.47
1018.058	-29.48
1018.256	-30.74
1018.455	-31.18
1018.653	-29.85
1018.852	-28.2
1019.05	-30.75
1019.248	-32.38
1019.447	-33.08
1019.645	-33.02
1019.843	-34.11
1020.041	-31.44
1020.24	-32.45
1020.438	-28.2
1020.636	-28.78
1020.834	-29.96
1021.032	-28.71
1021.23	-31.03
1021.428	-29.3
1021.626	-25.94
1021.824	-26.46
1022.022	-27.67
1022.22	-27.25
1022.418	-26.79
1022.616	-27.59
1022.814	-27.3
1023.012	-26.73
1023.21	-24.44
1023.408	-25.43
1023.606	-27.41
1023.803	-21.6
1024.001	-22.43
1024.199	-25.65
1024.397	-24.08
1024.594	-24.31
1024.792	-25.79
1024.99	-26.14
1025.187	-25.2
1025.385	-21.21
1025.582	-20.64
1025.78	-21.54
1025.977	-20.1
1026.175	-20.75
1026.372	-18.87
1026.57	-21.86
1026.767	-18.09
1026.965	-16.37
1027.162	-15.81
1027.359	-15.26
1027.557	-13.99
1027.754	-18.18
1027.951	-19.52
1028.148	-17.16
1028.346	-18.79
1028.543	-19.95
1028.74	-19.91
1028.937	-22.96
1029.134	-22.39
1029.331	-24.07
1029.528	-23.11
1029.725	-22.52
1029.923	-26.74
1030.12	-23.35
1030.317	-21.63
1030.513	-21.19
1030.71	-20.36
1030.907	-17.95
1031.104	-18.43
1031.301	-19.76
1031.498	-19.55
1031.695	-19.12
1031.892	-18.57
1032.088	-19.36
1032.285	-21.19
1032.482	-22.29
1032.678	-25.09
1032.875	-28.53
1033.072	-29.29
1033.268	-29.58
1033.465	-30.06
1033.662	-33.28
1033.858	-32.68
1034.055	-33.12
1034.251	-32.33
1034.448	-32.84
1034.644	-33
1034.84	-30.9
1035.037	-29.71
1035.233	-29.7
1035.43	-26.92
1035.626	-26.96
1035.822	-26.14
1036.019	-26.21
1036.215	-29.38
1036.411	-30.92
1036.607	-32.23
1036.803	-33.78
1037	-34.77
1037.196	-36.1
1037.392	-35.87
1037.588	-39.13
1037.784	-40.15
1037.98	-41.85
1038.176	-40.93
1038.372	-41.28
1038.568	-39.87
1038.764	-37.45
1038.96	-34.22
1039.156	-35.42
1039.352	-36.89
1039.547	-34.75
1039.743	-32.55
1039.939	-30.69
1040.135	-29.16
1040.331	-29.99
1040.526	-28.28
1040.722	-30.41
1040.918	-30.93
1041.113	-32.16
1041.309	-32.76
1041.505	-35.18
1041.7	-35.15
1041.896	-36.68
1042.091	-38.57
1042.287	-39.12
1042.482	-37.31
1042.678	-38.27
1042.873	-37.49
1043.069	-38.65
1043.264	-37.53
1043.459	-35.81
1043.655	-34.17
1043.85	-33.91
1044.045	-31.82
1044.24	-32.59
1044.436	-30.42
1044.631	-31.63
1044.826	-32.54
1045.021	-36.61
1045.216	-35.79
