Data from FLMT021711__17__17-06-55-800.txt Node

Date: Tue Nov 05 17:06:55 CET 2024
User: Etudiants TP
Spectrometer: FLMT02171
Trigger mode: 0
Integration Time (sec): 1.000000E-1
Scans to average: 5
Electric dark correction enabled: true
Nonlinearity correction enabled: false
Boxcar width: 15
XAxis mode: Wavelengths
Number of Pixels in Spectrum: 3648
>>>>>Begin Spectral Data<<<<<
194.658	-57.69
194.923	-55.71
195.188	-47.82
195.453	-47.23
195.717	-40.73
195.982	-37.4
196.247	-35.91
196.512	-37.64
196.777	-35.95
197.042	-34.07
197.307	-32.91
197.572	-28.23
197.837	-29.4
198.101	-28.27
198.366	-25.8
198.631	-23.55
198.896	-17.95
199.161	-12.01
199.425	-4.69
199.69	3.18
199.955	3.21
200.22	0.91
200.484	1.35
200.749	1.88
201.014	3.24
201.278	3.79
201.543	4.8
201.807	4.52
202.072	5.94
202.337	4.99
202.601	6.5
202.866	4.89
203.13	6.92
203.395	4.69
203.659	5.54
203.924	2.27
204.189	1.86
204.453	2.09
204.717	4.55
204.982	5.31
205.246	5.75
205.511	6.97
205.775	5.21
206.04	10.39
206.304	11.71
206.568	12.34
206.833	12.53
207.097	13.75
207.361	16.96
207.626	20.03
207.89	21.29
208.154	22.2
208.419	23.72
208.683	23.74
208.947	25.97
209.211	25.95
209.476	24.92
209.74	24.92
210.004	25.02
210.268	25.05
210.532	27.74
210.796	26.84
211.061	27.89
211.325	28.37
211.589	25.69
211.853	25.02
212.117	26.98
212.381	27.24
212.645	29.35
212.909	29
213.173	28.43
213.437	29.56
213.701	28.93
213.965	30.51
214.229	27.21
214.493	27.45
214.757	26.3
215.021	24.99
215.285	27.85
215.549	29.29
215.813	25.7
216.077	24.54
216.34	26.73
216.604	25.98
216.868	26.95
217.132	27.33
217.396	26.97
217.659	28.26
217.923	24.85
218.187	23.67
218.451	23.06
218.714	20.69
218.978	20.96
219.242	21.92
219.505	21.42
219.769	25.09
220.033	25.78
220.296	25.73
220.56	26.13
220.824	22.72
221.087	23.61
221.351	22.26
221.614	21.32
221.878	22.44
222.142	19.75
222.405	19.8
222.669	20.48
222.932	17.38
223.196	17.2
223.459	13.85
223.722	13.35
223.986	14.74
224.249	14.03
224.513	13.37
224.776	13.55
225.04	13.58
225.303	13.51
225.566	12.92
225.83	15.78
226.093	18.11
226.356	17.6
226.62	16.53
226.883	18.5
227.146	18.37
227.409	17.37
227.673	15.19
227.936	13.03
228.199	14.16
228.462	12
228.725	11.27
228.989	11.96
229.252	13.05
229.515	17.91
229.778	18.86
230.041	18.55
230.304	17.86
230.567	19.31
230.83	18.03
231.093	22.09
231.356	21.32
231.619	28.62
231.882	28.19
232.145	29.38
232.408	29.51
232.671	29.31
232.934	27.53
233.197	26.02
233.46	25.01
233.723	26.94
233.986	23.62
234.249	22.87
234.512	25.23
234.775	27.76
235.037	27.25
235.3	27.54
235.563	27.69
235.826	29.43
236.089	30.94
236.351	30.24
236.614	32.83
236.877	33.44
237.14	34.64
237.402	33.91
237.665	28.47
237.928	26.26
238.19	24.6
238.453	26.55
238.716	24.78
238.978	25.17
239.241	23.8
239.503	25.72
239.766	20.4
240.029	18.31
240.291	19.98
240.554	20.25
240.816	20.28
241.079	21.83
241.341	19.88
241.604	18.54
241.866	15.56
242.129	16.45
242.391	18.07
242.653	16.88
242.916	16.45
243.178	16.69
243.441	18.76
243.703	19.07
243.965	17.7
244.228	18.07
244.49	17.41
244.752	18.07
245.015	18.72
245.277	20.21
245.539	19.89
245.801	21.18
246.064	20.96
246.326	21.56
246.588	21.81
246.85	23.54
247.112	23.84
247.374	24.57
247.637	25.54
247.899	24.06
248.161	24.31
248.423	21.39
248.685	20.49
248.947	18.77
249.209	19.27
249.471	21.07
249.733	22
249.995	20.3
250.257	20.46
250.519	18.99
250.781	21.25
251.043	19.48
251.305	20.41
251.567	21.29
251.829	21.15
252.091	19.4
252.353	17.34
252.615	17.67
252.876	15.38
253.138	12.53
253.4	10.84
253.662	11.2
253.924	13.06
254.185	14.33
254.447	13.88
254.709	13.22
254.971	14.58
255.232	16.21
255.494	15.07
255.756	13.42
256.017	14.32
256.279	14.88
256.541	13.03
256.802	12.74
257.064	14.43
257.326	12.97
257.587	14.84
257.849	14.66
258.11	17.65
258.372	18.37
258.633	19.51
258.895	19.15
259.156	18.81
259.418	17.25
259.679	12.95
259.941	11.99
260.202	15.04
260.464	17.64
260.725	17.03
260.987	17.39
261.248	18.48
261.509	17.87
261.771	16.84
262.032	17.97
262.293	17.99
262.555	17.41
262.816	17.1
263.077	14.62
263.338	12.45
263.6	12.01
263.861	11.58
264.122	12.01
264.383	13.67
264.645	16.51
264.906	16.98
265.167	17.57
265.428	17.39
265.689	17.72
265.95	17.9
266.211	18.92
266.473	18.28
266.734	15.58
266.995	12.69
267.256	13.59
267.517	15.66
267.778	19.01
268.039	19.55
268.3	19.27
268.561	15.23
268.822	17.51
269.083	16.24
269.344	14.81
269.604	13.47
269.865	12.88
270.126	8.67
270.387	9
270.648	9.73
270.909	8.83
271.17	8.16
271.43	5.83
271.691	4.53
271.952	4.48
272.213	5.68
272.473	3.92
272.734	4.3
272.995	4.93
273.256	5.3
273.516	8.04
273.777	5.64
274.038	5.84
274.298	3.57
274.559	3.87
274.82	8.23
275.08	11.07
275.341	12.04
275.601	10.35
275.862	8.72
276.122	8.65
276.383	8.91
276.643	11.67
276.904	11.01
277.164	14.19
277.425	14.32
277.685	18.4
277.946	20.1
278.206	22.3
278.467	23.53
278.727	25.69
278.987	25.92
279.248	25.47
279.508	26.48
279.768	29
280.029	30.21
280.289	26.38
280.549	24.37
280.81	24.22
281.07	23.96
281.33	24.78
281.59	21.51
281.851	23.21
282.111	23.22
282.371	22.75
282.631	23.79
282.891	21.84
283.151	19.61
283.412	17.52
283.672	17.37
283.932	16.35
284.192	17.11
284.452	15.38
284.712	13.12
284.972	12.08
285.232	8.16
285.492	11.06
285.752	9.26
286.012	13.9
286.272	14.37
286.532	12.08
286.792	10.08
287.052	10.94
287.312	12.52
287.571	11.06
287.831	11.51
288.091	9.01
288.351	10.55
288.611	14.2
288.871	13.81
289.13	13.28
289.39	9.73
289.65	13.57
289.91	11.69
290.17	13.68
290.429	15.7
290.689	13.42
290.949	11.47
291.208	12.53
291.468	16.05
291.728	18.13
291.987	20.46
292.247	19.35
292.506	20.71
292.766	23.94
293.026	22.99
293.285	25.02
293.545	25.65
293.804	24.91
294.064	21.8
294.323	19.45
294.583	20.15
294.842	20.3
295.102	21.25
295.361	20.66
295.621	22.03
295.88	23.24
296.139	22.69
296.399	23.52
296.658	19.84
296.917	19.5
297.177	17.73
297.436	18.56
297.695	16.5
297.955	18.16
298.214	16.53
298.473	18.43
298.732	20.27
298.992	21.59
299.251	21.32
299.51	18.97
299.769	18.24
300.028	17.46
300.287	17.98
300.547	17.37
300.806	14.03
301.065	17.09
301.324	17.18
301.583	14.75
301.842	12.18
302.101	10.25
302.36	12
302.619	12.14
302.878	13.35
303.137	10.28
303.396	10.91
303.655	12.1
303.914	8.15
304.173	9.73
304.432	8.84
304.691	11.11
304.95	8.56
305.208	12.68
305.467	13.61
305.726	12.11
305.985	13.22
306.244	14.6
306.503	12.86
306.761	11.79
307.02	9.49
307.279	10.35
307.537	9.61
307.796	7.55
308.055	5.32
308.314	5.19
308.572	4.56
308.831	6.62
309.09	5.84
309.348	7.65
309.607	7.78
309.865	11.56
310.124	10.58
310.382	11.87
310.641	12.57
310.9	10.84
311.158	12.65
311.417	12.55
311.675	13.34
311.933	13.81
312.192	14.02
312.45	13.89
312.709	14.38
312.967	15.13
313.226	15.39
313.484	13.81
313.742	13.07
314.001	10.59
314.259	9.56
314.517	10.59
314.776	12.21
315.034	15.44
315.292	13.5
315.55	12.2
315.809	11.91
316.067	12.71
316.325	12.6
316.583	13.54
316.841	12.88
317.1	11.92
317.358	9.24
317.616	8.14
317.874	7.08
318.132	7.51
318.39	6.77
318.648	5.79
318.906	5.16
319.164	3.76
319.422	3.75
319.68	3.02
319.938	3.67
320.196	3.65
320.454	4.8
320.712	4.37
320.97	3.9
321.228	0.84
321.486	2.84
321.744	4.54
322.002	6.39
322.26	3.79
322.517	4.12
322.775	2.19
323.033	1.03
323.291	2.65
323.549	4.31
323.806	6.27
324.064	7.31
324.322	8.21
324.58	7.83
324.837	10.4
325.095	8.21
325.353	9.76
325.61	12.26
325.868	12.68
326.126	15.1
326.383	14.38
326.641	13.59
326.898	14.41
327.156	15.62
327.413	15.19
327.671	14.61
327.928	16.4
328.186	17.52
328.443	16.68
328.701	19.5
328.958	21.35
329.216	22.94
329.473	21.91
329.731	22.49
329.988	22.44
330.245	25.63
330.503	25.28
330.76	24.41
331.017	25.74
331.275	23.12
331.532	22.32
331.789	20.04
332.047	17.91
332.304	15.8
332.561	15.41
332.818	13.04
333.076	15.14
333.333	15.27
333.59	15.35
333.847	15.36
334.104	12.97
334.361	12.64
334.618	11.91
334.876	11.18
335.133	11.18
335.39	10.45
335.647	10.31
335.904	7.49
336.161	5.82
336.418	6.06
336.675	2.07
336.932	2.09
337.189	1.2
337.446	1.3
337.703	-0.01
337.96	-3.51
338.216	-4.07
338.473	-5.07
338.73	-3.72
338.987	-3.73
339.244	-0.37
339.501	-0.43
339.757	-0.11
340.014	1.88
340.271	2.79
340.528	4.31
340.785	8.01
341.041	8.81
341.298	6.77
341.555	6.83
341.811	6.68
342.068	4.9
342.325	4.42
342.581	6.37
342.838	7.65
343.094	7.03
343.351	6.82
343.608	5.96
343.864	7.49
344.121	7.43
344.377	6.17
344.634	6.17
344.89	5.23
345.147	4.94
345.403	4.22
345.66	4.3
345.916	6.44
346.172	5.28
346.429	3.18
346.685	0.76
346.942	-0.72
347.198	-3.55
347.454	-3.11
347.711	-2.69
347.967	-4.79
348.223	-3.64
348.48	-4.09
348.736	-3.25
348.992	-3.55
349.248	-0.41
349.504	-1.87
349.761	-2.09
350.017	-1.76
350.273	-1.11
350.529	-1.14
350.785	-1.63
351.041	-3.63
351.297	-2.93
351.554	-4.82
351.81	-6.88
352.066	-7.85
352.322	-6.77
352.578	-5.51
352.834	-5.52
353.09	-5.17
353.346	-4.1
353.602	-4.67
353.858	-5.86
354.114	-6.68
354.369	-3.85
354.625	-1.55
354.881	-2.06
355.137	-0.28
355.393	0.57
355.649	1.72
355.905	3.05
356.16	3.45
356.416	4.18
356.672	-0.68
356.928	-0.89
357.183	-2.45
357.439	-3.53
357.695	-4.09
357.951	-0.7
358.206	-1.65
358.462	-3.74
358.718	-4.87
358.973	-2.81
359.229	-1.63
359.484	-0.25
359.74	3.48
359.996	4.25
360.251	6.86
360.507	6.95
360.762	5.47
361.018	6.88
361.273	4.77
361.529	5.45
361.784	5.77
362.04	7.49
362.295	5.89
362.55	6.19
362.806	7.84
363.061	8.66
363.316	7.29
363.572	7.95
363.827	8.82
364.082	4.6
364.338	3.96
364.593	4.85
364.848	5.23
365.104	4.82
365.359	7.78
365.614	8.38
365.869	6.28
366.124	7.09
366.38	6.76
366.635	8.57
366.89	9.33
367.145	8.21
367.4	11.19
367.655	10.62
367.91	11.41
368.165	8.9
368.42	5.91
368.675	8.22
368.93	8.22
369.185	5.55
369.44	5.29
369.695	7.41
369.95	6.87
370.205	6.32
370.46	5.6
370.715	6.12
370.97	6.68
371.225	7.8
371.48	7.04
371.734	8.29
371.989	10.91
372.244	10.76
372.499	11.1
372.754	10.29
373.008	8.37
373.263	5.13
373.518	6.75
373.773	5.84
374.027	4.04
374.282	6.42
374.537	6.1
374.791	8.12
375.046	7.29
375.301	6.72
375.555	5.28
375.81	5.77
376.064	6.94
376.319	9.88
376.573	8.8
376.828	5.54
377.082	11.7
377.337	9.79
377.591	7.52
377.846	7.52
378.1	9.37
378.355	9.51
378.609	7.66
378.863	5.24
379.118	5.43
379.372	5.14
379.627	2.93
379.881	-0.2
380.135	-0.18
380.389	-0.17
380.644	-0.27
380.898	0.41
381.152	1.97
381.407	1.58
381.661	3.13
381.915	6
382.169	6
382.423	6.42
382.677	2.15
382.932	3.68
383.186	3.01
383.44	4.61
383.694	6.54
383.948	4.59
384.202	3.76
384.456	5.43
384.71	8.16
384.964	5.84
385.218	8.66
385.472	8.82
385.726	8.23
385.98	8.34
386.234	9.09
386.488	7.66
386.742	7.49
386.996	5.98
387.249	6.85
387.503	9.36
387.757	12.31
388.011	12.7
388.265	13.12
388.518	14.12
388.772	15.82
389.026	16.05
389.28	13.04
389.533	12.27
389.787	13.6
390.041	11.33
390.295	10.27
390.548	11.51
390.802	13.04
391.055	12.44
391.309	10.8
391.563	8.39
391.816	10.24
392.07	9.11
392.323	10.16
392.577	11.11
392.83	12.28
393.084	16.41
393.337	19.59
393.591	20.17
393.844	20.02
394.098	23.44
394.351	28.03
394.604	30.44
394.858	32.69
395.111	32.89
395.364	29.39
395.618	30.08
395.871	28
396.124	27.41
396.378	26.59
396.631	25.59
396.884	23.31
397.137	24.85
397.391	25.54
397.644	23.13
397.897	24.01
398.15	25.87
398.403	28.41
398.657	26.06
398.91	26.23
399.163	26.5
399.416	26.05
399.669	24.7
399.922	23.42
400.175	20.89
400.428	19.48
400.681	18.86
400.934	15.03
401.187	14.03
401.44	14.98
401.693	13.45
401.946	8.46
402.199	3.83
402.452	3.39
402.704	-0.17
402.957	-1.64
403.21	0.63
403.463	-0.44
403.716	1.38
403.969	3.06
404.221	2.9
404.474	5.36
404.727	8.38
404.98	9.62
405.232	10.28
405.485	10.94
405.738	12.8
405.99	11.28
406.243	11.73
406.496	14.84
406.748	14.21
407.001	14.74
407.253	16.24
407.506	16.45
407.759	17.62
408.011	15.69
408.264	16.26
408.516	16.48
408.769	14.29
409.021	14.63
409.274	13.76
409.526	15.59
409.778	14.62
410.031	17.16
410.283	16.31
410.536	20.63
410.788	17.77
411.04	16.61
411.293	18.33
411.545	18.83
411.797	17.34
412.049	16.87
412.302	16.57
412.554	18.28
412.806	15.97
413.058	14.7
413.311	14.31
413.563	13.38
413.815	13.63
414.067	12.29
414.319	11.07
414.571	12.42
414.823	9.77
415.075	7.88
415.328	8.44
415.58	11.67
415.832	13.54
416.084	14.31
416.336	13.95
416.588	17.41
416.84	16.3
417.091	18.77
417.343	16.51
417.595	19.58
417.847	20.13
418.099	21
418.351	20.49
418.603	26.14
418.855	26.75
419.106	26.21
419.358	26.5
419.61	25.99
419.862	27.28
420.114	25.91
420.365	24.96
420.617	26.06
420.869	25.33
421.12	26.26
421.372	27.03
421.624	26.83
421.875	27.24
422.127	24.73
422.379	24.57
422.63	26.92
422.882	26.89
423.133	26.99
423.385	26.83
423.636	27.36
423.888	29.01
424.139	30.89
424.391	29.73
424.642	28.15
424.894	25.92
425.145	27.11
425.396	25.23
425.648	27.12
425.899	25.64
426.151	25.92
426.402	24.7
426.653	25.94
426.905	25.56
427.156	23.4
427.407	23.32
427.658	22.53
427.91	20.88
428.161	19.25
428.412	20.12
428.663	20.88
428.914	21.54
429.166	22.39
429.417	23.02
429.668	21.48
429.919	20.75
430.17	20.45
430.421	20.69
430.672	24.42
430.923	25.09
431.174	24.68
431.425	25.65
431.676	24.17
431.927	21.08
432.178	22.42
432.429	23.14
432.68	23.97
432.931	26.12
433.182	28.78
433.433	25.96
433.683	28.21
433.934	28.09
434.185	26.76
434.436	24.57
434.687	25.87
434.937	28.33
435.188	27.77
435.439	27.72
435.69	29.33
435.94	29.21
436.191	30.13
436.442	30.47
436.692	29.78
436.943	28.58
437.194	27.93
437.444	30.34
437.695	34
437.945	34.78
438.196	33.92
438.447	31.89
438.697	31.94
438.948	30.45
439.198	27.79
439.449	25.42
439.699	27.68
439.949	28.41
440.2	28.82
440.45	30.37
440.701	28.88
440.951	28.89
441.201	31.36
441.452	30.28
441.702	30.39
441.952	32.48
442.203	34.72
442.453	32.54
442.703	32.84
442.953	34.69
443.204	36.37
443.454	35.23
443.704	36.75
443.954	36.12
444.204	37.09
444.455	38.04
444.705	40.11
444.955	40.08
445.205	40.08
445.455	38.65
445.705	39.54
445.955	41.22
446.205	42.73
446.455	45.02
446.705	47.03
446.955	49.53
447.205	51.89
447.455	53.88
447.705	52.17
447.955	52.76
448.205	54.26
448.454	56.5
448.704	57.63
448.954	57.1
449.204	58.6
449.454	59.6
449.704	58.61
449.953	59.42
450.203	63.07
450.453	61.57
450.703	64.39
450.952	63.93
451.202	67.04
451.452	66.69
451.701	69.01
451.951	71.33
452.201	72.08
452.45	71.31
452.7	73.46
452.949	73.29
453.199	72.77
453.448	74.02
453.698	74.61
453.947	73.24
454.197	71.32
454.446	70.18
454.696	73.4
454.945	72.86
455.195	71.61
455.444	72.92
455.693	76.01
455.943	73.34
456.192	72.63
456.442	71.54
456.691	70.75
456.94	70.54
457.189	69.5
457.439	71.28
457.688	72.36
457.937	71.24
458.186	71.43
458.436	69.86
458.685	70.72
458.934	69.19
459.183	68.3
459.432	68.96
459.681	69.97
459.93	68.49
460.179	68.01
460.429	65.66
460.678	67.82
460.927	69.53
461.176	68.48
461.425	68.43
461.674	68.85
461.923	66.49
462.172	66.24
462.42	64.38
462.669	66.12
462.918	65.51
463.167	64.18
463.416	61.54
463.665	63.55
463.914	63.93
464.162	63.08
464.411	63.83
464.66	63.47
464.909	61.06
465.158	60.72
465.406	59.04
465.655	61.5
465.904	63.79
466.152	63.88
466.401	63.94
466.65	64.2
466.898	62.97
467.147	58.99
467.395	57.27
467.644	58.9
467.893	58.25
468.141	58.08
468.39	55.07
468.638	52.94
468.887	50.47
469.135	49.71
469.384	50.3
469.632	53.17
469.88	52.43
470.129	52.8
470.377	49.74
470.626	51.03
470.874	52.73
471.122	53.2
471.371	50.68
471.619	48.3
471.867	49.91
472.115	49.89
472.364	48.41
472.612	50.07
472.86	47.89
473.108	48.42
473.356	47.3
473.605	45.75
473.853	43.39
474.101	41.98
474.349	40.74
474.597	43.48
474.845	43.15
475.093	41.66
475.341	39.24
475.589	40.24
475.837	41.32
476.085	42.85
476.333	42.2
476.581	44.12
476.829	42.55
477.077	44.4
477.325	42.61
477.573	43.51
477.821	41.05
478.069	41.45
478.317	40.64
478.564	41.14
478.812	38.63
479.06	36.3
479.308	36.42
479.555	36.04
479.803	34.06
480.051	36.72
480.299	37.25
480.546	37.44
480.794	34.38
481.042	34.67
481.289	34.05
481.537	34.83
481.784	34.44
482.032	37.25
482.28	36.71
482.527	36.59
482.775	37.48
483.022	38.47
483.27	39.5
483.517	42.39
483.765	40.4
484.012	41.09
484.259	38.77
484.507	41.09
484.754	40.96
485.002	42.05
485.249	41.7
485.496	44.16
485.744	44.99
485.991	45.1
486.238	43.88
486.486	46.52
486.733	48.76
486.98	50.97
487.227	49.44
487.474	51.53
487.722	51.72
487.969	50.45
488.216	50.97
488.463	52.15
488.71	50.31
488.957	49.35
489.204	49.48
489.451	50.3
489.699	49.75
489.946	48.45
490.193	49.04
490.44	49.48
490.687	49.32
490.934	45.26
491.18	41.88
491.427	43.16
491.674	45.17
491.921	46.87
492.168	46.35
492.415	43.27
492.662	43.48
492.909	44.74
493.155	44.41
493.402	42.83
493.649	41.32
493.896	42.85
494.142	40.49
494.389	39.75
494.636	37.69
494.883	36.91
495.129	35.75
495.376	34.04
495.623	35.46
495.869	37.33
496.116	39.17
496.362	40.68
496.609	43.6
496.855	47.5
497.102	47.94
497.348	47.59
497.595	49.32
497.841	52.24
498.088	50.26
498.334	50.95
498.581	52.03
498.827	53.35
499.074	54.71
499.32	55.98
499.566	58.73
499.813	58.95
500.059	58.96
500.305	57.88
500.552	57.94
500.798	57.46
501.044	60.57
501.29	60.16
501.537	57.47
501.783	60.88
502.029	64.96
502.275	63.96
502.521	62.99
502.767	63.66
503.013	67.89
503.26	65.77
503.506	62.27
503.752	62.63
503.998	60.63
504.244	61.96
504.49	60.05
504.736	61.73
504.982	61.19
505.228	62.73
505.474	64.14
505.72	65.31
505.966	63.98
506.211	67.39
506.457	67.02
506.703	65.86
506.949	64.68
507.195	63.41
507.441	62.22
507.686	65.75
507.932	68.55
508.178	70.85
508.424	70.36
508.669	70.3
508.915	71.96
509.161	75.13
509.406	75.43
509.652	75.63
509.898	79.58
510.143	81.7
510.389	81.95
510.634	79.29
510.88	84.11
511.125	88.36
511.371	90.26
511.616	93.64
511.862	91.33
512.107	90.22
512.353	90.1
512.598	91.51
512.844	90.24
513.089	87.76
513.335	89.76
513.58	91.49
513.825	92.03
514.071	92.49
514.316	93.25
514.561	95.67
514.806	96.47
515.052	98.72
515.297	98.08
515.542	99.95
515.787	101.06
516.033	104.03
516.278	105.3
516.523	105.33
516.768	105.84
517.013	105.26
517.258	104.71
517.503	105.18
517.748	106.49
517.993	108.07
518.238	109.69
518.483	109.19
518.728	109.03
518.973	108.24
519.218	108.54
519.463	112.33
519.708	114.19
519.953	114.78
520.198	116.73
520.443	120.67
520.688	125.59
520.933	126.58
521.177	128.56
521.422	128.77
521.667	132.57
521.912	134.15
522.157	131.74
522.401	135.39
522.646	138.49
522.891	141.92
523.135	142.79
523.38	144.28
523.625	144.07
523.869	146.04
524.114	149.65
524.358	150.65
524.603	152.5
524.848	152.17
525.092	151.88
525.337	154.65
525.581	156.69
525.826	159.67
526.07	161.06
526.315	164.07
526.559	164.79
526.803	165.4
527.048	168.8
527.292	170.57
527.537	172.85
527.781	174.72
528.025	173.06
528.269	174.62
528.514	175.32
528.758	175.43
529.002	176.95
529.247	180.72
529.491	180.43
529.735	185.96
529.979	187.64
530.223	189.36
530.467	187.09
530.712	187.15
530.956	187.98
531.2	191.44
531.444	191.31
531.688	192.89
531.932	194.24
532.176	196.31
532.42	199.17
532.664	202.87
532.908	202.69
533.152	203.25
533.396	203.88
533.64	203.47
533.884	203.28
534.128	204.51
534.371	206.98
534.615	208.71
534.859	208.9
535.103	209.01
535.347	208.74
535.59	211.22
535.834	209.47
536.078	212.13
536.322	214.49
536.565	218.17
536.809	217.87
537.053	221.14
537.296	220.16
537.54	219.74
537.784	219.8
538.027	223.1
538.271	222.86
538.514	221.29
538.758	220.36
539.001	219.32
539.245	220.4
539.488	220.94
539.732	222.39
539.975	223.61
540.219	225.31
540.462	226.8
540.706	227.94
540.949	226.88
541.192	227.61
541.436	231.02
541.679	235.59
541.922	235.82
542.166	231.14
542.409	231.53
542.652	232.48
542.895	234.08
543.139	234.3
543.382	237.62
543.625	237.59
543.868	237.21
544.111	234.92
544.354	232.58
544.598	231.36
544.841	233.44
545.084	232.4
545.327	232
545.57	232.41
545.813	234.49
546.056	235.25
546.299	236.63
546.542	238.43
546.785	240.11
547.028	241.03
547.271	240.91
547.514	239.44
547.756	237.61
547.999	238.28
548.242	239.85
548.485	238.74
548.728	239.81
548.971	236.16
549.213	236.54
549.456	235.81
549.699	237.74
549.942	238.24
550.184	238.83
550.427	239.25
550.67	240.55
550.912	235.7
551.155	237.51
551.398	237.76
551.64	237.63
551.883	238.3
552.125	237.08
552.368	236.07
552.61	235.37
552.853	236.72
553.095	235.3
553.338	234.74
553.58	235.87
553.823	233.97
554.065	236.43
554.308	234.06
554.55	232.1
554.792	229.54
555.035	230.6
555.277	229.31
555.519	227.85
555.762	225.2
556.004	226.42
556.246	224.99
556.488	226.29
556.731	224.2
556.973	225.78
557.215	224.64
557.457	225.83
557.699	226.73
557.941	224.25
558.183	223.34
558.426	226.05
558.668	222.1
558.91	223.06
559.152	224.48
559.394	224.59
559.636	226.89
559.878	228.41
560.12	227.99
560.362	229.47
560.604	230.17
560.845	229.84
561.087	228.89
561.329	231.44
561.571	229.05
561.813	228.95
562.055	227.86
562.297	229.56
562.538	229.61
562.78	232.19
563.022	232.05
563.264	234.2
563.505	234.67
563.747	234.99
563.989	233.45
564.23	232.76
564.472	231.81
564.714	234.63
564.955	235.39
565.197	233.6
565.438	236.46
565.68	239.06
565.921	238.14
566.163	240.04
566.404	240
566.646	242.82
566.887	246.03
567.129	248.29
567.37	246.19
567.612	248.2
567.853	246.15
568.094	248.05
568.336	249.43
568.577	250.85
568.818	252.55
569.06	252.85
569.301	251.44
569.542	253.65
569.783	255.82
570.025	256.96
570.266	258.21
570.507	260.56
570.748	261.9
570.989	262.63
571.23	264.99
571.472	266.06
571.713	266.3
571.954	266.9
572.195	264.95
572.436	266.88
572.677	270.29
572.918	270.78
573.159	269.42
573.4	270.13
573.641	270.37
573.882	270.88
574.123	266.83
574.364	260.61
574.604	260.83
574.845	261.66
575.086	261
575.327	260.45
575.568	259.03
575.809	258.6
576.049	256.76
576.29	253.88
576.531	258.42
576.771	261.4
577.012	262.83
577.253	262.34
577.494	261.33
577.734	261.82
577.975	261.6
578.215	259.65
578.456	258.31
578.697	258.19
578.937	260.77
579.178	260.21
579.418	259.11
579.659	260.01
579.899	256.81
580.14	255.53
580.38	254.62
580.62	254.16
580.861	255.65
581.101	254.36
581.342	254.09
581.582	250.76
581.822	253.66
582.063	252.46
582.303	251.68
582.543	251.85
582.783	253.71
583.024	255.96
583.264	257.32
583.504	256.55
583.744	257.8
583.984	254.59
584.224	254.46
584.465	253.43
584.705	253.68
584.945	254.76
585.185	252.86
585.425	253.38
585.665	254.88
585.905	253.48
586.145	253.02
586.385	251.32
586.625	254.48
586.865	253.73
587.105	252.96
587.345	253.21
587.585	253.33
587.824	251.69
588.064	251.6
588.304	249.61
588.544	250.05
588.784	248.01
589.024	250.3
589.263	250.71
589.503	248.73
589.743	250.65
589.982	250.11
590.222	250.83
590.462	246.09
590.701	244.67
590.941	247.04
591.181	247
591.42	245.94
591.66	248.83
591.899	250.65
592.139	249.92
592.378	249.51
592.618	247.75
592.857	247.38
593.097	246.08
593.336	248.05
593.576	248.31
593.815	248.01
594.055	245.34
594.294	246.86
594.533	246.8
594.773	245.89
595.012	245.1
595.251	246.52
595.491	250.2
595.73	252.4
595.969	254.53
596.208	255.12
596.447	260.74
596.687	260.51
596.926	261.29
597.165	258.45
597.404	261.37
597.643	259.34
597.882	261.54
598.121	262.26
598.36	261.77
598.599	261.9
598.838	263.01
599.077	258.49
599.316	258.85
599.555	257.35
599.794	257.86
600.033	260.52
600.272	261.87
600.511	259.74
600.75	261.73
600.989	262.19
601.228	262.76
601.466	262.34
601.705	262.2
601.944	262.44
602.183	264.28
602.422	264.47
602.66	263.37
602.899	261.11
603.138	260.64
603.376	259.06
603.615	260.48
603.854	257.15
604.092	258.66
604.331	260.06
604.569	260.28
604.808	258.12
605.047	259.45
605.285	256.84
605.524	256.47
605.762	255.86
606	255.44
606.239	254.45
606.477	255.05
606.716	250.88
606.954	250.5
607.193	247.89
607.431	243.57
607.669	240.31
607.908	237.89
608.146	236.34
608.384	234.88
608.622	232.58
608.861	231.36
609.099	229.32
609.337	226.9
609.575	224.3
609.813	223.8
610.052	222.05
610.29	216.41
610.528	212.82
610.766	211.19
611.004	208.77
611.242	206.52
611.48	204.65
611.718	200.25
611.956	200.72
612.194	199.07
612.432	196.72
612.67	195.73
612.908	194.97
613.146	192.29
613.384	190.83
613.621	189.19
613.859	188.23
614.097	187.54
614.335	187.08
614.573	187.43
614.811	188.85
615.048	187.56
615.286	190.36
615.524	188.68
615.761	185.6
615.999	186.25
616.237	185.66
616.474	186.59
616.712	187.95
616.95	186.87
617.187	185.04
617.425	185.76
617.662	186.34
617.9	186.76
618.137	183.96
618.375	183.43
618.612	181.74
618.85	181.78
619.087	184.61
619.325	183.45
619.562	180.65
619.799	178.11
620.037	178.08
620.274	176.53
620.511	177.12
620.749	174.83
620.986	171.96
621.223	169.43
621.461	168.04
621.698	167.61
621.935	166.06
622.172	163.63
622.409	164.2
622.647	162.66
622.884	160.49
623.121	162.24
623.358	160.1
623.595	158.72
623.832	159.43
624.069	157.36
624.306	158.33
624.543	160.02
624.78	159.12
625.017	159.34
625.254	159.33
625.491	161.83
625.728	161.56
625.965	161.32
626.202	160.34
626.438	158.03
626.675	155.23
626.912	157.74
627.149	158.36
627.386	157.53
627.622	155.61
627.859	155.01
628.096	155.29
628.333	156.21
628.569	156.27
628.806	157.62
629.043	156.97
629.279	158.21
629.516	159.08
629.752	155.75
629.989	155.73
630.225	154.25
630.462	153.68
630.699	153.37
630.935	153.1
631.171	149.57
631.408	148.89
631.644	146.06
631.881	141.95
632.117	140.27
632.354	140.05
632.59	138.64
632.826	137.03
633.063	136.4
633.299	136.58
633.535	133.33
633.771	132.36
634.008	134.9
634.244	133.76
634.48	131.31
634.716	133.29
634.953	132.3
635.189	132.16
635.425	131.82
635.661	133.2
635.897	131.82
636.133	130.9
636.369	129.85
636.605	124.81
636.841	123.86
637.077	125.34
637.313	124.84
637.549	124.57
637.785	123.44
638.021	122.75
638.257	120.89
638.493	121.46
638.729	119.12
638.965	121.61
639.2	121.89
639.436	121.08
639.672	119.73
639.908	117.13
640.144	118.8
640.379	119.51
640.615	117.71
640.851	118.92
641.086	119.79
641.322	117.42
641.558	115.47
641.793	116.86
642.029	113.05
642.264	113.2
642.5	112.48
642.736	108.92
642.971	109.42
643.207	107.52
643.442	104.9
643.678	104.25
643.913	106.36
644.148	106.3
644.384	107.16
644.619	105.68
644.855	107.28
645.09	106.2
645.325	105.5
645.561	106.46
645.796	105.16
646.031	107.37
646.266	103.46
646.502	103.3
646.737	104.93
646.972	105.14
647.207	105.54
647.442	103.95
647.678	102.08
647.913	103.28
648.148	103.84
648.383	101.37
648.618	101.99
648.853	103.76
649.088	104.59
649.323	107.95
649.558	108.8
649.793	108
650.028	108.79
650.263	104.96
650.498	106.73
650.733	106.66
650.968	104.51
651.202	104.75
651.437	101.63
651.672	98.65
651.907	97.33
652.142	95.64
652.376	95.15
652.611	95.02
652.846	95.51
653.081	94.26
653.315	92.48
653.55	93.85
653.785	92.27
654.019	93.03
654.254	91.72
654.488	92.08
654.723	88.7
654.958	86.67
655.192	84.4
655.427	81.46
655.661	82.79
655.896	83.72
656.13	84.09
656.364	81.47
656.599	77.46
656.833	77.86
657.068	80.05
657.302	79.57
657.536	77.47
657.771	77.99
658.005	79.01
658.239	80.46
658.474	78.3
658.708	79.75
658.942	79.22
659.176	77.91
659.41	75.39
659.645	75.02
659.879	74.9
660.113	71.02
660.347	70.11
660.581	68.9
660.815	67.89
661.049	65.82
661.283	62.12
661.517	60.29
661.751	59.9
661.985	59.13
662.219	59.92
662.453	58.37
662.687	58.9
662.921	54.91
663.155	52.77
663.389	46.47
663.622	44.18
663.856	45.74
664.09	43.08
664.324	41.43
664.558	42.41
664.791	42.32
665.025	40.84
665.259	40.48
665.492	39.5
665.726	41.39
665.96	39.88
666.193	37.97
666.427	39.45
666.661	39.77
666.894	38.88
667.128	38.21
667.361	40.48
667.595	40.08
667.828	39.99
668.062	39.42
668.295	40.67
668.529	41
668.762	40.53
668.995	37.31
669.229	40.09
669.462	40.22
669.695	40.93
669.929	40.08
670.162	41.81
670.395	40.67
670.629	42.14
670.862	43.52
671.095	40.15
671.328	40.85
671.561	37.38
671.795	37.57
672.028	37.81
672.261	38.99
672.494	39.57
672.727	37.99
672.96	38.18
673.193	37.34
673.426	41.27
673.659	41.21
673.892	41.61
674.125	40.69
674.358	40.09
674.591	37.9
674.824	36.45
675.057	35.89
675.29	34.08
675.523	35.58
675.755	35.54
675.988	36.64
676.221	41.22
676.454	39.25
676.687	40.67
676.919	39.64
677.152	39.29
677.385	37.66
677.617	38
677.85	40.27
678.083	38.89
678.315	40.67
678.548	38.51
678.78	37.67
679.013	37.25
679.246	37.5
679.478	38.29
679.711	35.97
679.943	39.33
680.175	36.48
680.408	39.67
680.64	35.26
680.873	35.67
681.105	35.9
681.338	39.08
681.57	38.26
681.802	40.11
682.034	41.34
682.267	43.79
682.499	45.3
682.731	41.91
682.964	40.19
683.196	37.68
683.428	34.93
683.66	33.35
683.892	34.41
684.124	36.74
684.356	38.9
684.589	39.88
684.821	38.27
685.053	36.95
685.285	37.9
685.517	39.54
685.749	40.93
685.981	42.83
686.213	41.75
686.445	42.53
686.676	38.4
686.908	38.53
687.14	34.87
687.372	34.78
687.604	32.33
687.836	33.9
688.068	32.65
688.299	32.5
688.531	29.26
688.763	33.36
688.995	32.11
689.226	34.18
689.458	31.55
689.69	30.87
689.921	30.58
690.153	31.03
690.384	33.13
690.616	31.67
690.848	33.48
691.079	30.72
691.311	28.37
691.542	26.47
691.774	24.17
692.005	25.96
692.237	27.75
692.468	26.78
692.699	24.86
692.931	22.92
693.162	21.25
693.393	20.73
693.625	19.63
693.856	21.68
694.087	22.55
694.319	24.33
694.55	24.7
694.781	23.93
695.012	23.11
695.243	20.88
695.475	20.02
695.706	20.46
695.937	19.35
696.168	17.56
696.399	15.36
696.63	14.97
696.861	14.67
697.092	18.47
697.323	19.74
697.554	21.57
697.785	22.56
698.016	23.27
698.247	21.03
698.478	21.84
698.709	23.68
698.94	25.88
699.171	25.48
699.401	23.15
699.632	25.55
699.863	23.93
700.094	24.23
700.325	26.72
700.555	28.39
700.786	29.55
701.017	29.22
701.247	28.4
701.478	28.49
701.709	28.29
701.939	26.6
702.17	28.97
702.401	32.72
702.631	33.39
702.862	32.19
703.092	28.62
703.323	30.63
703.553	31.45
703.784	30.8
704.014	30.51
704.244	25.63
704.475	25.1
704.705	23.45
704.936	24.4
705.166	22.04
705.396	24.37
705.627	24.97
705.857	23.84
706.087	24.51
706.317	23.13
706.548	21.16
706.778	18.73
707.008	19.22
707.238	19.72
707.468	16.83
707.698	14.45
707.928	13.11
708.158	11.18
708.389	9.95
708.619	8.21
708.849	7.43
709.079	9.6
709.309	7.48
709.539	4.25
709.768	3.93
709.998	6
710.228	6.08
710.458	5.72
710.688	3.83
710.918	4.39
711.148	3.66
711.378	5.48
711.607	4.35
711.837	5.8
712.067	5.17
712.297	5.91
712.526	5.88
712.756	6.79
712.986	4.57
713.215	2.52
713.445	2.62
713.674	3.67
713.904	3.5
714.134	5.23
714.363	4.56
714.593	5.14
714.822	4.12
715.052	3.85
715.281	5.49
715.511	4.16
715.74	5.13
715.969	4.28
716.199	3.05
716.428	2.84
716.657	3.02
716.887	4.64
717.116	2.18
717.345	4
717.575	4.53
717.804	4.87
718.033	4.54
718.262	4.67
718.492	5.1
718.721	6.12
718.95	4.08
719.179	1.57
719.408	1.57
719.637	-2.35
719.866	-4.9
720.095	-2.87
720.324	-3.5
720.553	-6.02
720.782	-7.28
721.011	-7.6
721.24	-8.49
721.469	-8.74
721.698	-8.78
721.927	-7.67
722.156	-9.21
722.385	-11.03
722.613	-8.15
722.842	-8.74
723.071	-5.28
723.3	-4.94
723.529	-4.96
723.757	-3.92
723.986	-5.8
724.215	-5.98
724.443	-4.75
724.672	-2.97
724.901	-0.97
725.129	-0.66
725.358	2.37
725.586	0.25
725.815	-0.48
726.043	-0.87
726.272	-1.33
726.5	-2.3
726.729	-1.23
726.957	-3.75
727.186	-6.45
727.414	-6.45
727.642	-4.61
727.871	-4.21
728.099	-3.63
728.327	-3.92
728.556	-3.51
728.784	-3.04
729.012	-4.06
729.241	-1
729.469	-1.15
729.697	-3.04
729.925	-2.8
730.153	-5.5
730.381	-4.15
730.61	-4.15
730.838	-7.95
731.066	-7.23
731.294	-5.82
731.522	-9.18
731.75	-12.88
731.978	-13.2
732.206	-12.59
732.434	-14.23
732.662	-12.54
732.89	-14.04
733.118	-15
733.346	-13.87
733.573	-12.26
733.801	-10.62
734.029	-3.99
734.257	-2.63
734.485	0.61
734.712	2.89
734.94	2.9
735.168	4.56
735.396	4.02
735.623	4.64
735.851	5.77
736.078	7.32
736.306	7.48
736.534	8.1
736.761	9.02
736.989	6.33
737.216	5.96
737.444	3.4
737.671	5.85
737.899	12.01
738.126	11.08
738.354	9.17
738.581	9.51
738.809	9.98
739.036	6.48
739.263	6.34
739.491	2.74
739.718	2.32
739.945	6.5
740.173	9.01
740.4	7.91
740.627	6.35
740.854	5.89
741.081	2.57
741.309	0.5
741.536	-2.88
741.763	-4.1
741.99	-3.81
742.217	-4.26
742.444	-3.75
742.671	-3.61
742.898	-4.41
743.125	-7.49
743.352	-9.05
743.579	-9.68
743.806	-10.56
744.033	-6.98
744.26	-5.39
744.487	-5.1
744.714	-7.06
744.941	-8.79
745.167	-6.89
745.394	-6.34
745.621	-5.79
745.848	-4.74
746.075	-1.84
746.301	1.41
746.528	5.57
746.755	4.41
746.981	4.35
747.208	4.99
747.435	7.61
747.661	8.7
747.888	9.78
748.114	8.12
748.341	10.3
748.567	12.23
748.794	9.72
749.02	9.67
749.247	8.67
749.473	8.08
749.7	7.43
749.926	6.85
750.152	11.15
750.379	10.03
750.605	11.84
750.831	10.51
751.058	8.95
751.284	7.08
751.51	10.07
751.737	12.01
751.963	11.9
752.189	11.48
752.415	11.14
752.641	9.51
752.867	9.37
753.094	7.15
753.32	4.6
753.546	3.56
753.772	5.22
753.998	2.41
754.224	1.54
754.45	2
754.676	1.4
754.902	0.34
755.128	0.91
755.354	-0.19
755.579	0.77
755.805	1.94
756.031	1.23
756.257	-0.77
756.483	-1.31
756.709	-2.23
756.934	-1.7
757.16	-4.15
757.386	-3.37
757.612	-5.56
757.837	-5.73
758.063	-3.56
758.289	-0.66
758.514	-2.75
758.74	-5.59
758.965	-8.46
759.191	-8.2
759.416	-7.71
759.642	-4.9
759.868	-4.58
760.093	-2.95
760.318	-4.13
760.544	-3.94
760.769	-3.89
760.995	-3.89
761.22	-3.81
761.445	-2.62
761.671	-1.4
761.896	0.82
762.121	0.3
762.347	0.93
762.572	-0.34
762.797	1.06
763.022	1.38
763.248	6.43
763.473	7.46
763.698	7.7
763.923	7.52
764.148	8.18
764.373	8.41
764.598	10.1
764.823	12.48
765.048	11.02
765.273	8.12
765.498	7.17
765.723	8.92
765.948	10.41
766.173	9.88
766.398	11.08
766.623	8.07
766.848	6.43
767.073	5.49
767.298	5.6
767.522	6.03
767.747	6.16
767.972	7.08
768.197	7.19
768.421	4.61
768.646	2.28
768.871	-0.82
769.095	0.56
769.32	1.47
769.545	0.83
769.769	0.81
769.994	1.84
770.218	-1.72
770.443	-0.71
770.667	-1
770.892	0.03
771.116	-2.25
771.341	-0.74
771.565	-2.8
771.79	-2.87
772.014	-3.49
772.238	-3.94
772.463	-1.83
772.687	-3.03
772.911	-3.29
773.136	-5.8
773.36	-5.9
773.584	-3.76
773.808	-4.96
774.033	-4.69
774.257	-5.5
774.481	-6.25
774.705	-7.23
774.929	-8.18
775.153	-8.87
775.377	-8.15
775.602	-7.06
775.826	-5.51
776.05	-4.15
776.274	-5.74
776.498	-6.23
776.722	-6.63
776.945	-6.24
777.169	-5.65
777.393	-7.29
777.617	-6.72
777.841	-6.41
778.065	-4.45
778.289	-6.41
778.512	-6.86
778.736	-5.6
778.96	-7.15
779.184	-5.61
779.407	-7.57
779.631	-6.52
779.855	-8.37
780.078	-5.86
780.302	-6.91
780.526	-9.39
780.749	-8.87
780.973	-6.39
781.196	-5.01
781.42	-7.77
781.643	-6.92
781.867	-4.49
782.09	-6.47
782.314	-7.17
782.537	-8.79
782.76	-10.31
782.984	-9.05
783.207	-9.93
783.431	-9.01
783.654	-9
783.877	-11.56
784.1	-11.72
784.324	-11.89
784.547	-12.51
784.77	-16.16
784.993	-16.33
785.216	-16.07
785.44	-13.92
785.663	-15.73
785.886	-13.47
786.109	-14.32
786.332	-14.03
786.555	-13.82
786.778	-11.41
787.001	-11.67
787.224	-10.03
787.447	-9.42
787.67	-7.97
787.893	-8.63
788.116	-7.98
788.339	-5.9
788.561	-6.34
788.784	-11.01
789.007	-12.24
789.23	-11.49
789.453	-10.98
789.675	-12.19
789.898	-14.03
790.121	-14.23
790.344	-13.83
790.566	-13.78
790.789	-13.29
791.012	-13.21
791.234	-11.06
791.457	-8.17
791.679	-6.22
791.902	-5.01
792.124	-5.79
792.347	-7.97
792.569	-8.14
792.792	-9.67
793.014	-5.56
793.237	-3.46
793.459	-4.22
793.681	-4.68
793.904	-5.21
794.126	-7.19
794.348	-6.8
794.571	-4.78
794.793	-7.14
795.015	-7.6
795.237	-8.14
795.46	-7.48
795.682	-6.02
795.904	-3.32
796.126	-6.25
796.348	-7.35
796.57	-4.42
796.792	-4.16
797.014	-1.23
797.237	-0.52
797.459	0.41
797.681	1.41
797.903	-0.68
798.124	-0.46
798.346	9.25
798.568	9.5
798.79	11.32
799.012	13.15
799.234	14.28
799.456	14.79
799.678	15.3
799.899	11.41
800.121	8.69
800.343	8.66
800.565	9.59
800.786	9.68
801.008	11.74
801.23	11.62
801.451	9.67
801.673	8.96
801.895	9.55
802.116	12.88
802.338	13.73
802.559	14.03
802.781	12.98
803.002	16.02
803.224	18.63
803.445	17.36
803.667	18.2
803.888	17.02
804.109	16.91
804.331	17.2
804.552	18.48
804.773	22.03
804.995	18.47
805.216	5.77
805.437	5.16
805.658	2
805.88	0.45
806.101	1.19
806.322	0.89
806.543	1.11
806.764	-1.08
806.985	1.03
807.207	1.32
807.428	0.06
807.649	-2.64
807.87	-4.64
808.091	-3.54
808.312	-1.76
808.533	3.02
808.754	2.84
808.975	-0.19
809.195	0.49
809.416	-0.79
809.637	-0.74
809.858	-2.59
810.079	-3.41
810.3	-1.83
810.52	-2.68
810.741	-4.14
810.962	-6.15
811.183	-6.32
811.403	-6.56
811.624	-8.32
811.845	-5.68
812.065	-4.74
812.286	-4.97
812.506	-4.18
812.727	-3.61
812.948	-2.75
813.168	-1.32
813.389	-2.89
813.609	1.01
813.83	0.09
814.05	-0.89
814.27	0.12
814.491	3.85
814.711	2.75
814.931	-0.39
815.152	-1.43
815.372	-3.42
815.592	-3.4
815.813	-4.76
816.033	-6.48
816.253	-4.06
816.473	-4.76
816.694	-3.12
816.914	-2.92
817.134	-2.9
817.354	-4.99
817.574	-3.54
817.794	-3.59
818.014	-6.26
818.234	-7.46
818.454	-7.75
818.674	-9.46
818.894	-12.17
819.114	-10.45
819.334	-10.58
819.554	-8.74
819.774	-7.37
819.994	-9.39
820.214	-9.87
820.433	-10.28
820.653	-11.19
820.873	-9.31
821.093	-9.01
821.312	-10.96
821.532	-8.28
821.752	-5.61
821.972	-6.98
822.191	-5.88
822.411	-6.56
822.63	-6.02
822.85	-4.59
823.07	-6.6
823.289	-5.38
823.509	-7.23
823.728	-6.16
823.948	-7.69
824.167	-7.06
824.387	-8.17
824.606	-7.2
824.825	-7.46
825.045	-6.37
825.264	-7.06
825.483	-5.45
825.703	-2.18
825.922	-3.38
826.141	-4.06
826.361	-4.09
826.58	-7.53
826.799	-8.63
827.018	-7.38
827.237	-9.49
827.456	-7.28
827.676	-7.97
827.895	-7.34
828.114	-5.96
828.333	-6.38
828.552	-5.72
828.771	-4.78
828.99	-8.19
829.209	-7.89
829.428	-4.39
829.647	-5.23
829.866	-4.14
830.084	-4.59
830.303	-5.33
830.522	-4.87
830.741	-4.64
830.96	-5.07
831.179	-4.7
831.397	-6.17
831.616	-6.34
831.835	-7.31
832.053	-6.29
832.272	-6.49
832.491	-6.21
832.709	-7.11
832.928	-5.59
833.147	-6.08
833.365	-4.75
833.584	-2
833.802	0.58
834.021	1.94
834.239	2.58
834.458	1.27
834.676	-1.91
834.894	-2.56
835.113	-3.42
835.331	-5.02
835.55	-5.28
835.768	-4.05
835.986	-2.35
836.204	-5.33
836.423	-4.02
836.641	-4.99
836.859	-5.69
837.077	-2.89
837.296	-2.71
837.514	-3.23
837.732	-2.93
837.95	-4.52
838.168	-1.81
838.386	-1.13
838.604	0.46
838.822	-0.11
839.04	-1.78
839.258	-1.72
839.476	0.9
839.694	-0.38
839.912	-2.01
840.13	-1.67
840.348	1.15
840.566	-1.74
840.783	-0.21
841.001	-1.93
841.219	-0.08
841.437	1.52
841.655	1.96
841.872	1.64
842.09	2.15
842.308	3.92
842.525	3.94
842.743	4.34
842.961	3.68
843.178	0.28
843.396	4.38
843.613	5.26
843.831	4.65
844.048	3.34
844.266	3.44
844.483	2.96
844.701	2.28
844.918	2.22
845.136	1.86
845.353	1.26
845.57	2.04
845.788	5.97
846.005	3.47
846.222	1.5
846.439	3.25
846.657	3.43
846.874	2.89
847.091	-0.2
847.308	1.5
847.526	-0.31
847.743	-0.02
847.96	-2
848.177	-1.91
848.394	-2.56
848.611	-2.94
848.828	-3.63
849.045	-5.52
849.262	-4.9
849.479	-6.37
849.696	-6.95
849.913	-7.12
850.13	-11.73
850.347	-8.67
850.564	-8.07
850.78	-10.2
850.997	-11.82
851.214	-11.37
851.431	-9.32
851.647	-10.77
851.864	-10.81
852.081	-9.77
852.298	-13.32
852.514	-15.49
852.731	-14.16
852.948	-12.24
853.164	-11.76
853.381	-12.46
853.597	-12.93
853.814	-14.37
854.03	-17.51
854.247	-15.24
854.463	-16.83
854.68	-16.22
854.896	-15.64
855.113	-15.17
855.329	-14.22
855.545	-11.42
855.762	-12.09
855.978	-14.89
856.194	-15.92
856.411	-11.88
856.627	-9.05
856.843	-8.2
857.059	-8.15
857.275	-8.35
857.492	-5.53
857.708	-1.77
857.924	-1.67
858.14	0.65
858.356	-1.06
858.572	0.49
858.788	-0.87
859.004	2.93
859.22	0.92
859.436	2.07
859.652	0.72
859.868	-0.54
860.084	-0.63
860.3	-0.83
860.516	-1.07
860.731	-0.06
860.947	-3.23
861.163	-0.92
861.379	-0.84
861.595	-0.8
861.81	-0.18
862.026	-0.35
862.242	-2.38
862.457	-1.12
862.673	1.8
862.889	1.58
863.104	-0.56
863.32	-1.4
863.535	-0.71
863.751	-3.8
863.966	-1.98
864.182	-1.66
864.397	-3.02
864.613	-3.41
864.828	-5.16
865.044	-2.8
865.259	-2.3
865.474	-2.93
865.69	-2.25
865.905	0.39
866.12	-1.17
866.336	-0.74
866.551	-0.66
866.766	-0.51
866.981	-1.18
867.196	-0.27
867.412	1.73
867.627	3.95
867.842	2.63
868.057	2.18
868.272	2.46
868.487	0.94
868.702	-0.99
868.917	0.33
869.132	1.36
869.347	1.11
869.562	-0.2
869.777	-0.81
869.992	-1.8
870.207	-1.78
870.422	-2.21
870.636	-4.9
870.851	-6.65
871.066	-7.94
871.281	-8.23
871.495	-8.89
871.71	-6.13
871.925	-8.64
872.14	-9.04
872.354	-11.25
872.569	-12.82
872.783	-12.62
872.998	-13.95
873.213	-14.57
873.427	-11.73
873.642	-10.51
873.856	-10.11
874.071	-12.34
874.285	-14.25
874.5	-15.58
874.714	-16.58
874.928	-17.79
875.143	-17.73
875.357	-17.32
875.571	-18.86
875.786	-18.13
876	-15.5
876.214	-12.82
876.429	-13.92
876.643	-13.43
876.857	-12.92
877.071	-12.37
877.285	-12.22
877.499	-14.32
877.714	-12.32
877.928	-9.41
878.142	-11.13
878.356	-14.56
878.57	-12.36
878.784	-11.1
878.998	-11.42
879.212	-9
879.426	-8.84
879.639	-6.33
879.853	-6.91
880.067	-7.92
880.281	-8.63
880.495	-8
880.709	-5.18
880.922	-4.47
881.136	-1.64
881.35	0.8
881.564	2.65
881.777	1.36
881.991	3.19
882.205	5.9
882.418	4.6
882.632	1.35
882.845	-0.73
883.059	-0.19
883.273	-0.02
883.486	-1.31
883.7	0.98
883.913	0.07
884.126	2.43
884.34	-1.05
884.553	-4.52
884.767	-0.78
884.98	-0.11
885.193	-2.52
885.407	-3.36
885.62	-2.11
885.833	-3.27
886.046	-2.88
886.26	-6.04
886.473	-6.04
886.686	-6.66
886.899	-4.48
887.112	-4.62
887.326	-6.54
887.539	-6.77
887.752	-6.6
887.965	-8.71
888.178	-9.55
888.391	-8.91
888.604	-9.76
888.817	-11.59
889.03	-11.33
889.243	-12.07
889.455	-13.44
889.668	-12.76
889.881	-10.81
890.094	-10.85
890.307	-12.85
890.52	-11.86
890.732	-10.96
890.945	-9.82
891.158	-8.78
891.37	-11.66
891.583	-13.31
891.796	-11.56
892.008	-13.12
892.221	-13.66
892.434	-16.27
892.646	-17.66
892.859	-17.15
893.071	-15.42
893.284	-14.32
893.496	-16.65
893.709	-17.02
893.921	-15.98
894.133	-16.24
894.346	-18.29
894.558	-16.92
894.771	-17.22
894.983	-15.15
895.195	-13.94
895.407	-13.65
895.62	-15.87
895.832	-14.77
896.044	-11.89
896.256	-12.33
896.468	-13.49
896.681	-12.56
896.893	-12.26
897.105	-11.14
897.317	-11.94
897.529	-11.8
897.741	-11.17
897.953	-7.83
898.165	-8.29
898.377	-10.24
898.589	-8.5
898.801	-8.74
899.013	-6.46
899.224	-2.39
899.436	-0.37
899.648	-2.25
899.86	-3.63
900.072	-1.69
900.283	-0.84
900.495	0.26
900.707	1.24
900.919	0.43
901.13	0.43
901.342	-1.76
901.554	-2.18
901.765	-1.25
901.977	-2.88
902.188	-2.21
902.4	-2.71
902.611	-3.9
902.823	-4.01
903.034	-6.11
903.246	-7.16
903.457	-7.63
903.669	-9.49
903.88	-9.53
904.091	-8.38
904.303	-8.61
904.514	-10.7
904.725	-7.69
904.936	-5.3
905.148	-4.65
905.359	-3.64
905.57	-3.59
905.781	-7.21
905.992	-7.64
906.204	-5.99
906.415	-6.02
906.626	-6.99
906.837	-5.45
907.048	-6.92
907.259	-7.45
907.47	-8.5
907.681	-10.3
907.892	-6.91
908.103	-7.95
908.314	-10.52
908.525	-9.06
908.735	-8.58
908.946	-9.67
909.157	-10.81
909.368	-9.91
909.579	-8.97
909.789	-9.25
910	-10.53
910.211	-9.34
910.421	-9.32
910.632	-8.81
910.843	-11.21
911.053	-8.27
911.264	-7.18
911.475	-9.31
911.685	-9.58
911.896	-9.5
912.106	-8.97
912.317	-10.36
912.527	-8.9
912.737	-10.07
912.948	-9.27
913.158	-8.27
913.369	-11.75
913.579	-10.79
913.789	-10.72
914	-7.37
914.21	-7.02
914.42	-7
914.63	-7.33
914.841	-7.44
915.051	-7.79
915.261	-7.14
915.471	-4.75
915.681	-2.8
915.891	-3.22
916.101	-4.56
916.311	-5.51
916.521	-4.23
916.731	-3.04
916.941	-1.38
917.151	-1.83
917.361	1.59
917.571	-2.84
917.781	-3.56
917.991	-5.11
918.201	-4.65
918.411	-6.54
918.621	-8.05
918.83	-6.97
919.04	-9.48
919.25	-5.96
919.46	-5.29
919.669	-8.02
919.879	-7.42
920.089	-7.93
920.298	-8.87
920.508	-8.09
920.717	-7.19
920.927	-9.12
921.136	-7.96
921.346	-8.86
921.555	-10.54
921.765	-11.73
921.974	-13.73
922.184	-17.19
922.393	-16.2
922.603	-16.53
922.812	-14.22
923.021	-14.21
923.23	-16.8
923.44	-19.37
923.649	-19.92
923.858	-20.48
924.067	-19.45
924.277	-21.86
924.486	-19.46
924.695	-20.93
924.904	-19.5
925.113	-17.9
925.322	-15.79
925.531	-14.08
925.74	-17.33
925.949	-18.37
926.158	-16.64
926.367	-16.52
926.576	-15.68
926.785	-15.26
926.994	-18.21
927.203	-16.65
927.412	-15.95
927.621	-16.82
927.83	-13.38
928.038	-13.39
928.247	-13.8
928.456	-13.51
928.665	-12.15
928.873	-10.72
929.082	-8.33
929.291	-6.83
929.499	-5.1
929.708	-4.83
929.916	-3.76
930.125	-4.45
930.333	-5.44
930.542	-3.22
930.75	-0.82
930.959	0.29
931.167	1.19
931.376	0.67
931.584	1.19
931.793	1.83
932.001	-0.06
932.209	-1.15
932.418	-3.1
932.626	-3.74
932.834	-5.31
933.042	-8.6
933.251	-9.4
933.459	-7.29
933.667	-8.19
933.875	-8.33
934.083	-8.01
934.291	-8.38
934.499	-7.01
934.707	-5.83
934.915	-5.28
935.123	-3.24
935.331	-4.52
935.539	-6.73
935.747	-9.38
935.955	-10.89
936.163	-11.3
936.371	-10.33
936.579	-9.3
936.787	-8.96
936.995	-10.88
937.202	-12.6
937.41	-12.52
937.618	-14.49
937.826	-14.17
938.033	-18.82
938.241	-21.35
938.449	-19.13
938.656	-18.14
938.864	-17.47
939.071	-17.83
939.279	-14.99
939.486	-11.96
939.694	-11.67
939.901	-13.95
940.109	-15.01
940.316	-15.01
940.524	-15.93
940.731	-16.19
940.939	-15.83
941.146	-16.85
941.353	-16.99
941.561	-17.6
941.768	-18.93
941.975	-16.2
942.182	-15.5
942.39	-15.7
942.597	-12.51
942.804	-14.01
943.011	-14.24
943.218	-13.29
943.425	-12.4
943.632	-11.67
943.839	-13.23
944.046	-11.36
944.253	-11.73
944.46	-11.23
944.667	-7.88
944.874	-9.09
945.081	-7.37
945.288	-5.91
945.495	-3.81
945.702	-4.06
945.909	-6.65
946.115	-5.29
946.322	-5.18
946.529	-5.21
946.736	-5.44
946.942	-3.03
947.149	-4.42
947.356	-5
947.562	-5.83
947.769	-6.17
947.976	-7.21
948.182	-5.63
948.389	-7.55
948.595	-7.84
948.802	-6.85
949.008	-8.93
949.215	-8.32
949.421	-8.48
949.628	-10.65
949.834	-10.76
950.04	-12.37
950.247	-8.23
950.453	-8.39
950.659	-9.79
950.865	-7.1
951.072	-11.29
951.278	-9.59
951.484	-11.86
951.69	-14.29
951.896	-15.25
952.103	-16.1
952.309	-14.48
952.515	-15.21
952.721	-14.15
952.927	-12.36
953.133	-12.8
953.339	-13.95
953.545	-13.72
953.751	-12.87
953.957	-10.73
954.163	-11.68
954.369	-10.74
954.574	-13.04
954.78	-11.44
954.986	-10.72
955.192	-10.37
955.398	-11.44
955.603	-13
955.809	-12.63
956.015	-11.56
956.22	-10.99
956.426	-9.62
956.632	-13.43
956.837	-13.89
957.043	-11.92
957.248	-10.46
957.454	-9.43
957.66	-10.97
957.865	-10.55
958.07	-9.17
958.276	-11.12
958.481	-12.11
958.687	-12.88
958.892	-12.11
959.097	-11.68
959.303	-12.7
959.508	-13.54
959.713	-14.13
959.919	-14.17
960.124	-15.11
960.329	-15.46
960.534	-14.12
960.739	-12.83
960.945	-10.89
961.15	-11.97
961.355	-13.81
961.56	-15.95
961.765	-16.5
961.97	-14.83
962.175	-12.48
962.38	-15.1
962.585	-14.93
962.79	-16.45
962.995	-17.64
963.2	-18.99
963.404	-18.83
963.609	-22.5
963.814	-23.16
964.019	-25.17
964.224	-26.78
964.428	-25.44
964.633	-23.58
964.838	-22
965.042	-21.67
965.247	-23.5
965.452	-23.99
965.656	-23.02
965.861	-22.42
966.066	-22.9
966.27	-21.15
966.475	-17.91
966.679	-20.05
966.884	-18.95
967.088	-21.81
967.292	-22.47
967.497	-21.39
967.701	-20.57
967.906	-19.62
968.11	-16.28
968.314	-14.94
968.518	-17.02
968.723	-14.9
968.927	-13.68
969.131	-12.15
969.335	-8.33
969.539	-6.97
969.744	-6.51
969.948	-3.97
970.152	-2.62
970.356	-0.99
970.56	-1.01
970.764	-1.85
970.968	-0.34
971.172	-0.75
971.376	-0.92
971.58	0.89
971.784	2.8
971.988	1.17
972.192	3.84
972.395	3.41
972.599	1.15
972.803	-0.7
973.007	0.68
973.21	1.08
973.414	1.03
973.618	0.37
973.822	-0.53
974.025	-0.61
974.229	-0.46
974.432	-4.4
974.636	-6.82
974.84	-5.51
975.043	-4.16
975.247	-6.73
975.45	-7.23
975.654	-6.78
975.857	-5.91
976.06	-6.59
976.264	-7.95
976.467	-7.83
976.671	-8.78
976.874	-7.02
977.077	-8.49
977.28	-8.6
977.484	-9.93
977.687	-9.56
977.89	-9.48
978.093	-11.19
978.297	-9.81
978.5	-11.83
978.703	-12.67
978.906	-11.48
979.109	-11.22
979.312	-9.94
979.515	-11.7
979.718	-12.09
979.921	-11.3
980.124	-12.59
980.327	-13.74
980.53	-14.54
980.733	-11.79
980.936	-8.5
981.138	-10.5
981.341	-10.71
981.544	-9.91
981.747	-10.91
981.949	-13.57
982.152	-12.54
982.355	-13.54
982.558	-10.81
982.76	-13
982.963	-11.96
983.165	-12.19
983.368	-10.73
983.571	-11.37
983.773	-9.59
983.976	-10.11
984.178	-9.16
984.381	-9.15
984.583	-11.29
984.785	-10.42
984.988	-7.95
985.19	-6.72
985.392	-7.74
985.595	-10.2
985.797	-10.13
985.999	-7.38
986.202	-6.67
986.404	-7.6
986.606	-4.68
986.808	-5.57
987.01	-5.01
987.212	-7.52
987.415	-8.63
987.617	-8.95
987.819	-9.29
988.021	-7.7
988.223	-8.58
988.425	-9.21
988.627	-9.34
988.829	-13.8
989.031	-10.98
989.232	-13.75
989.434	-12.18
989.636	-12.54
989.838	-12.65
990.04	-10.81
990.242	-10.87
990.443	-12.8
990.645	-10.89
990.847	-8.18
991.048	-8.41
991.25	-8.6
991.452	-9.82
991.653	-10.93
991.855	-10.37
992.057	-11.46
992.258	-10.42
992.46	-10.69
992.661	-9.87
992.863	-11.04
993.064	-9.25
993.265	-10.86
993.467	-11.76
993.668	-8.52
993.87	-7.96
994.071	-8.79
994.272	-9.24
994.473	-7.89
994.675	-8.63
994.876	-7.02
995.077	-5.63
995.278	-5.57
995.48	-3.81
995.681	-4.57
995.882	-2.85
996.083	-3.72
996.284	-6.63
996.485	-6.31
996.686	-7.85
996.887	-9.01
997.088	-12.86
997.289	-14.89
997.49	-15.59
997.691	-15.97
997.892	-16.03
998.092	-12.31
998.293	-11.46
998.494	-13.42
998.695	-12.88
998.896	-11.07
999.096	-11.8
999.297	-11.66
999.498	-12.14
999.698	-14.26
999.899	-17.36
1000.1	-19.88
1000.3	-19.46
1000.501	-19.9
1000.701	-20.06
1000.902	-20.12
1001.102	-20.81
1001.303	-20.93
1001.503	-23.33
1001.704	-22.55
1001.904	-24.96
1002.105	-25.36
1002.305	-25.43
1002.505	-27.09
1002.706	-28.46
1002.906	-27.56
1003.106	-27.67
1003.306	-26.12
1003.507	-25.18
1003.707	-26.23
1003.907	-24.63
1004.107	-22.39
1004.307	-24.42
1004.507	-22.43
1004.707	-22.33
1004.907	-24.15
1005.107	-23.93
1005.308	-23.73
1005.507	-25.61
1005.707	-23.35
1005.907	-22.35
1006.107	-20.43
1006.307	-17.77
1006.507	-18.68
1006.707	-18.85
1006.907	-17.33
1007.106	-17.95
1007.306	-17.77
1007.506	-16.36
1007.706	-16.15
1007.905	-17.86
1008.105	-16.27
1008.305	-17.54
1008.504	-16.36
1008.704	-11.1
1008.903	-10.01
1009.103	-8.71
1009.303	-11.34
1009.502	-10.1
1009.702	-10.12
1009.901	-7.35
1010.1	-9.43
1010.3	-9.85
1010.499	-12.07
1010.699	-13.62
1010.898	-14.37
1011.097	-13.15
1011.296	-12.94
1011.496	-12.54
1011.695	-12.46
1011.894	-14.04
1012.093	-9.98
1012.293	-10.08
1012.492	-11.39
1012.691	-10.47
1012.89	-9.07
1013.089	-12.4
1013.288	-10.44
1013.487	-9.96
1013.686	-9.85
1013.885	-10.35
1014.084	-10.11
1014.283	-10.99
1014.482	-10.86
1014.681	-10.82
1014.88	-14.23
1015.078	-12.25
1015.277	-13.39
1015.476	-13.02
1015.675	-13.99
1015.873	-12.83
1016.072	-15.16
1016.271	-12.74
1016.47	-14.98
1016.668	-12.4
1016.867	-14.33
1017.065	-14.76
1017.264	-16.04
1017.463	-16.24
1017.661	-15.99
1017.86	-15.56
1018.058	-14.07
1018.256	-17.36
1018.455	-17.53
1018.653	-16.99
1018.852	-16.22
1019.05	-18.12
1019.248	-18.83
1019.447	-19.91
1019.645	-21.54
1019.843	-22.67
1020.041	-20.12
1020.24	-19.92
1020.438	-15.56
1020.636	-16.2
1020.834	-18.27
1021.032	-17.84
1021.23	-19.89
1021.428	-17.44
1021.626	-14.04
1021.824	-13.62
1022.022	-13.94
1022.22	-13.2
1022.418	-12.61
1022.616	-13.48
1022.814	-14.2
1023.012	-13.27
1023.21	-11.76
1023.408	-12.07
1023.606	-12.94
1023.803	-9.81
1024.001	-9.49
1024.199	-12.22
1024.397	-11.27
1024.594	-10.93
1024.792	-11.93
1024.99	-12.24
1025.187	-12.02
1025.385	-7.74
1025.582	-7.77
1025.78	-6.97
1025.977	-5.12
1026.175	-7.27
1026.372	-5.39
1026.57	-9.53
1026.767	-7.71
1026.965	-6.14
1027.162	-5.1
1027.359	-5.05
1027.557	-4.99
1027.754	-7.9
1027.951	-8.48
1028.148	-7.83
1028.346	-7.88
1028.543	-9.1
1028.74	-8.19
1028.937	-9.86
1029.134	-10.16
1029.331	-11.62
1029.528	-11.17
1029.725	-12.35
1029.923	-15.93
1030.12	-12.19
1030.317	-11.79
1030.513	-9.01
1030.71	-8.71
1030.907	-6.16
1031.104	-6.33
1031.301	-7.79
1031.498	-8.31
1031.695	-9.12
1031.892	-8.33
1032.088	-9.62
1032.285	-9.41
1032.482	-11.83
1032.678	-13.34
1032.875	-14.5
1033.072	-15.4
1033.268	-15.95
1033.465	-16.18
1033.662	-19.77
1033.858	-18.88
1034.055	-19.65
1034.251	-18.17
1034.448	-18.93
1034.644	-19.29
1034.84	-16.63
1035.037	-14.78
1035.233	-14.95
1035.43	-12.58
1035.626	-12.4
1035.822	-11.48
1036.019	-12.41
1036.215	-16.68
1036.411	-16.55
1036.607	-20.49
1036.803	-21.72
1037	-22.61
1037.196	-24.67
1037.392	-24.34
1037.588	-27.58
1037.784	-25.17
1037.98	-26.83
1038.176	-27.69
1038.372	-28.17
1038.568	-25.69
1038.764	-22.98
1038.96	-21.82
1039.156	-22.82
1039.352	-22.95
1039.547	-20.79
1039.743	-19.31
1039.939	-18.14
1040.135	-18.1
1040.331	-19.62
1040.526	-17.92
1040.722	-19.97
1040.918	-21.41
1041.113	-24.75
1041.309	-25.35
1041.505	-28.16
1041.7	-27.68
1041.896	-27.87
1042.091	-27.34
1042.287	-26.81
1042.482	-26.34
1042.678	-25.44
1042.873	-25.76
1043.069	-27.18
1043.264	-25.51
1043.459	-24.24
1043.655	-21.91
1043.85	-24.53
1044.045	-23.18
1044.24	-22.36
1044.436	-20.66
1044.631	-22.7
1044.826	-24.22
1045.021	-26.7
1045.216	-25.51
