Data from FLMT021711__3__17-05-34-700.txt Node

Date: Tue Nov 05 17:05:34 CET 2024
User: Etudiants TP
Spectrometer: FLMT02171
Trigger mode: 0
Integration Time (sec): 1.000000E-1
Scans to average: 5
Electric dark correction enabled: true
Nonlinearity correction enabled: false
Boxcar width: 15
XAxis mode: Wavelengths
Number of Pixels in Spectrum: 3648
>>>>>Begin Spectral Data<<<<<
194.658	-55.51
194.923	-52.91
195.188	-46.95
195.453	-45.52
195.717	-41.54
195.982	-40.63
196.247	-39.73
196.512	-43.02
196.777	-41.99
197.042	-39.68
197.307	-39.65
197.572	-36.61
197.837	-35.23
198.101	-32.26
198.366	-29.53
198.631	-27.65
198.896	-21.72
199.161	-14.93
199.425	-8.32
199.69	1.59
199.955	-0.12
200.22	-2.48
200.484	-2.99
200.749	-4.98
201.014	-3.58
201.278	-3.65
201.543	-1.95
201.807	-2.44
202.072	-1.26
202.337	-0.96
202.601	0.43
202.866	-1.85
203.13	-1.29
203.395	-2.24
203.659	-2.31
203.924	-4.36
204.189	-3.49
204.453	-2.94
204.717	-0.31
204.982	0.62
205.246	1.74
205.511	3.25
205.775	2.99
206.04	7.87
206.304	7.27
206.568	9.14
206.833	9.74
207.097	10.33
207.361	10.92
207.626	14.35
207.89	13.42
208.154	15.15
208.419	17.12
208.683	16.87
208.947	19.26
209.211	18.1
209.476	17.29
209.74	16.96
210.004	16.52
210.268	16.46
210.532	17.21
210.796	16.91
211.061	19.1
211.325	20.66
211.589	18.46
211.853	18.53
212.117	20.01
212.381	19.6
212.645	20.53
212.909	21.46
213.173	19.57
213.437	18.68
213.701	18.72
213.965	19.93
214.229	14.42
214.493	14.96
214.757	13.13
215.021	10.97
215.285	14.71
215.549	16.32
215.813	13.67
216.077	12.73
216.34	14.39
216.604	13.12
216.868	15.04
217.132	16.64
217.396	16.14
217.659	16.5
217.923	12.64
218.187	14.69
218.451	14.71
218.714	13.59
218.978	13.99
219.242	15.14
219.505	15.02
219.769	16.04
220.033	16.14
220.296	17.15
220.56	17.97
220.824	15.66
221.087	15.61
221.351	15.47
221.614	15.46
221.878	17.63
222.142	16.32
222.405	15.55
222.669	16.65
222.932	12.29
223.196	12.81
223.459	8.38
223.722	10.07
223.986	9.2
224.249	8.75
224.513	8.68
224.776	8.3
225.04	7.46
225.303	6.74
225.566	6.93
225.83	7.89
226.093	10.76
226.356	7.22
226.62	5.79
226.883	7.89
227.146	7.27
227.409	6.62
227.673	4.24
227.936	4.17
228.199	3.8
228.462	1.41
228.725	0.58
228.989	1.22
229.252	2.29
229.515	6.9
229.778	6.16
230.041	4.49
230.304	1.88
230.567	3.52
230.83	1.58
231.093	5.02
231.356	4.06
231.619	10.52
231.882	8.46
232.145	10
232.408	9.63
232.671	8.73
232.934	9
233.197	8.34
233.46	6.61
233.723	8
233.986	7.01
234.249	5.97
234.512	9.15
234.775	12.21
235.037	12.01
235.3	13.05
235.563	12.36
235.826	13.89
236.089	15.73
236.351	15.57
236.614	18.67
236.877	19.56
237.14	21.52
237.402	20.83
237.665	15.36
237.928	14.31
238.19	12.21
238.453	15.38
238.716	15.36
238.978	15.56
239.241	14.74
239.503	16.53
239.766	11.99
240.029	11.32
240.291	14.15
240.554	14.5
240.816	14.43
241.079	14.28
241.341	14.4
241.604	12.71
241.866	9.26
242.129	10.56
242.391	11.95
242.653	10.67
242.916	10.2
243.178	9.08
243.441	9.69
243.703	9.41
243.965	6.26
244.228	7.23
244.49	7.74
244.752	8.09
245.015	8.45
245.277	9.68
245.539	8.14
245.801	10.49
246.064	10.78
246.326	11.04
246.588	9.49
246.85	10.9
247.112	11.88
247.374	13
247.637	14.68
247.899	15.05
248.161	14.08
248.423	10.03
248.685	10.58
248.947	10.49
249.209	10.23
249.471	10.54
249.733	12.41
249.995	12.02
250.257	10.93
250.519	9.63
250.781	11.57
251.043	9.12
251.305	11.13
251.567	12.99
251.829	12.88
252.091	13.82
252.353	9.74
252.615	9.4
252.876	5.71
253.138	3.65
253.4	0.74
253.662	2.8
253.924	5.05
254.185	6.86
254.447	6.95
254.709	7.97
254.971	8.55
255.232	8.71
255.494	8.83
255.756	7.87
256.017	7.34
256.279	8.08
256.541	6.76
256.802	6.01
257.064	6.08
257.326	6.08
257.587	6.58
257.849	7.51
258.11	9.86
258.372	11.49
258.633	12.65
258.895	11.87
259.156	11.25
259.418	9.78
259.679	5.02
259.941	3.42
260.202	5.64
260.464	8.28
260.725	7.95
260.987	8.56
261.248	8.55
261.509	8.18
261.771	6.09
262.032	5.49
262.293	4.36
262.555	4.28
262.816	2.36
263.077	1.22
263.338	-0.23
263.6	-0.98
263.861	-3.76
264.122	-5.19
264.383	-3.14
264.645	-1.21
264.906	-2.48
265.167	-2.27
265.428	-2.7
265.689	-1.91
265.95	-3.97
266.211	-2.63
266.473	-3.33
266.734	-7.02
266.995	-9.31
267.256	-8.62
267.517	-6.98
267.778	-3.11
268.039	-0.98
268.3	-1.3
268.561	-3.5
268.822	-0.07
269.083	-1.65
269.344	-2.67
269.604	-2.81
269.865	-1.32
270.126	-2.98
270.387	-1.41
270.648	-0.95
270.909	-0.99
271.17	-3.27
271.43	-6.11
271.691	-7.75
271.952	-7.43
272.213	-5.21
272.473	-6.86
272.734	-5.71
272.995	-3.96
273.256	-2.59
273.516	-1
273.777	-2.91
274.038	-1.02
274.298	-3.55
274.559	-4.49
274.82	0.84
275.08	2.62
275.341	4.13
275.601	3.15
275.862	0.42
276.122	-0.03
276.383	-0.49
276.643	-0.48
276.904	-2.31
277.164	2.12
277.425	3.29
277.685	8.14
277.946	9.35
278.206	9.75
278.467	10.49
278.727	11.16
278.987	10.43
279.248	11.29
279.508	13.82
279.768	15.63
280.029	17.66
280.289	15.05
280.549	12.18
280.81	11.77
281.07	11.81
281.33	12.44
281.59	11.62
281.851	13.96
282.111	12.53
282.371	12.8
282.631	14.34
282.891	13.31
283.151	12.9
283.412	11.76
283.672	11.61
283.932	13.17
284.192	13.64
284.452	13.19
284.712	11.26
284.972	9.95
285.232	6.39
285.492	8.23
285.752	4.98
286.012	9.87
286.272	11.84
286.532	9.23
286.792	9.03
287.052	10.84
287.312	10.23
287.571	9.04
287.831	8.82
288.091	6.78
288.351	8.09
288.611	13.7
288.871	13.76
289.13	13.41
289.39	10.31
289.65	11.1
289.91	8.91
290.17	12.09
290.429	13.49
290.689	11.42
290.949	8.08
291.208	8.84
291.468	11
291.728	12.19
291.987	13.47
292.247	12.38
292.506	13.55
292.766	17.06
293.026	16.27
293.285	17.63
293.545	19.8
293.804	19.35
294.064	15.43
294.323	12.09
294.583	12.61
294.842	13.37
295.102	13.97
295.361	15.1
295.621	15.45
295.88	15.44
296.139	13.97
296.399	14.43
296.658	9.57
296.917	9.98
297.177	7.06
297.436	8.31
297.695	7.47
297.955	9.29
298.214	6.87
298.473	7.81
298.732	9.97
298.992	12.97
299.251	11.88
299.51	9.68
299.769	9.4
300.028	8.25
300.287	8.32
300.547	8.82
300.806	7.91
301.065	10.74
301.324	12.24
301.583	7.91
301.842	5.47
302.101	3.32
302.36	3.92
302.619	4.47
302.878	4.53
303.137	3.56
303.396	4.93
303.655	6.36
303.914	5.23
304.173	7.3
304.432	6.1
304.691	9.21
304.95	6.87
305.208	11.01
305.467	11.72
305.726	10.78
305.985	10.99
306.244	13.85
306.503	13.28
306.761	12.17
307.02	9.18
307.279	9.77
307.537	9.23
307.796	6.49
308.055	4.69
308.314	6.69
308.572	4.21
308.831	4.36
309.09	6.1
309.348	6.17
309.607	6.58
309.865	10.04
310.124	10.14
310.382	11.83
310.641	12.17
310.9	11.76
311.158	13.56
311.417	12.18
311.675	12.94
311.933	12.9
312.192	14.17
312.45	14.2
312.709	13.38
312.967	12.94
313.226	13.1
313.484	11.96
313.742	11.5
314.001	9.9
314.259	7.88
314.517	9.37
314.776	10.61
315.034	14.46
315.292	12.21
315.55	11.65
315.809	11.79
316.067	12.19
316.325	9.93
316.583	10.64
316.841	9.31
317.1	6.63
317.358	3
317.616	2.03
317.874	0.6
318.132	1.01
318.39	0.29
318.648	0.23
318.906	0.02
319.164	-1.53
319.422	-2.21
319.68	-4.42
319.938	-3.86
320.196	-4.69
320.454	-3.45
320.712	-3.11
320.97	-2.71
321.228	-5.28
321.486	-3.97
321.744	-2.31
322.002	-0.12
322.26	-1.45
322.517	-3.03
322.775	-4.11
323.033	-6.51
323.291	-3.55
323.549	-2.01
323.806	-0.41
324.064	-0.01
324.322	0.77
324.58	0.51
324.837	2.77
325.095	0.4
325.353	3.09
325.61	6.17
325.868	5.5
326.126	6.78
326.383	6.18
326.641	5.03
326.898	6.08
327.156	5.54
327.413	6.36
327.671	8.14
327.928	9.97
328.186	10.01
328.443	9.37
328.701	11.57
328.958	12.12
329.216	13.37
329.473	12.72
329.731	12.52
329.988	11.83
330.245	14.75
330.503	16.61
330.76	16.03
331.017	17.82
331.275	14.8
331.532	14.58
331.789	13.28
332.047	13.51
332.304	12.1
332.561	12.03
332.818	10.78
333.076	12.94
333.333	13.96
333.59	12.64
333.847	15.11
334.104	14.46
334.361	13.33
334.618	12
334.876	10.28
335.133	10.9
335.39	8.99
335.647	9.7
335.904	6.27
336.161	4.59
336.418	4.82
336.675	0.67
336.932	1.71
337.189	-0.8
337.446	-0.75
337.703	-1.95
337.96	-5.18
338.216	-6.14
338.473	-9.19
338.73	-9.26
338.987	-9.65
339.244	-5.02
339.501	-7.34
339.757	-7.49
340.014	-7.67
340.271	-7.87
340.528	-6.23
340.785	-2.3
341.041	-2.02
341.298	-3.89
341.555	-4.25
341.811	-5.68
342.068	-8.48
342.325	-7.89
342.581	-4.44
342.838	-3.39
343.094	-3.81
343.351	-2.13
343.608	-6.08
343.864	-3.31
344.121	-1.66
344.377	-1.76
344.634	-1.12
344.89	-2.05
345.147	-1.91
345.403	-2.78
345.66	-2.09
345.916	0.14
346.172	-0.58
346.429	-1.21
346.685	-2.62
346.942	-3.46
347.198	-7.75
347.454	-6.2
347.711	-5.48
347.967	-6.57
348.223	-4.36
348.48	-6.64
348.736	-4.36
348.992	-4.35
349.248	-2.81
349.504	-2.16
349.761	-2.41
350.017	-1.16
350.273	-1.3
350.529	-3.53
350.785	-4.82
351.041	-6.04
351.297	-5.2
351.554	-5.49
351.81	-6.82
352.066	-8.56
352.322	-8.83
352.578	-8.63
352.834	-9.33
353.09	-7.75
353.346	-7.46
353.602	-9.1
353.858	-9.65
354.114	-11.73
354.369	-9.39
354.625	-6.49
354.881	-7.16
355.137	-4.54
355.393	-3.38
355.649	-2.9
355.905	-3.13
356.16	-3.73
356.416	-1.69
356.672	-6.72
356.928	-7.18
357.183	-7.81
357.439	-9.02
357.695	-10.86
357.951	-7.37
358.206	-8.33
358.462	-8.42
358.718	-9.99
358.973	-8.21
359.229	-7.77
359.484	-5.73
359.74	-4.82
359.996	-4.02
360.251	-0.7
360.507	-1.21
360.762	-0.93
361.018	0.62
361.273	-2.43
361.529	-1.6
361.784	-2.67
362.04	-0.83
362.295	-2.24
362.55	-3.53
362.806	-1.6
363.061	-2.09
363.316	-2.85
363.572	-2.12
363.827	-0.09
364.082	-1.96
364.338	-1.81
364.593	-2.17
364.848	-1.23
365.104	-1.79
365.359	0.76
365.614	2.7
365.869	-0.11
366.124	1.27
366.38	1.45
366.635	4.68
366.89	5.2
367.145	4.28
367.4	6.22
367.655	7.18
367.91	7.69
368.165	5.4
368.42	3.57
368.675	5.25
368.93	5.4
369.185	4.84
369.44	4.71
369.695	6.99
369.95	7.03
370.205	6.22
370.46	6.57
370.715	5.82
370.97	7.61
371.225	7.88
371.48	8.74
371.734	8.47
371.989	8.75
372.244	8.35
372.499	9.53
372.754	8.39
373.008	6.76
373.263	3.53
373.518	5.64
373.773	4.79
374.027	4.33
374.282	5.35
374.537	4.32
374.791	6.08
375.046	4.99
375.301	3.32
375.555	1.74
375.81	2.18
376.064	2.86
376.319	6.02
376.573	4.49
376.828	2.01
377.082	6.6
377.337	5.65
377.591	3.56
377.846	3.48
378.1	5.94
378.355	4.59
378.609	3.56
378.863	-0.39
379.118	0.28
379.372	-1.39
379.627	-3.58
379.881	-4.96
380.135	-4.92
380.389	-6.26
380.644	-5.45
380.898	-4.58
381.152	-3.27
381.407	-4.27
381.661	-2.73
381.915	-2.82
382.169	-1.07
382.423	-1.13
382.677	-4.95
382.932	-3.98
383.186	-2.51
383.44	-2.41
383.694	-1.14
383.948	-3.73
384.202	-4.88
384.456	-4.15
384.71	-3.84
384.964	-5.72
385.218	-3.94
385.472	-4.75
385.726	-5.14
385.98	-5.36
386.234	-5.13
386.488	-7.34
386.742	-5.49
386.996	-6.39
387.249	-6.26
387.503	-3.19
387.757	-0.76
388.011	-1.09
388.265	-0.57
388.518	-0.88
388.772	-0.75
389.026	0.75
389.28	-1.81
389.533	-2.84
389.787	0.8
390.041	-1.66
390.295	-1.7
390.548	-1.64
390.802	1.01
391.055	0.36
391.309	0.43
391.563	-0.31
391.816	0.47
392.07	-0.32
392.323	0.24
392.577	2.22
392.83	2.4
393.084	7.21
393.337	12.18
393.591	12.97
393.844	13.45
394.098	16.58
394.351	21.24
394.604	22.02
394.858	23.14
395.111	24.48
395.364	21.65
395.618	22.77
395.871	21.2
396.124	20.28
396.378	20.2
396.631	20.88
396.884	17.84
397.137	18.79
397.391	19.79
397.644	16.64
397.897	17.04
398.15	17.27
398.403	20.71
398.657	18.89
398.91	17.37
399.163	17.58
399.416	16.7
399.669	15.82
399.922	14.65
400.175	13.5
400.428	11.85
400.681	13.05
400.934	8.78
401.187	7.11
401.44	6.53
401.693	4.78
401.946	3.13
402.199	-1.77
402.452	-1.93
402.704	-4.72
402.957	-6.09
403.21	-3.74
403.463	-5.28
403.716	-3.39
403.969	-1.41
404.221	-1.19
404.474	0.19
404.727	3.04
404.98	5.53
405.232	5.03
405.485	5.96
405.738	6.68
405.99	6.95
406.243	7.13
406.496	8.56
406.748	9.08
407.001	8.52
407.253	9.23
407.506	9.63
407.759	11.26
408.011	10.53
408.264	11.47
408.516	12.48
408.769	11.65
409.021	11.91
409.274	12.7
409.526	15.25
409.778	14.96
410.031	17.82
410.283	17.84
410.536	22.71
410.788	21.47
411.04	20.13
411.293	22.67
411.545	22.15
411.797	20.86
412.049	20.38
412.302	21.74
412.554	22.81
412.806	20.48
413.058	19.37
413.311	20.52
413.563	19.42
413.815	19.54
414.067	16.76
414.319	16.37
414.571	17.27
414.823	16.86
415.075	16.31
415.328	18.01
415.58	20.62
415.832	21.73
416.084	22.45
416.336	20.07
416.588	24.08
416.84	22.51
417.091	25.47
417.343	22.78
417.595	23.66
417.847	25.29
418.099	26.21
418.351	24.51
418.603	28.09
418.855	30.51
419.106	29.7
419.358	30.69
419.61	31.27
419.862	31.15
420.114	29.22
420.365	29.97
420.617	31.46
420.869	30.58
421.12	29.64
421.372	31.12
421.624	32.11
421.875	33.29
422.127	30.5
422.379	31.03
422.63	33.66
422.882	33.36
423.133	33.17
423.385	34.64
423.636	35.69
423.888	37.75
424.139	40.06
424.391	37.42
424.642	37.27
424.894	35.86
425.145	36.48
425.396	34.75
425.648	37.04
425.899	35.87
426.151	36.82
426.402	35.09
426.653	34.83
426.905	34.73
427.156	33.3
427.407	33.25
427.658	35.06
427.91	34.3
428.161	33.56
428.412	35.51
428.663	38.22
428.914	39.71
429.166	40.75
429.417	42.89
429.668	43.38
429.919	43.79
430.17	43.1
430.421	43.16
430.672	47.43
430.923	48.97
431.174	48.06
431.425	49.1
431.676	49.88
431.927	49.19
432.178	52.27
432.429	54.38
432.68	54.62
432.931	58.76
433.182	64
433.433	62.36
433.683	66.14
433.934	67.77
434.185	69.18
434.436	69.45
434.687	73.53
434.937	77.97
435.188	79.86
435.439	81.11
435.69	84.73
435.94	86.75
436.191	87.91
436.442	89.32
436.692	91.42
436.943	91.85
437.194	91.05
437.444	94.67
437.695	100.44
437.945	103.38
438.196	104.97
438.447	106.24
438.697	108.27
438.948	109.99
439.198	110.44
439.449	107.26
439.699	109.8
439.949	111.68
440.2	113.6
440.45	118.31
440.701	119.47
440.951	121.31
441.201	125.75
441.452	127.7
441.702	130.66
441.952	134.05
442.203	138.56
442.453	138.18
442.703	140.66
442.953	143.4
443.204	147.57
443.454	148.32
443.704	150.04
443.954	151.65
444.204	155.95
444.455	159.12
444.705	163.71
444.955	167.21
445.205	168.97
445.455	169.09
445.705	173.69
445.955	176.79
446.205	179.16
446.455	182.8
446.705	186.27
446.955	190.79
447.205	198.3
447.455	204.09
447.705	204.74
447.955	207.48
448.205	210.32
448.454	212.73
448.704	215.92
448.954	218.49
449.204	220.75
449.454	223.06
449.704	225.92
449.953	227.25
450.203	232.05
450.453	232.81
450.703	237.38
450.952	239.08
451.202	243.11
451.452	245.03
451.701	249.59
451.951	253.88
452.201	254.75
452.45	256.26
452.7	259.75
452.949	262
453.199	262.68
453.448	264.81
453.698	267.17
453.947	267.62
454.197	267.74
454.446	267.37
454.696	270.28
454.945	268.79
455.195	266.55
455.444	266.73
455.693	270.17
455.943	266.32
456.192	265.94
456.442	264.69
456.691	262.44
456.94	260.68
457.189	257.84
457.439	257.44
457.688	258.58
457.937	256.49
458.186	254.6
458.436	251.27
458.685	248.94
458.934	245.12
459.183	243.38
459.432	242.49
459.681	239.15
459.93	236.85
460.179	234.39
460.429	230.27
460.678	229.8
460.927	230.24
461.176	226.8
461.425	222.8
461.674	221.82
461.923	219.11
462.172	216.22
462.42	210.99
462.669	211.26
462.918	208.45
463.167	206.49
463.416	200.07
463.665	200.7
463.914	198.7
464.162	194.66
464.411	193.33
464.66	192.81
464.909	190.26
465.158	187.65
465.406	183.75
465.655	182.38
465.904	183.13
466.152	183.32
466.401	181.22
466.65	180.51
466.898	177.23
467.147	172.42
467.395	169.8
467.644	169.34
467.893	166.19
468.141	164.01
468.39	159.24
468.638	156.13
468.887	153.13
469.135	152.73
469.384	149.97
469.632	148.62
469.88	146.96
470.129	148.1
470.377	142.91
470.626	143.98
470.874	144.42
471.122	144.66
471.371	140.81
471.619	139.48
471.867	140.39
472.115	138.06
472.364	135.61
472.612	136.84
472.86	133.58
473.108	133.46
473.356	132.45
473.605	130.52
473.853	126.31
474.101	125.53
474.349	123.94
474.597	125.56
474.845	122.29
475.093	120.59
475.341	116.94
475.589	116.97
475.837	117.54
476.085	117
476.333	113.74
476.581	113.19
476.829	111.35
477.077	113.58
477.325	111.97
477.573	113.44
477.821	110.04
478.069	111.37
478.317	111.1
478.564	111.96
478.812	108.95
479.06	107.92
479.308	105.28
479.555	105.44
479.803	104.19
480.051	104.7
480.299	102.71
480.546	102.93
480.794	99.51
481.042	99.06
481.289	98.09
481.537	99.59
481.784	98.29
482.032	101.28
482.28	100.11
482.527	101.64
482.775	102.3
483.022	104.48
483.27	105.93
483.517	107.36
483.765	108.06
484.012	109.38
484.259	108.91
484.507	110
484.754	109.58
485.002	111.26
485.249	110.69
485.496	113.07
485.744	112.44
485.991	111.59
486.238	109.47
486.486	113.77
486.733	114.59
486.98	118.69
487.227	116.89
487.474	119.41
487.722	120.99
487.969	120.76
488.216	121.15
488.463	122.28
488.71	121.29
488.957	121.18
489.204	121.03
489.451	122.29
489.699	121.36
489.946	120.08
490.193	119.13
490.44	118.84
490.687	119.91
490.934	118.12
491.18	116.28
491.427	118.01
491.674	122.12
491.921	122.78
492.168	122.34
492.415	120.68
492.662	121.83
492.909	123.61
493.155	123.51
493.402	122.96
493.649	122.01
493.896	123.18
494.142	121.14
494.389	122.88
494.636	121.85
494.883	121.67
495.129	121.4
495.376	121.74
495.623	124.15
495.869	127.95
496.116	129.6
496.362	131.38
496.609	133.86
496.855	138.19
497.102	138.64
497.348	138.78
497.595	141.56
497.841	146.07
498.088	146.88
498.334	146.48
498.581	146.51
498.827	147.1
499.074	148.32
499.32	148.86
499.566	152.36
499.813	153.31
500.059	153.64
500.305	154.29
500.552	153.56
500.798	154.3
501.044	158.88
501.29	159.08
501.537	158.18
501.783	161.37
502.029	164.95
502.275	163.47
502.521	162.92
502.767	163.33
503.013	165.75
503.26	164.06
503.506	161.18
503.752	163.32
503.998	163.84
504.244	165.18
504.49	163.88
504.736	167
504.982	167.84
505.228	169.74
505.474	170.76
505.72	171.9
505.966	172.38
506.211	175.89
506.457	176.36
506.703	174.6
506.949	173.25
507.195	171.56
507.441	170.5
507.686	172.65
507.932	172.93
508.178	174.99
508.424	173.16
508.669	172.59
508.915	173.74
509.161	177.28
509.406	177.29
509.652	175.55
509.898	178.96
510.143	181.07
510.389	180.63
510.634	178.04
510.88	181.45
511.125	183.32
511.371	185.2
511.616	185.92
511.862	184.87
512.107	182.88
512.353	183.41
512.598	183.67
512.844	181.84
513.089	180.2
513.335	180.31
513.58	179.38
513.825	180.27
514.071	179.15
514.316	179.74
514.561	180.86
514.806	181.83
515.052	183.83
515.297	182.71
515.542	184.08
515.787	185.45
516.033	187.07
516.278	186.45
516.523	185.55
516.768	183.16
517.013	181.13
517.258	182.41
517.503	181.65
517.748	183.06
517.993	184.46
518.238	184.98
518.483	183.35
518.728	183.91
518.973	181.87
519.218	181.41
519.463	181.78
519.708	182.43
519.953	180.38
520.198	180.4
520.443	182.53
520.688	184.63
520.933	184.63
521.177	186.01
521.422	183.48
521.667	187.47
521.912	187.53
522.157	186.67
522.401	187.69
522.646	187.01
522.891	188.11
523.135	188.71
523.38	188.82
523.625	188.14
523.869	190.55
524.114	192.15
524.358	193.05
524.603	194.03
524.848	192.09
525.092	191.92
525.337	193.12
525.581	194.13
525.826	195.81
526.07	196.8
526.315	198.61
526.559	197.56
526.803	196.5
527.048	199.32
527.292	200.01
527.537	201.25
527.781	201.04
528.025	198.06
528.269	200.13
528.514	200.55
528.758	199.17
529.002	200.09
529.247	201.79
529.491	200.3
529.735	203.15
529.979	204.78
530.223	208.12
530.467	205.64
530.712	203.35
530.956	201.41
531.2	203.72
531.444	202.58
531.688	203.34
531.932	201.9
532.176	202.18
532.42	203.84
532.664	205.17
532.908	202.23
533.152	200.87
533.396	200.62
533.64	200.52
533.884	197.62
534.128	197.18
534.371	198.45
534.615	200.56
534.859	199.19
535.103	197.83
535.347	198.19
535.59	201.97
535.834	198.02
536.078	199.45
536.322	202.22
536.565	205.01
536.809	203.88
537.053	207.39
537.296	205.61
537.54	204.23
537.784	201.24
538.027	203.82
538.271	202.61
538.514	201.65
538.758	200.98
539.001	199.54
539.245	199.64
539.488	200.73
539.732	202.94
539.975	201.93
540.219	202.2
540.462	205
540.706	205.69
540.949	204.14
541.192	204
541.436	208.31
541.679	212.97
541.922	213.31
542.166	208.8
542.409	209.41
542.652	210.41
542.895	212.31
543.139	210.7
543.382	214.76
543.625	213.87
543.868	212.14
544.111	209.05
544.354	206.49
544.598	204.85
544.841	203.83
545.084	203.97
545.327	204.21
545.57	203.43
545.813	205.67
546.056	206.32
546.299	205.68
546.542	207.36
546.785	210.8
547.028	211.52
547.271	210.04
547.514	210.04
547.756	208.1
547.999	206.97
548.242	207.77
548.485	207.93
548.728	208.32
548.971	205.6
549.213	205.34
549.456	204.36
549.699	202.93
549.942	202.66
550.184	202.37
550.427	200.4
550.67	199.54
550.912	195.32
551.155	194.87
551.398	194.68
551.64	194.25
551.883	196.21
552.125	195.91
552.368	196.86
552.61	193.1
552.853	195.68
553.095	196.34
553.338	195.62
553.58	195.95
553.823	195.04
554.065	197.02
554.308	195.39
554.55	192.51
554.792	191.09
555.035	189.35
555.277	189.2
555.519	189.8
555.762	187.91
556.004	187.14
556.246	182.64
556.488	182.96
556.731	178.94
556.973	180.99
557.215	181.18
557.457	182.26
557.699	184.7
557.941	181.85
558.183	182.87
558.426	184.92
558.668	183.18
558.91	184.89
559.152	185.7
559.394	184.76
559.636	186.04
559.878	187.65
560.12	188.35
560.362	188.31
560.604	187.16
560.845	187.4
561.087	186.74
561.329	190.8
561.571	186.31
561.813	185.16
562.055	185.47
562.297	185.19
562.538	186.83
562.78	188.52
563.022	185.55
563.264	186.42
563.505	187.09
563.747	189.45
563.989	188.04
564.23	188.43
564.472	186.83
564.714	188.37
564.955	189.07
565.197	185.67
565.438	189.06
565.68	190.83
565.921	188.35
566.163	190.5
566.404	189.23
566.646	191.3
566.887	192.42
567.129	193.12
567.37	190.99
567.612	191.92
567.853	189.45
568.094	190.44
568.336	190.07
568.577	191.55
568.818	190.02
569.06	189.77
569.301	186.78
569.542	187.55
569.783	189.85
570.025	189.09
570.266	189.26
570.507	190.41
570.748	190.31
570.989	190.57
571.23	193.8
571.472	194.01
571.713	192.68
571.954	193.36
572.195	192.28
572.436	192.79
572.677	195.34
572.918	196.25
573.159	194.01
573.4	194.23
573.641	193.59
573.882	193.87
574.123	191.9
574.364	188.32
574.604	187.48
574.845	185.12
575.086	185.83
575.327	187.2
575.568	186.22
575.809	185.19
576.049	181.95
576.29	179.28
576.531	183.32
576.771	187.53
577.012	189.55
577.253	188.46
577.494	188.12
577.734	187.59
577.975	188.03
578.215	187.73
578.456	186.48
578.697	185.21
578.937	185.61
579.178	186.44
579.418	184.44
579.659	185.05
579.899	181.11
580.14	178.68
580.38	176.97
580.62	177.48
580.861	179.16
581.101	177.48
581.342	177.49
581.582	172.23
581.822	173.18
582.063	172.5
582.303	174.6
582.543	174.35
582.783	174.1
583.024	175.75
583.264	177.33
583.504	177.31
583.744	178.96
583.984	176.01
584.224	174.33
584.465	173.16
584.705	172.67
584.945	172.8
585.185	171.8
585.425	171.62
585.665	170.95
585.905	169.18
586.145	168.67
586.385	167.43
586.625	169.02
586.865	169.39
587.105	167.9
587.345	169.95
587.585	169.86
587.824	168.27
588.064	166.89
588.304	164.23
588.544	165.64
588.784	162.72
589.024	166.11
589.263	166.1
589.503	164.19
589.743	164.85
589.982	164.29
590.222	164.65
590.462	162.08
590.701	160.6
590.941	162.18
591.181	159.98
591.42	158.97
591.66	160.62
591.899	161.34
592.139	161.36
592.378	160.83
592.618	160.14
592.857	158.81
593.097	160.01
593.336	159.96
593.576	158.36
593.815	159.24
594.055	159.79
594.294	159.59
594.533	158.11
594.773	156.77
595.012	157.79
595.251	158.33
595.491	162.48
595.73	164.65
595.969	164.3
596.208	165.84
596.447	169.8
596.687	170.03
596.926	170.8
597.165	167.9
597.404	169.22
597.643	166.52
597.882	165.55
598.121	166.26
598.36	166.54
598.599	166.97
598.838	168.8
599.077	164.87
599.316	165.58
599.555	165.6
599.794	167.11
600.033	167.98
600.272	169.97
600.511	167.16
600.75	167.62
600.989	168.69
601.228	168.03
601.466	165.83
601.705	166.24
601.944	168.03
602.183	169.57
602.422	169.19
602.66	168.32
602.899	166
603.138	164.82
603.376	164.48
603.615	164.55
603.854	161.95
604.092	162.32
604.331	163.8
604.569	164.72
604.808	162.71
605.047	164.75
605.285	164.89
605.524	164.21
605.762	162.32
606	165.07
606.239	164.2
606.477	165.19
606.716	161.47
606.954	158.61
607.193	154.64
607.431	150.67
607.669	147.86
607.908	147.36
608.146	149.3
608.384	147.4
608.622	146.59
608.861	146.6
609.099	145.07
609.337	143.2
609.575	143.5
609.813	142.68
610.052	142.94
610.29	137.6
610.528	135.53
610.766	133.56
611.004	133.58
611.242	132.08
611.48	130.03
611.718	127.1
611.956	126.67
612.194	125.4
612.432	123.2
612.67	120.19
612.908	121.37
613.146	119.64
613.384	116.36
613.621	114.89
613.859	114.43
614.097	113.2
614.335	114.34
614.573	115.38
614.811	118.12
615.048	116.95
615.286	116.93
615.524	114.95
615.761	113.2
615.999	112.94
616.237	111.43
616.474	112.56
616.712	112.64
616.95	109.6
617.187	109.29
617.425	109.64
617.662	111.07
617.9	110.57
618.137	109.11
618.375	106.05
618.612	104.29
618.85	106.36
619.087	107.99
619.325	106.93
619.562	105.07
619.799	103.72
620.037	104.79
620.274	101.88
620.511	102.13
620.749	100.78
620.986	99.53
621.223	97.3
621.461	97.6
621.698	98.01
621.935	97.53
622.172	94.56
622.409	95.38
622.647	93.8
622.884	91.93
623.121	93.24
623.358	90.72
623.595	91.02
623.832	90.77
624.069	89.5
624.306	89.34
624.543	89.55
624.78	90.24
625.017	89.55
625.254	91.11
625.491	92.45
625.728	93.64
625.965	93.72
626.202	91.35
626.438	88.62
626.675	88.37
626.912	90.8
627.149	90.86
627.386	91.09
627.622	90.01
627.859	89.06
628.096	88.77
628.333	88.15
628.569	88.81
628.806	89.75
629.043	88.88
629.279	88.97
629.516	91.01
629.752	89.49
629.989	90.7
630.225	89.58
630.462	89.6
630.699	90.64
630.935	89.24
631.171	86.99
631.408	87.11
631.644	85.39
631.881	81.92
632.117	78.42
632.354	79.99
632.59	78.06
632.826	77.68
633.063	77.58
633.299	77.6
633.535	76.5
633.771	76.37
634.008	76.83
634.244	76.16
634.48	74.99
634.716	76.24
634.953	75.35
635.189	75.29
635.425	76.55
635.661	77.99
635.897	75.9
636.133	74.46
636.369	72.62
636.605	70.01
636.841	68.67
637.077	69.49
637.313	68.83
637.549	68.74
637.785	67.01
638.021	67.31
638.257	65.79
638.493	66.94
638.729	64.62
638.965	67.26
639.2	68.74
639.436	67.52
639.672	66.16
639.908	65.44
640.144	68.4
640.379	70.29
640.615	68.75
640.851	69.71
641.086	71.21
641.322	70.32
641.558	69.47
641.793	70.06
642.029	67.13
642.264	67.37
642.5	66.68
642.736	63.74
642.971	64.56
643.207	61.95
643.442	59.74
643.678	59.76
643.913	59.35
644.148	57.86
644.384	59.41
644.619	60
644.855	60.97
645.09	61.32
645.325	59.82
645.561	60.74
645.796	57.48
646.031	60.53
646.266	59.16
646.502	58.14
646.737	60.51
646.972	60.76
647.207	59.01
647.442	56.47
647.678	53.79
647.913	54.51
648.148	54.08
648.383	51.72
648.618	50.51
648.853	50.17
649.088	51.5
649.323	53.34
649.558	53.18
649.793	53.99
650.028	54.29
650.263	50.1
650.498	53.74
650.733	53.28
650.968	52.75
651.202	55.61
651.437	53.83
651.672	50.3
651.907	47.98
652.142	49.05
652.376	49.7
652.611	51.12
652.846	51.5
653.081	52.51
653.315	50.43
653.55	49.4
653.785	48.7
654.019	49.65
654.254	47.65
654.488	48.71
654.723	45.32
654.958	43.08
655.192	42.54
655.427	40.36
655.661	41.02
655.896	43.77
656.13	44.96
656.364	41.54
656.599	38.69
656.833	45.71
657.068	47.73
657.302	47.9
657.536	47.03
657.771	48.98
658.005	50.16
658.239	52.48
658.474	49.79
658.708	52.59
658.942	52.23
659.176	50.74
659.41	48.11
659.645	47.5
659.879	46.17
660.113	43.58
660.347	42.78
660.581	40.91
660.815	39.55
661.049	39.54
661.283	36.54
661.517	36.13
661.751	35.85
661.985	35.35
662.219	35.51
662.453	34.16
662.687	35.79
662.921	32.75
663.155	31.06
663.389	25.88
663.622	25.67
663.856	27.95
664.09	19.91
664.324	18.39
664.558	18.05
664.791	16.92
665.025	13.62
665.259	13.97
665.492	11.84
665.726	13.4
665.96	13.19
666.193	12.04
666.427	13.55
666.661	12.78
666.894	10.18
667.128	10.01
667.361	11.09
667.595	12.07
667.828	12.5
668.062	14.25
668.295	13.75
668.529	14.91
668.762	13.91
668.995	12.43
669.229	15.88
669.462	17.13
669.695	17.16
669.929	15.54
670.162	17.58
670.395	16.82
670.629	18.7
670.862	19.19
671.095	15.73
671.328	17.1
671.561	14.89
671.795	16.04
672.028	17.5
672.261	18.54
672.494	18.63
672.727	17.61
672.96	17.89
673.193	16.55
673.426	20.64
673.659	20.12
673.892	20.38
674.125	20.94
674.358	19.73
674.591	19.92
674.824	18.21
675.057	17.06
675.29	14.46
675.523	14.97
675.755	13.11
675.988	14.49
676.221	16.47
676.454	15.37
676.687	16.47
676.919	16.73
677.152	16.43
677.385	14.68
677.617	14.53
677.85	15.11
678.083	14.65
678.315	17.46
678.548	14.66
678.78	13.63
679.013	13.54
679.246	14.14
679.478	15.19
679.711	14.03
679.943	15.51
680.175	13.71
680.408	17.17
680.64	13.84
680.873	15.87
681.105	16.53
681.338	19.18
681.57	18.19
681.802	18.81
682.034	17.9
682.267	20.74
682.499	22.46
682.731	20.29
682.964	20.08
683.196	17.93
683.428	16.46
683.66	13.98
683.892	17.39
684.124	18.74
684.356	21.38
684.589	22.83
684.821	21.54
685.053	22.16
685.285	22.7
685.517	23.06
685.749	25.33
685.981	26.57
686.213	26.02
686.445	26.42
686.676	22.61
686.908	22.41
687.14	21.07
687.372	21.88
687.604	18.49
687.836	18.36
688.068	17.43
688.299	16.86
688.531	14.53
688.763	18.4
688.995	17.02
689.226	21.29
689.458	20.07
689.69	18.05
689.921	18.29
690.153	18.2
690.384	19.33
690.616	18.54
690.848	19.86
691.079	14.48
691.311	12.18
691.542	9.1
691.774	6.71
692.005	9.98
692.237	11.34
692.468	9.44
692.699	10.04
692.931	9.16
693.162	7.36
693.393	6.47
693.625	5.36
693.856	6.17
694.087	6.44
694.319	5.96
694.55	5.66
694.781	5.12
695.012	6.32
695.243	4.19
695.475	3.01
695.706	3.75
695.937	2
696.168	0.96
696.399	-1.73
696.63	-1.51
696.861	-1.14
697.092	3.14
697.323	5.51
697.554	6.91
697.785	8.2
698.016	8.9
698.247	8.05
698.478	9.77
698.709	11.08
698.94	13.4
699.171	12.8
699.401	10.19
699.632	13.2
699.863	9.17
700.094	8.46
700.325	10.7
700.555	10.49
700.786	11.52
701.017	12.91
701.247	13.14
701.478	14.75
701.709	15.2
701.939	13.76
702.17	13.91
702.401	16.57
702.631	18.38
702.862	16.91
703.092	14.94
703.323	17.36
703.553	18.18
703.784	17.02
704.014	18.45
704.244	12.76
704.475	10.91
704.705	9.59
704.936	9.12
705.166	8.63
705.396	9.98
705.627	9.74
705.857	10.39
706.087	8.91
706.317	6.26
706.548	4.78
706.778	3.23
707.008	4.3
707.238	4.56
707.468	2.79
707.698	2.96
707.928	2.09
708.158	0.26
708.389	-1.05
708.619	-3.04
708.849	-4.15
709.079	-2.47
709.309	-4.2
709.539	-6.89
709.768	-8.01
709.998	-6.81
710.228	-6.73
710.458	-7.82
710.688	-10.39
710.918	-9.49
711.148	-11.11
711.378	-10.09
711.607	-11.09
711.837	-9.71
712.067	-10
712.297	-10.77
712.526	-9.68
712.756	-8.64
712.986	-11.65
713.215	-12.31
713.445	-11.39
713.674	-10.27
713.904	-10.82
714.134	-7.95
714.363	-7.21
714.593	-7.68
714.822	-8.66
715.052	-7.99
715.281	-7.25
715.511	-8.31
715.74	-7.19
715.969	-8.52
716.199	-9.01
716.428	-8.1
716.657	-7.32
716.887	-5
717.116	-6.84
717.345	-4.7
717.575	-5.18
717.804	-3.17
718.033	-4.6
718.262	-5.62
718.492	-5.09
718.721	-3.74
718.95	-5.56
719.179	-6.55
719.408	-6.16
719.637	-10.66
719.866	-13.01
720.095	-11.97
720.324	-11.28
720.553	-14.88
720.782	-15.56
721.011	-15.03
721.24	-16.32
721.469	-17
721.698	-16.68
721.927	-17.06
722.156	-19.43
722.385	-19.82
722.613	-16.55
722.842	-16.07
723.071	-13.26
723.3	-12.46
723.529	-13.48
723.757	-12.97
723.986	-15.31
724.215	-15.7
724.443	-15.53
724.672	-13.64
724.901	-14.7
725.129	-12.08
725.358	-8.52
725.586	-10.05
725.815	-10.03
726.043	-9.71
726.272	-10.9
726.5	-11.22
726.729	-8.92
726.957	-12.28
727.186	-13.01
727.414	-12.35
727.642	-10.77
727.871	-10.18
728.099	-10.66
728.327	-11.65
728.556	-10.83
728.784	-9.86
729.012	-10.76
729.241	-8.58
729.469	-8.72
729.697	-10.48
729.925	-11.16
730.153	-12.17
730.381	-12.1
730.61	-11.42
730.838	-14.03
731.066	-13.81
731.294	-14.18
731.522	-16.83
731.75	-18.72
731.978	-18.49
732.206	-21.16
732.434	-22.9
732.662	-20.58
732.89	-22.48
733.118	-23.21
733.346	-22.54
733.573	-21.35
733.801	-21.58
734.029	-13.71
734.257	-13.07
734.485	-10.2
734.712	-8.02
734.94	-9.96
735.168	-7.71
735.396	-7.35
735.623	-9.09
735.851	-8.88
736.078	-7.15
736.306	-5.44
736.534	-5.05
736.761	-5.37
736.989	-6.08
737.216	-8.35
737.444	-10.34
737.671	-10.12
737.899	-5.35
738.126	-5.66
738.354	-4.78
738.581	-2.72
738.809	-2.63
739.036	-4.77
739.263	-3.3
739.491	-4.62
739.718	-4.86
739.945	0.05
740.173	1.44
740.4	1.11
740.627	-1.15
740.854	-0.81
741.081	-4.26
741.309	-4.82
741.536	-8.2
741.763	-8.19
741.99	-5.58
742.217	-5.22
742.444	-5.36
742.671	-3.32
742.898	-3.03
743.125	-4.75
743.352	-7.32
743.579	-7.95
743.806	-7.77
744.033	-4.57
744.26	-2.37
744.487	-2.84
744.714	-3.31
744.941	-4.06
745.167	-0.71
745.394	-1.12
745.621	-2.31
745.848	-2.33
746.075	-0.04
746.301	2.19
746.528	5.37
746.755	3.24
746.981	0.9
747.208	2.79
747.435	4.68
747.661	5.54
747.888	7.35
748.114	6.06
748.341	7.97
748.567	9.71
748.794	6.68
749.02	4.98
749.247	2.81
749.473	1.42
749.7	-0.31
749.926	-0.74
750.152	3.12
750.379	3.57
750.605	5.02
750.831	5.71
751.058	2.65
751.284	0.58
751.51	3.18
751.737	5.72
751.963	3.91
752.189	2.48
752.415	2.11
752.641	1.4
752.867	1.52
753.094	-0.03
753.32	-1.49
753.546	-2.78
753.772	-0.36
753.998	-0.32
754.224	-2.13
754.45	-2.69
754.676	-3.42
754.902	-5.73
755.128	-5.71
755.354	-6.08
755.579	-5.34
755.805	-3.82
756.031	-5.47
756.257	-5.89
756.483	-6.74
756.709	-6.51
756.934	-6.89
757.16	-8.52
757.386	-9.23
757.612	-11.64
757.837	-12.98
758.063	-11.4
758.289	-8.21
758.514	-9.76
758.74	-13.55
758.965	-15.41
759.191	-14.61
759.416	-13.31
759.642	-11.64
759.868	-13.24
760.093	-12.1
760.318	-12.51
760.544	-12.33
760.769	-13.39
760.995	-14.56
761.22	-14.32
761.445	-12.25
761.671	-9.8
761.896	-6.82
762.121	-7.01
762.347	-7.38
762.572	-10.73
762.797	-10.7
763.022	-8.94
763.248	-5.56
763.473	-3.32
763.698	-3.22
763.923	-2.88
764.148	-3.82
764.373	-3.46
764.598	-1.58
764.823	-0.61
765.048	-2.71
765.273	-4.86
765.498	-6.24
765.723	-5.28
765.948	-3.98
766.173	-6.64
766.398	-5.38
766.623	-7.45
766.848	-6.96
767.073	-8.55
767.298	-8.79
767.522	-9.15
767.747	-7.97
767.972	-8.74
768.197	-8.53
768.421	-9.92
768.646	-13.29
768.871	-15.47
769.095	-15.08
769.32	-14.34
769.545	-14.05
769.769	-12.88
769.994	-13.31
770.218	-16.21
770.443	-15.15
770.667	-15.43
770.892	-14.08
771.116	-14.43
771.341	-13.3
771.565	-15.36
771.79	-14.73
772.014	-15.78
772.238	-16.93
772.463	-13.26
772.687	-11.99
772.911	-12.57
773.136	-13.98
773.36	-13.72
773.584	-12.29
773.808	-13.13
774.033	-12.25
774.257	-12.17
774.481	-13.15
774.705	-13.99
774.929	-13.07
775.153	-12.46
775.377	-11.95
775.602	-11.2
775.826	-10.71
776.05	-8.73
776.274	-9.56
776.498	-8.98
776.722	-10.48
776.945	-8.03
777.169	-7.89
777.393	-9.92
777.617	-9.48
777.841	-10.71
778.065	-9.65
778.289	-11.04
778.512	-11.52
778.736	-11.67
778.96	-11.34
779.184	-9.48
779.407	-11.95
779.631	-13.56
779.855	-14.58
780.078	-12.62
780.302	-14.24
780.526	-15.64
780.749	-15.02
780.973	-13.93
781.196	-13.89
781.42	-14.88
781.643	-14.32
781.867	-13.07
782.09	-14.9
782.314	-15.15
782.537	-15.71
782.76	-16.4
782.984	-15.85
783.207	-16.21
783.431	-16.41
783.654	-17.62
783.877	-20.25
784.1	-20.7
784.324	-20.93
784.547	-20.94
784.77	-24.03
784.993	-25.14
785.216	-26.62
785.44	-24.36
785.663	-24.94
785.886	-21.81
786.109	-22.38
786.332	-21.44
786.555	-20.85
786.778	-18.92
787.001	-17.87
787.224	-17.06
787.447	-15.18
787.67	-14
787.893	-12.5
788.116	-12.27
788.339	-11.76
788.561	-12.49
788.784	-16.56
789.007	-17.8
789.23	-18.7
789.453	-18.44
789.675	-18.95
789.898	-20.35
790.121	-22.25
790.344	-22.62
790.566	-21.63
790.789	-20.7
791.012	-20.45
791.234	-18.63
791.457	-16.2
791.679	-14.61
791.902	-13.71
792.124	-12.64
792.347	-14.05
792.569	-14.47
792.792	-17.99
793.014	-15.11
793.237	-14.69
793.459	-14.05
793.681	-13.96
793.904	-15.37
794.126	-15.79
794.348	-16.12
794.571	-14.43
794.793	-16.98
795.015	-16.85
795.237	-16.58
795.46	-15.25
795.682	-13.53
795.904	-10.64
796.126	-10.63
796.348	-10.73
796.57	-8.02
796.792	-7.85
797.014	-5.03
797.237	-2.79
797.459	-0.04
797.681	0.26
797.903	-1.12
798.124	-1.07
798.346	8.28
798.568	10.97
798.79	12.96
799.012	14.79
799.234	16.5
799.456	18.02
799.678	20.71
799.899	17.95
800.121	16.22
800.343	15.66
800.565	16.65
800.786	17.23
801.008	17.21
801.23	16.86
801.451	16.9
801.673	15.79
801.895	15.34
802.116	16.38
802.338	16.06
802.559	15.63
802.781	13.05
803.002	13.7
803.224	15.65
803.445	13.39
803.667	13.96
803.888	13.1
804.109	12.84
804.331	12.81
804.552	13.29
804.773	14.72
804.995	12.99
805.216	0.69
805.437	-1.04
805.658	-3.03
805.88	-4.79
806.101	-5.74
806.322	-6.51
806.543	-8.09
806.764	-9.61
806.985	-8.06
807.207	-6.05
807.428	-6.34
807.649	-9.71
807.87	-10.56
808.091	-11.07
808.312	-11.23
808.533	-6.6
808.754	-4.6
808.975	-5.47
809.195	-4.54
809.416	-3.82
809.637	-3.34
809.858	-4.94
810.079	-5.92
810.3	-3.89
810.52	-5.32
810.741	-7.35
810.962	-8.72
811.183	-11.19
811.403	-11.45
811.624	-11.77
811.845	-10.63
812.065	-10.01
812.286	-9.57
812.506	-9.71
812.727	-8.89
812.948	-7.77
813.168	-5.91
813.389	-6.34
813.609	-5.05
813.83	-5.43
814.05	-6.27
814.27	-6.31
814.491	-1.27
814.711	-0.99
814.931	-2.95
815.152	-2.81
815.372	-4.51
815.592	-5.66
815.813	-6.56
816.033	-7.77
816.253	-6.84
816.473	-7.16
816.694	-6.44
816.914	-6.17
817.134	-6.56
817.354	-6.2
817.574	-4.63
817.794	-5.09
818.014	-5.41
818.234	-6.15
818.454	-6.91
818.674	-9.27
818.894	-10.82
819.114	-9.09
819.334	-8.37
819.554	-7.33
819.774	-4.95
819.994	-7.61
820.214	-6.92
820.433	-5.6
820.653	-6.22
820.873	-5.46
821.093	-4.6
821.312	-7.06
821.532	-5.49
821.752	-2.71
821.972	-4.43
822.191	-3.99
822.411	-5.14
822.63	-4.24
822.85	-3.82
823.07	-6.43
823.289	-5.58
823.509	-6.11
823.728	-4.77
823.948	-7.01
824.167	-9.44
824.387	-10.2
824.606	-8.45
824.825	-9.21
825.045	-8.15
825.264	-8.32
825.483	-5.04
825.703	-3.93
825.922	-6.68
826.141	-7.72
826.361	-7.69
826.58	-11.88
826.799	-12.88
827.018	-12.89
827.237	-13.78
827.456	-12.53
827.676	-12.98
827.895	-13.58
828.114	-13.14
828.333	-13.58
828.552	-14.03
828.771	-13.92
828.99	-15.11
829.209	-16.07
829.428	-14.66
829.647	-14.46
829.866	-12.87
830.084	-13.5
830.303	-13.29
830.522	-14.36
830.741	-13.84
830.96	-12.19
831.179	-11.89
831.397	-14.3
831.616	-13.13
831.835	-13.4
832.053	-11.91
832.272	-13.03
832.491	-11.12
832.709	-11.58
832.928	-11.95
833.147	-13.41
833.365	-11.94
833.584	-9.79
833.802	-7.49
834.021	-8.1
834.239	-7.6
834.458	-8.97
834.676	-10.81
834.894	-10.89
835.113	-11.92
835.331	-12.84
835.55	-13.79
835.768	-12.33
835.986	-10.68
836.204	-12.75
836.423	-11.58
836.641	-12.57
836.859	-13.53
837.077	-12.21
837.296	-12.09
837.514	-12.69
837.732	-12.85
837.95	-14.09
838.168	-11.48
838.386	-12.19
838.604	-10.08
838.822	-10.08
839.04	-10.42
839.258	-10.79
839.476	-8.54
839.694	-8.35
839.912	-9.3
840.13	-9.68
840.348	-8.09
840.566	-10.44
840.783	-7.3
841.001	-8.38
841.219	-7.27
841.437	-6.42
841.655	-6.06
841.872	-5.17
842.09	-4.6
842.308	-4.53
842.525	-5.55
842.743	-4.14
842.961	-5.15
843.178	-8.65
843.396	-5.25
843.613	-4.53
843.831	-4.45
844.048	-5.09
844.266	-4.51
844.483	-4.97
844.701	-3.92
844.918	-5.02
845.136	-4.97
845.353	-6.51
845.57	-6.03
845.788	-3.67
846.005	-5.44
846.222	-7.68
846.439	-6.17
846.657	-5.44
846.874	-4.54
847.091	-5.9
847.308	-6.03
847.526	-8.23
847.743	-8.44
847.96	-10.12
848.177	-9.33
848.394	-10.11
848.611	-11.2
848.828	-12.29
849.045	-10.82
849.262	-11.52
849.479	-11.56
849.696	-11.76
849.913	-13.13
850.13	-16.72
850.347	-13.8
850.564	-14.75
850.78	-15.5
850.997	-16.37
851.214	-16.11
851.431	-15.98
851.647	-17.51
851.864	-16.28
852.081	-15.67
852.298	-18.49
852.514	-19.9
852.731	-19.24
852.948	-16.63
853.164	-16.48
853.381	-16.29
853.597	-18
853.814	-19.84
854.03	-20.59
854.247	-19.98
854.463	-19.37
854.68	-19.44
854.896	-20.76
855.113	-20.42
855.329	-19.39
855.545	-16.75
855.762	-18.39
855.978	-20.08
856.194	-22.38
856.411	-18.82
856.627	-15.29
856.843	-14.1
857.059	-13.8
857.275	-14.87
857.492	-14.1
857.708	-11.69
857.924	-11.68
858.14	-9.23
858.356	-9.02
858.572	-10.56
858.788	-12.09
859.004	-10.38
859.22	-12.27
859.436	-12.17
859.652	-13.57
859.868	-16.04
860.084	-15.79
860.3	-15.53
860.516	-14.91
860.731	-15.95
860.947	-17.35
861.163	-16.68
861.379	-15.54
861.595	-14.32
861.81	-12.93
862.026	-13.07
862.242	-13.54
862.457	-12.79
862.673	-11.71
862.889	-11.85
863.104	-13.24
863.32	-13.98
863.535	-14.09
863.751	-17.11
863.966	-15.02
864.182	-13.1
864.397	-14.81
864.613	-14.73
864.828	-17.32
865.044	-16.27
865.259	-13.88
865.474	-13.52
865.69	-11.97
865.905	-10.99
866.12	-11.89
866.336	-11.5
866.551	-9.56
866.766	-9.69
866.981	-10.11
867.196	-10.64
867.412	-9.39
867.627	-8.96
867.842	-9.56
868.057	-10.13
868.272	-10.44
868.487	-11.3
868.702	-13.7
868.917	-14.67
869.132	-14.17
869.347	-12.61
869.562	-13.89
869.777	-13.1
869.992	-13.26
870.207	-11.95
870.422	-12.09
870.636	-13.39
870.851	-16.34
871.066	-17.85
871.281	-17.87
871.495	-18.22
871.71	-16.97
871.925	-20.42
872.14	-22.26
872.354	-23.86
872.569	-24.79
872.783	-23.09
872.998	-23.6
873.213	-23.88
873.427	-22.19
873.642	-21.3
873.856	-21.41
874.071	-21.21
874.285	-21.4
874.5	-21.63
874.714	-22.38
874.928	-22.1
875.143	-22.58
875.357	-21.55
875.571	-21.84
875.786	-20.93
876	-19.17
876.214	-16.32
876.429	-19.31
876.643	-19.03
876.857	-19.64
877.071	-18.51
877.285	-19.56
877.499	-20.45
877.714	-18.32
877.928	-16.44
878.142	-18.1
878.356	-19.46
878.57	-16.44
878.784	-14.05
878.998	-15.61
879.212	-12.26
879.426	-13.03
879.639	-11.91
879.853	-13.49
880.067	-14.36
880.281	-14.55
880.495	-13
880.709	-10.66
880.922	-11.48
881.136	-10.81
881.35	-9.16
881.564	-10.22
881.777	-13.05
881.991	-13.32
882.205	-11.62
882.418	-12.36
882.632	-14.69
882.845	-15.82
883.059	-14.58
883.273	-15.48
883.486	-16.57
883.7	-15.73
883.913	-14.57
884.126	-13.38
884.34	-15.68
884.553	-18.01
884.767	-13.76
884.98	-13.46
885.193	-14.44
885.407	-15.09
885.62	-13.46
885.833	-14.84
886.046	-14.46
886.26	-15.81
886.473	-15.78
886.686	-17.11
886.899	-16.29
887.112	-16.92
887.326	-19.59
887.539	-18.63
887.752	-19.24
887.965	-21.12
888.178	-19.67
888.391	-17.68
888.604	-17.28
888.817	-18.74
889.03	-17.74
889.243	-18.88
889.455	-19.76
889.668	-18.29
889.881	-14.84
890.094	-15.41
890.307	-17.11
890.52	-16.13
890.732	-16.14
890.945	-16.03
891.158	-14.75
891.37	-17.35
891.583	-16.68
891.796	-15.77
892.008	-17.74
892.221	-18.98
892.434	-22.85
892.646	-24
892.859	-24.26
893.071	-23.2
893.284	-21.06
893.496	-22.09
893.709	-21.65
893.921	-20.7
894.133	-20.94
894.346	-20.68
894.558	-20.13
894.771	-20.38
894.983	-19.15
895.195	-18.25
895.407	-18.48
895.62	-21.66
895.832	-20.92
896.044	-19.25
896.256	-20.46
896.468	-22.66
896.681	-19.65
896.893	-18.98
897.105	-19.06
897.317	-19.13
897.529	-17.01
897.741	-16.67
897.953	-14.56
898.165	-16.23
898.377	-18.51
898.589	-16.84
898.801	-17.2
899.013	-13.99
899.224	-11.62
899.436	-9.93
899.648	-10.22
899.86	-11.29
900.072	-8.18
900.283	-7.43
900.495	-6.12
900.707	-5.51
900.919	-6.66
901.13	-6.57
901.342	-8.57
901.554	-8.5
901.765	-9.22
901.977	-11.71
902.188	-10.6
902.4	-11.56
902.611	-12.86
902.823	-13.84
903.034	-16.21
903.246	-18.74
903.457	-19.67
903.669	-21.02
903.88	-20.94
904.091	-21.52
904.303	-21.49
904.514	-20.9
904.725	-19.91
904.936	-18.53
905.148	-18.66
905.359	-15.76
905.57	-15.35
905.781	-16.53
905.992	-17.4
906.204	-16.7
906.415	-16.5
906.626	-19.23
906.837	-17.44
907.048	-19.82
907.259	-20.85
907.47	-22.49
907.681	-22.92
907.892	-17.86
908.103	-18.62
908.314	-20.29
908.525	-16.07
908.735	-16.54
908.946	-17.09
909.157	-18.26
909.368	-16.19
909.579	-14.69
909.789	-16.39
910	-17.4
910.211	-14.84
910.421	-15.36
910.632	-15.09
910.843	-17.31
911.053	-15.82
911.264	-13.38
911.475	-14.38
911.685	-13.8
911.896	-14.23
912.106	-14.53
912.317	-17.29
912.527	-15.46
912.737	-15.48
912.948	-15.26
913.158	-14.56
913.369	-17.39
913.579	-14.27
913.789	-13.73
914	-10.88
914.21	-9.69
914.42	-12.87
914.63	-14.12
914.841	-11.22
915.051	-10.88
915.261	-9.53
915.471	-6.34
915.681	-5.63
915.891	-6.44
916.101	-5.83
916.311	-4.91
916.521	-3.91
916.731	-5.12
916.941	-2.78
917.151	-2.94
917.361	-0.23
917.571	-4.96
917.781	-6.32
917.991	-7.7
918.201	-7.94
918.411	-10.83
918.621	-11.29
918.83	-9.79
919.04	-12.29
919.25	-11.41
919.46	-10.11
919.669	-12.5
919.879	-11.81
920.089	-13.66
920.298	-14.01
920.508	-13.96
920.717	-13.3
920.927	-14.78
921.136	-13.54
921.346	-15.74
921.555	-18.2
921.765	-18.27
921.974	-20.76
922.184	-22.81
922.393	-22.38
922.603	-24.26
922.812	-22.33
923.021	-22.94
923.23	-23.82
923.44	-26.64
923.649	-26.65
923.858	-28.17
924.067	-26.93
924.277	-29.36
924.486	-26.56
924.695	-26.73
924.904	-24.15
925.113	-23.63
925.322	-20.85
925.531	-20.8
925.74	-22.24
925.949	-23.88
926.158	-22.16
926.367	-23.63
926.576	-23.05
926.785	-24.07
926.994	-25.59
927.203	-26.05
927.412	-25.85
927.621	-26.73
927.83	-24.39
928.038	-25.29
928.247	-25.64
928.456	-24.47
928.665	-21.82
928.873	-21.15
929.082	-18.27
929.291	-16.96
929.499	-15.33
929.708	-16.02
929.916	-15.1
930.125	-16.59
930.333	-17.28
930.542	-14.53
930.75	-11.68
930.959	-12.1
931.167	-12.37
931.376	-13.44
931.584	-12.71
931.793	-14.14
932.001	-14.21
932.209	-15.5
932.418	-16.99
932.626	-17.71
932.834	-18.31
933.042	-21.52
933.251	-20.88
933.459	-19.61
933.667	-21.25
933.875	-20.89
934.083	-19.59
934.291	-18.71
934.499	-17.36
934.707	-17.05
934.915	-18.34
935.123	-17.36
935.331	-17.5
935.539	-20.03
935.747	-22.56
935.955	-23.03
936.163	-23.7
936.371	-22.84
936.579	-21.5
936.787	-21.91
936.995	-25.06
937.202	-26.75
937.41	-27.38
937.618	-28.18
937.826	-27.89
938.033	-31.4
938.241	-32.58
938.449	-29.25
938.656	-27.05
938.864	-26.86
939.071	-27.52
939.279	-26.13
939.486	-22.22
939.694	-22.23
939.901	-23.77
940.109	-21.57
940.316	-22.28
940.524	-22.26
940.731	-25.51
940.939	-23.66
941.146	-24.62
941.353	-23.86
941.561	-23.83
941.768	-26.55
941.975	-25.63
942.182	-25.44
942.39	-25.62
942.597	-21.16
942.804	-22.42
943.011	-22.58
943.218	-20.5
943.425	-19.51
943.632	-18.96
943.839	-19.18
944.046	-19.47
944.253	-19.44
944.46	-18.73
944.667	-17.15
944.874	-19.52
945.081	-18.6
945.288	-16.98
945.495	-14.6
945.702	-13.56
945.909	-16.46
946.115	-15.59
946.322	-16.33
946.529	-19.23
946.736	-18.15
946.942	-15.85
947.149	-14.79
947.356	-17.33
947.562	-19.48
947.769	-19.84
947.976	-21.2
948.182	-18.45
948.389	-19.44
948.595	-19.67
948.802	-19.18
949.008	-21.84
949.215	-20.38
949.421	-21.13
949.628	-23.34
949.834	-22.76
950.04	-23.12
950.247	-19.84
950.453	-18.18
950.659	-18.55
950.865	-16.6
951.072	-19.89
951.278	-17.17
951.484	-17.26
951.69	-20.42
951.896	-22.24
952.103	-22.58
952.309	-21.23
952.515	-21.64
952.721	-20.25
952.927	-18.26
953.133	-18.64
953.339	-21.31
953.545	-22.41
953.751	-20.56
953.957	-16.84
954.163	-18.22
954.369	-18.09
954.574	-19.87
954.78	-20.34
954.986	-18.44
955.192	-16.68
955.398	-17.66
955.603	-19.48
955.809	-17.41
956.015	-15.91
956.22	-15.72
956.426	-14.65
956.632	-17.07
956.837	-16.73
957.043	-16.58
957.248	-16.14
957.454	-14.23
957.66	-16.56
957.865	-19.22
958.07	-17.37
958.276	-17.52
958.481	-19.05
958.687	-19.85
958.892	-19.55
959.097	-19.08
959.303	-18.19
959.508	-19.03
959.713	-19.13
959.919	-18.23
960.124	-19.26
960.329	-19.11
960.534	-15.96
960.739	-15.03
960.945	-13.43
961.15	-12.32
961.355	-14.32
961.56	-18.3
961.765	-18.43
961.97	-19.27
962.175	-17.25
962.38	-21.1
962.585	-20.8
962.79	-22.33
962.995	-23.8
963.2	-25.2
963.404	-25.41
963.609	-27.67
963.814	-30.09
964.019	-32.41
964.224	-32.73
964.428	-31.71
964.633	-30.68
964.838	-27.93
965.042	-28.24
965.247	-29.22
965.452	-29.58
965.656	-28.84
965.861	-28.46
966.066	-29.34
966.27	-26.96
966.475	-23.65
966.679	-26.63
966.884	-27
967.088	-29.25
967.292	-30.41
967.497	-30.27
967.701	-31.02
967.906	-29.22
968.11	-27.41
968.314	-22.86
968.518	-25.88
968.723	-21.61
968.927	-21.09
969.131	-19.91
969.335	-16.96
969.539	-16.76
969.744	-16.6
969.948	-14.17
970.152	-11.74
970.356	-10.16
970.56	-9.21
970.764	-10.42
970.968	-7.37
971.172	-8.52
971.376	-7.61
971.58	-6.31
971.784	-5.94
971.988	-7.67
972.192	-5.53
972.395	-5.02
972.599	-7.51
972.803	-9.09
973.007	-6.65
973.21	-6.44
973.414	-5.68
973.618	-4.46
973.822	-4.11
974.025	-3.2
974.229	-2.45
974.432	-4.26
974.636	-6.91
974.84	-5.17
975.043	-5.43
975.247	-7.35
975.45	-9.22
975.654	-8.82
975.857	-7.32
976.06	-7.59
976.264	-9.01
976.467	-7.46
976.671	-7.55
976.874	-5.92
977.077	-5.71
977.28	-8.35
977.484	-10.76
977.687	-10.14
977.89	-10.17
978.093	-9.79
978.297	-9.58
978.5	-11.51
978.703	-11.09
978.906	-10.16
979.109	-10.33
979.312	-10.89
979.515	-10.31
979.718	-9.88
979.921	-10.35
980.124	-12.2
980.327	-11.78
980.53	-11.66
980.733	-10.81
980.936	-8.66
981.138	-10.31
981.341	-9.45
981.544	-9.5
981.747	-10.14
981.949	-11.47
982.152	-11.55
982.355	-12.33
982.558	-9.93
982.76	-13.27
982.963	-14.25
983.165	-14.86
983.368	-14.3
983.571	-14.75
983.773	-11.32
983.976	-11.86
984.178	-10.63
984.381	-10.78
984.583	-12.69
984.785	-11.89
984.988	-10.48
985.19	-9.86
985.392	-11.91
985.595	-14.21
985.797	-15.89
985.999	-14.51
986.202	-12.46
986.404	-13.11
986.606	-11.24
986.808	-12.28
987.01	-11.48
987.212	-13.24
987.415	-14.01
987.617	-14.26
987.819	-14.5
988.021	-12
988.223	-13.78
988.425	-14.34
988.627	-13.49
988.829	-17.52
989.031	-14.7
989.232	-15.04
989.434	-14.65
989.636	-15.1
989.838	-15.26
990.04	-15.97
990.242	-16.58
990.443	-17.84
990.645	-16.73
990.847	-13.86
991.048	-12.67
991.25	-14.62
991.452	-15.64
991.653	-17.46
991.855	-17.15
992.057	-16.59
992.258	-15.2
992.46	-15.73
992.661	-14.12
992.863	-15.42
993.064	-15.05
993.265	-14.93
993.467	-14.69
993.668	-12.33
993.87	-11.5
994.071	-11.99
994.272	-12.4
994.473	-10.86
994.675	-10.61
994.876	-9.9
995.077	-8.44
995.278	-7.85
995.48	-5.45
995.681	-6.98
995.882	-5.87
996.083	-5.94
996.284	-8.35
996.485	-8.38
996.686	-10.03
996.887	-11.29
997.088	-15.11
997.289	-18.12
997.49	-17.07
997.691	-16.87
997.892	-14.92
998.092	-9.07
998.293	-10.04
998.494	-11.78
998.695	-12.88
998.896	-11.49
999.096	-12.09
999.297	-11.42
999.498	-12.72
999.698	-15.64
999.899	-18.32
1000.1	-20.41
1000.3	-20.16
1000.501	-21.13
1000.701	-21.85
1000.902	-22.45
1001.102	-22.5
1001.303	-21.21
1001.503	-23.76
1001.704	-24.39
1001.904	-25.09
1002.105	-25.61
1002.305	-25.61
1002.505	-25.29
1002.706	-25.68
1002.906	-24.64
1003.106	-24.8
1003.306	-22
1003.507	-19.39
1003.707	-18.87
1003.907	-17.69
1004.107	-16.46
1004.307	-20.62
1004.507	-17.62
1004.707	-18.01
1004.907	-20.49
1005.107	-20.78
1005.308	-20.45
1005.507	-22.26
1005.707	-21.27
1005.907	-19.7
1006.107	-18.57
1006.307	-17.85
1006.507	-18.43
1006.707	-17.48
1006.907	-15.42
1007.106	-14.83
1007.306	-15.91
1007.506	-16.32
1007.706	-15.84
1007.905	-18.13
1008.105	-17.27
1008.305	-17.92
1008.504	-16.33
1008.704	-11.74
1008.903	-11.28
1009.103	-10.95
1009.303	-12.48
1009.502	-12.87
1009.702	-14.22
1009.901	-14.66
1010.1	-16.81
1010.3	-15.42
1010.499	-16.84
1010.699	-20.35
1010.898	-20.75
1011.097	-19.41
1011.296	-20.09
1011.496	-20.12
1011.695	-19.92
1011.894	-22.07
1012.093	-19.84
1012.293	-19.63
1012.492	-20.78
1012.691	-19.92
1012.89	-20.5
1013.089	-22.92
1013.288	-22.24
1013.487	-21.62
1013.686	-22.26
1013.885	-23.08
1014.084	-21.56
1014.283	-21.7
1014.482	-22.66
1014.681	-23.95
1014.88	-28.51
1015.078	-28.8
1015.277	-30.3
1015.476	-30.23
1015.675	-30.14
1015.873	-30.14
1016.072	-31.45
1016.271	-28.71
1016.47	-31.56
1016.668	-29.76
1016.867	-30.19
1017.065	-30.73
1017.264	-30.73
1017.463	-30.41
1017.661	-30.63
1017.86	-29.93
1018.058	-28.22
1018.256	-29.67
1018.455	-30.86
1018.653	-29.79
1018.852	-30.27
1019.05	-32.24
1019.248	-33.38
1019.447	-35.32
1019.645	-34.82
1019.843	-34.99
1020.041	-34.52
1020.24	-34.47
1020.438	-31.17
1020.636	-29.94
1020.834	-31.73
1021.032	-29.55
1021.23	-29.05
1021.428	-27.57
1021.626	-24.62
1021.824	-25
1022.022	-25.31
1022.22	-23.07
1022.418	-21.85
1022.616	-22.85
1022.814	-22.5
1023.012	-23.25
1023.21	-22.9
1023.408	-23.52
1023.606	-23.61
1023.803	-19.26
1024.001	-20.03
1024.199	-22.79
1024.397	-22.99
1024.594	-21.65
1024.792	-22.88
1024.99	-20.98
1025.187	-20.19
1025.385	-16.4
1025.582	-14.82
1025.78	-16.12
1025.977	-15.78
1026.175	-15.05
1026.372	-15.53
1026.57	-18.57
1026.767	-17.27
1026.965	-16.65
1027.162	-16.5
1027.359	-16.76
1027.557	-16.55
1027.754	-19.06
1027.951	-19.78
1028.148	-18.53
1028.346	-20.89
1028.543	-23.95
1028.74	-24.25
1028.937	-27.4
1029.134	-27.27
1029.331	-28.33
1029.528	-27.87
1029.725	-29.05
1029.923	-33.12
1030.12	-30.01
1030.317	-28.76
1030.513	-26.9
1030.71	-26.26
1030.907	-23.85
1031.104	-25.1
1031.301	-25.81
1031.498	-27.56
1031.695	-29.03
1031.892	-27.92
1032.088	-28.27
1032.285	-29.34
1032.482	-30.16
1032.678	-32.3
1032.875	-33.95
1033.072	-34.42
1033.268	-35.34
1033.465	-35.4
1033.662	-36.91
1033.858	-36.62
1034.055	-36.02
1034.251	-34.29
1034.448	-34.48
1034.644	-32.41
1034.84	-29.72
1035.037	-26.44
1035.233	-24.74
1035.43	-21.67
1035.626	-22.08
1035.822	-20.67
1036.019	-21.67
1036.215	-25.26
1036.411	-24.12
1036.607	-26.78
1036.803	-28.47
1037	-29.79
1037.196	-32.33
1037.392	-32.83
1037.588	-33.83
1037.784	-33.09
1037.98	-34.27
1038.176	-34.01
1038.372	-35.21
1038.568	-33.88
1038.764	-31.61
1038.96	-30.18
1039.156	-29.38
1039.352	-29.25
1039.547	-27.07
1039.743	-25.68
1039.939	-24.03
1040.135	-24.83
1040.331	-26.57
1040.526	-24.71
1040.722	-27.08
1040.918	-28.24
1041.113	-32.71
1041.309	-33.51
1041.505	-36.27
1041.7	-34.07
1041.896	-34.12
1042.091	-33.37
1042.287	-31.87
1042.482	-32.05
1042.678	-31.17
1042.873	-30.96
1043.069	-31.62
1043.264	-28.9
1043.459	-26.62
1043.655	-25.6
1043.85	-25.74
1044.045	-24.29
1044.24	-24.3
1044.436	-21.14
1044.631	-21.17
1044.826	-21.25
1045.021	-23.1
1045.216	-22.61
