Data from FLMT021711__19__17-07-05-771.txt Node

Date: Tue Nov 05 17:07:05 CET 2024
User: Etudiants TP
Spectrometer: FLMT02171
Trigger mode: 0
Integration Time (sec): 1,000000E-1
Scans to average: 5
Electric dark correction enabled: true
Nonlinearity correction enabled: false
Boxcar width: 15
XAxis mode: Wavelengths
Number of Pixels in Spectrum: 3648
>>>>>Begin Spectral Data<<<<<
194,658	-61,91
194,923	-60,3
195,188	-55,79
195,453	-54,87
195,717	-49,95
195,982	-47,78
196,247	-46,17
196,512	-48,5
196,777	-46,84
197,042	-45,76
197,307	-46,24
197,572	-43,1
197,837	-43,47
198,101	-40,57
198,366	-37,89
198,631	-36,71
198,896	-29,81
199,161	-22,2
199,425	-14,52
199,69	-6,02
199,955	-5,72
200,22	-8,98
200,484	-9,62
200,749	-8,85
201,014	-6,99
201,278	-7,74
201,543	-7,5
201,807	-7,18
202,072	-5,81
202,337	-6,65
202,601	-6,87
202,866	-9,34
203,13	-7,76
203,395	-8,33
203,659	-7,85
203,924	-9,31
204,189	-8,32
204,453	-5,56
204,717	-2,55
204,982	-1,58
205,246	0,57
205,511	1,88
205,775	1,58
206,04	6,59
206,304	6,88
206,568	8,34
206,833	9,53
207,097	10,14
207,361	11,41
207,626	14,36
207,89	15,36
208,154	16,22
208,419	18,23
208,683	17,52
208,947	20,3
209,211	19,88
209,476	20,89
209,74	20,41
210,004	20,59
210,268	20,58
210,532	22,94
210,796	22,97
211,061	24,06
211,325	24,65
211,589	22,78
211,853	23
212,117	22,93
212,381	22,48
212,645	20,73
212,909	20,03
213,173	18,66
213,437	18,98
213,701	20,59
213,965	22,17
214,229	18,38
214,493	17,51
214,757	15,65
215,021	13,99
215,285	17,52
215,549	19,39
215,813	16,64
216,077	15,37
216,34	16,46
216,604	16,08
216,868	17,34
217,132	16,29
217,396	15,31
217,659	15,42
217,923	13,29
218,187	12,53
218,451	12,66
218,714	9,92
218,978	9,43
219,242	11,67
219,505	12,03
219,769	13,04
220,033	12,96
220,296	14,69
220,56	15,19
220,824	13,58
221,087	15,2
221,351	15,14
221,614	13,97
221,878	14,6
222,142	11,69
222,405	10,79
222,669	12,95
222,932	10,7
223,196	10,05
223,459	6,45
223,722	5,11
223,986	4,46
224,249	4,03
224,513	4,96
224,776	4,76
225,04	4,04
225,303	4,86
225,566	5,15
225,83	6,25
226,093	8,48
226,356	6,16
226,62	5,76
226,883	8,28
227,146	8,33
227,409	7,36
227,673	4,93
227,936	5,18
228,199	5,67
228,462	3,35
228,725	3,13
228,989	3,66
229,252	4,17
229,515	7,22
229,778	6,25
230,041	4,64
230,304	3,55
230,567	4,12
230,83	1,01
231,093	2,17
231,356	2,53
231,619	8,25
231,882	7,74
232,145	8,41
232,408	7,62
232,671	5,32
232,934	4,55
233,197	3,34
233,46	1,34
233,723	2,03
233,986	1,15
234,249	-0,07
234,512	2,46
234,775	4,1
235,037	3,35
235,3	4,71
235,563	4,68
235,826	5,39
236,089	6,92
236,351	6,45
236,614	8,25
236,877	7,7
237,14	9,59
237,402	8,94
237,665	4,57
237,928	4,31
238,19	3,65
238,453	5,96
238,716	5,65
238,978	5,73
239,241	6,05
239,503	7,71
239,766	2,86
240,029	1,6
240,291	6,07
240,554	5,38
240,816	5,86
241,079	6,74
241,341	6,42
241,604	5,98
241,866	3,57
242,129	3,57
242,391	5,83
242,653	5,13
242,916	5,15
243,178	4,34
243,441	5
243,703	4,23
243,965	1,77
244,228	1,42
244,49	1,74
244,752	3,31
245,015	4,19
245,277	5,17
245,539	4,17
245,801	5,83
246,064	6,29
246,326	5,47
246,588	6,12
246,85	8,62
247,112	9,6
247,374	11,08
247,637	12,56
247,899	12,56
248,161	13,98
248,423	8,6
248,685	10,28
248,947	9,33
249,209	8,85
249,471	10,35
249,733	10,97
249,995	9,83
250,257	9,94
250,519	8,65
250,781	10,58
251,043	8,32
251,305	9,06
251,567	10,43
251,829	11,04
252,091	12,08
252,353	9,09
252,615	8,99
252,876	6,56
253,138	5
253,4	0,9
253,662	2,02
253,924	3,11
254,185	4,44
254,447	3,99
254,709	3,43
254,971	3,47
255,232	4,4
255,494	3
255,756	0,91
256,017	0,82
256,279	0,74
256,541	1,26
256,802	0,06
257,064	1,05
257,326	-0,08
257,587	0,12
257,849	1,58
258,11	4,64
258,372	5,61
258,633	5,91
258,895	4,92
259,156	3,75
259,418	3,77
259,679	-1,66
259,941	-2,63
260,202	0,19
260,464	3,12
260,725	3,26
260,987	2,92
261,248	2,13
261,509	3,58
261,771	2,2
262,032	3,11
262,293	2,53
262,555	3,8
262,816	2,44
263,077	1,4
263,338	-0,21
263,6	0,81
263,861	1
264,122	1,42
264,383	3,55
264,645	4,15
264,906	4,44
265,167	3,82
265,428	4,2
265,689	5,98
265,95	3,98
266,211	4,87
266,473	4,66
266,734	0,66
266,995	-1,61
267,256	-0,74
267,517	0,82
267,778	5,07
268,039	6,26
268,3	4,32
268,561	2,01
268,822	4,17
269,083	2,72
269,344	2,79
269,604	2,05
269,865	2,59
270,126	-0,15
270,387	-0,2
270,648	0,51
270,909	0,8
271,17	-0,53
271,43	-2,3
271,691	-5,47
271,952	-6,05
272,213	-5,69
272,473	-8,42
272,734	-6,95
272,995	-6,18
273,256	-3,95
273,516	-2,45
273,777	-5,66
274,038	-4,21
274,298	-6,39
274,559	-7,59
274,82	-2,34
275,08	-0,35
275,341	2,08
275,601	0,39
275,862	-2,12
276,122	-2,52
276,383	-2,43
276,643	-0,7
276,904	-2,36
277,164	1,26
277,425	0,68
277,685	3,78
277,946	3,52
278,206	4,16
278,467	5,91
278,727	6,3
278,987	5,4
279,248	6,12
279,508	7,43
279,768	9,41
280,029	10,39
280,289	8,2
280,549	7,38
280,81	7,2
281,07	6,45
281,33	7,87
281,59	6,49
281,851	8,13
282,111	8,3
282,371	8,6
282,631	10,08
282,891	8,72
283,151	8,38
283,412	5,09
283,672	5,84
283,932	7,15
284,192	9,03
284,452	8,14
284,712	6,52
284,972	5,73
285,232	2,61
285,492	4,15
285,752	1,84
286,012	6,79
286,272	8,62
286,532	5,64
286,792	5,66
287,052	8,8
287,312	8,25
287,571	7,31
287,831	7,77
288,091	5,74
288,351	5,8
288,611	8,55
288,871	8,22
289,13	8,28
289,39	4,94
289,65	6,4
289,91	6,15
290,17	8,12
290,429	9,32
290,689	7,81
290,949	4,97
291,208	5,23
291,468	8,83
291,728	9,58
291,987	10,9
292,247	8,02
292,506	10,32
292,766	12,23
293,026	11,35
293,285	12,16
293,545	14,54
293,804	14,6
294,064	12,13
294,323	9,88
294,583	11,72
294,842	10,95
295,102	9,45
295,361	10,4
295,621	11,14
295,88	11,4
296,139	10,73
296,399	12,44
296,658	9,65
296,917	9,77
297,177	6,34
297,436	8,28
297,695	6,04
297,955	6,64
298,214	3,58
298,473	5,45
298,732	6,76
298,992	10,12
299,251	10,18
299,51	7,35
299,769	7,5
300,028	7,68
300,287	8
300,547	7,1
300,806	5,96
301,065	8,58
301,324	10,56
301,583	8,27
301,842	6,29
302,101	4,04
302,36	5,22
302,619	5,04
302,878	5,58
303,137	3,23
303,396	4,46
303,655	6,21
303,914	3,52
304,173	5,46
304,432	5,38
304,691	7,47
304,95	5,46
305,208	11,3
305,467	10,66
305,726	10,74
305,985	10,75
306,244	12,35
306,503	10,98
306,761	8,89
307,02	5,19
307,279	5,19
307,537	5,54
307,796	2,74
308,055	-0,32
308,314	2,13
308,572	0,1
308,831	0,32
309,09	0,88
309,348	1,28
309,607	0,84
309,865	3,26
310,124	2,3
310,382	3,48
310,641	3,47
310,9	2,44
311,158	4,06
311,417	3,5
311,675	3,88
311,933	4,95
312,192	4,09
312,45	3,61
312,709	3,82
312,967	2,47
313,226	1,48
313,484	1,32
313,742	1,6
314,001	0,36
314,259	-0,61
314,517	-0,41
314,776	2,39
315,034	5,18
315,292	3,24
315,55	2,76
315,809	3,2
316,067	3,73
316,325	2,25
316,583	4,71
316,841	3,59
317,1	1,56
317,358	-1,41
317,616	-1,3
317,874	-1,85
318,132	-1,02
318,39	-1,99
318,648	-2,74
318,906	-3,06
319,164	-3,45
319,422	-5,55
319,68	-8,08
319,938	-7,33
320,196	-6,26
320,454	-5,02
320,712	-5,41
320,97	-3,49
321,228	-4,72
321,486	-2,83
321,744	-3,49
322,002	-2,11
322,26	-3,68
322,517	-3,82
322,775	-6,18
323,033	-7,65
323,291	-5,15
323,549	-4,12
323,806	-3,28
324,064	-2,97
324,322	-2,54
324,58	-3,05
324,837	-1,3
325,095	-4,25
325,353	-3,34
325,61	-2,86
325,868	-3,74
326,126	-1,36
326,383	-2,49
326,641	-4,28
326,898	-2,82
327,156	-2,55
327,413	-0,67
327,671	1,33
327,928	3,16
328,186	3,55
328,443	3,2
328,701	6,1
328,958	6,52
329,216	6,66
329,473	4,41
329,731	5,31
329,988	5,21
330,245	7,9
330,503	8,58
330,76	8,96
331,017	12,54
331,275	10,78
331,532	10,77
331,789	9,18
332,047	8,9
332,304	6,7
332,561	6,83
332,818	6,81
333,076	10,4
333,333	11,42
333,59	11,58
333,847	13,62
334,104	11,92
334,361	12,04
334,618	12,8
334,876	10,69
335,133	11,39
335,39	9,29
335,647	9,87
335,904	6,13
336,161	3,57
336,418	4,14
336,675	0,66
336,932	1,91
337,189	1,34
337,446	1,96
337,703	0,96
337,96	-1,91
338,216	-2,64
338,473	-4,62
338,73	-3,97
338,987	-4,95
339,244	-2,42
339,501	-4,02
339,757	-3,32
340,014	-1,7
340,271	-1,17
340,528	-0,66
340,785	0,87
341,041	0,96
341,298	-1,17
341,555	-0,89
341,811	-1,67
342,068	-3,83
342,325	-3,11
342,581	-1,3
342,838	-0,3
343,094	-0,32
343,351	0,05
343,608	-2,68
343,864	-0,32
344,121	0,99
344,377	-0,99
344,634	-2,14
344,89	-2,31
345,147	-2,61
345,403	-4,23
345,66	-3,51
345,916	-1,06
346,172	-1,7
346,429	-2,29
346,685	-3,37
346,942	-4,06
347,198	-7,93
347,454	-6,85
347,711	-7,02
347,967	-7,64
348,223	-6,39
348,48	-6,49
348,736	-2,53
348,992	-3,42
349,248	-1,78
349,504	-2,53
349,761	-2,83
350,017	-2,34
350,273	-3,15
350,529	-3,93
350,785	-2,79
351,041	-3,82
351,297	-2,62
351,554	-4,03
351,81	-5,8
352,066	-6,49
352,322	-5,88
352,578	-4,77
352,834	-6,6
353,09	-7,33
353,346	-6,85
353,602	-8,04
353,858	-9,19
354,114	-9,62
354,369	-8,19
354,625	-6,69
354,881	-8,75
355,137	-6,92
355,393	-6,29
355,649	-5,66
355,905	-7,04
356,16	-7,65
356,416	-7,37
356,672	-13,76
356,928	-14
357,183	-15,02
357,439	-14,42
357,695	-14,48
357,951	-11,41
358,206	-10,96
358,462	-11,51
358,718	-12,89
358,973	-12,28
359,229	-13,52
359,484	-12,77
359,74	-11,09
359,996	-11,25
360,251	-9,33
360,507	-10,55
360,762	-11,08
361,018	-8,43
361,273	-9,24
361,529	-7,59
361,784	-7,18
362,04	-5,91
362,295	-6,31
362,55	-6,09
362,806	-3,55
363,061	-1,85
363,316	-2,14
363,572	-0,71
363,827	0,66
364,082	-0,65
364,338	-1,32
364,593	-1,52
364,848	-0,41
365,104	-0,19
365,359	1,22
365,614	1,02
365,869	-0,81
366,124	-1,28
366,38	-2,34
366,635	-1,73
366,89	-1,06
367,145	0,18
367,4	3,75
367,655	4,78
367,91	6,65
368,165	4,98
368,42	4
368,675	5,05
368,93	4,84
369,185	1,69
369,44	1,73
369,695	3,13
369,95	2,16
370,205	2,1
370,46	1,78
370,715	0,96
370,97	0,78
371,225	1,17
371,48	2,28
371,734	2,6
371,989	3,55
372,244	3,37
372,499	5,62
372,754	4,33
373,008	2,77
373,263	0,28
373,518	3,11
373,773	1,4
374,027	0,7
374,282	3,07
374,537	3,39
374,791	3,63
375,046	2,86
375,301	1,37
375,555	-0,87
375,81	-0,44
376,064	1,42
376,319	3,29
376,573	3,14
376,828	0,19
377,082	4,79
377,337	2,64
377,591	0,32
377,846	1,09
378,1	2,94
378,355	1,85
378,609	1,44
378,863	-0,85
379,118	0,62
379,372	-2,16
379,627	-3,74
379,881	-4,83
380,135	-5,79
380,389	-6,75
380,644	-5,84
380,898	-5,54
381,152	-5,3
381,407	-6,02
381,661	-3,07
381,915	-1,77
382,169	-1,44
382,423	-1,93
382,677	-4,62
382,932	-3,75
383,186	-3,59
383,44	-2,36
383,694	-0,85
383,948	-3,88
384,202	-4,4
384,456	-2,63
384,71	-0,73
384,964	-1,6
385,218	-0,07
385,472	0,65
385,726	0,88
385,98	-0,56
386,234	0,44
386,488	-2,12
386,742	-1,08
386,996	-3,93
387,249	-2,3
387,503	-0,06
387,757	0,13
388,011	1,01
388,265	0,71
388,518	1,2
388,772	2,6
389,026	4,42
389,28	2,49
389,533	0,24
389,787	2,22
390,041	0,04
390,295	0,16
390,548	1,19
390,802	3,49
391,055	2,79
391,309	2,1
391,563	0,06
391,816	0,9
392,07	-0,1
392,323	-0,13
392,577	0,3
392,83	1,07
393,084	6,41
393,337	9,82
393,591	10,45
393,844	11,12
394,098	13,16
394,351	17,27
394,604	19,65
394,858	21,53
395,111	21,01
395,364	18,04
395,618	20,74
395,871	20,09
396,124	20,09
396,378	19,39
396,631	18,76
396,884	16,8
397,137	17,26
397,391	19,27
397,644	16,66
397,897	17,12
398,15	18,64
398,403	20,5
398,657	19,94
398,91	20,56
399,163	20,97
399,416	19,83
399,669	19,62
399,922	18,48
400,175	16,59
400,428	15,72
400,681	16,23
400,934	12,13
401,187	10,79
401,44	9,59
401,693	7,89
401,946	5,07
402,199	1,1
402,452	-0,28
402,704	-3,48
402,957	-4,17
403,21	-1,19
403,463	-3,46
403,716	-4,32
403,969	-2,9
404,221	-2,9
404,474	-0,02
404,727	2,22
404,98	2,74
405,232	2,35
405,485	4,31
405,738	7,02
405,99	6,33
406,243	6,83
406,496	5,28
406,748	3,92
407,001	3,14
407,253	4
407,506	3,39
407,759	5,1
408,011	3,83
408,264	4,71
408,516	5,75
408,769	3,75
409,021	4,53
409,274	4,72
409,526	7,35
409,778	7,08
410,031	9,78
410,283	10,29
410,536	14,52
410,788	14,05
411,04	12,97
411,293	15,78
411,545	19,35
411,797	18,37
412,049	18,11
412,302	18,07
412,554	18,58
412,806	16,76
413,058	15,5
413,311	14,68
413,563	12,26
413,815	11,76
414,067	9,67
414,319	10,68
414,571	12,56
414,823	11,44
415,075	10,89
415,328	13,1
415,58	17,01
415,832	19,38
416,084	19,76
416,336	18,26
416,588	22,06
416,84	19,84
417,091	22,22
417,343	18,73
417,595	20,76
417,847	21,13
418,099	21,81
418,351	21,29
418,603	22,72
418,855	23,39
419,106	22,97
419,358	22,18
419,61	22,87
419,862	24,81
420,114	22,51
420,365	21,49
420,617	23,75
420,869	23,42
421,12	23,92
421,372	25,49
421,624	25,61
421,875	26,03
422,127	24,68
422,379	24,32
422,63	27,16
422,882	25,76
423,133	24,21
423,385	24,17
423,636	24,97
423,888	26,88
424,139	29,23
424,391	26,91
424,642	26,67
424,894	25,92
425,145	27,48
425,396	26,48
425,648	30,72
425,899	28,81
426,151	30,16
426,402	30,24
426,653	31,7
426,905	31,2
427,156	30,28
427,407	31,03
427,658	30,34
427,91	30,71
428,161	31,01
428,412	32,6
428,663	35,17
428,914	36,6
429,166	38,97
429,417	40,78
429,668	42,11
429,919	41,33
430,17	42,03
430,421	42,81
430,672	47,75
430,923	49,48
431,174	48,56
431,425	48,14
431,676	48,87
431,927	46,22
432,178	49,6
432,429	50,2
432,68	49,88
432,931	53,04
433,182	56,76
433,433	54,5
433,683	57,94
433,934	58,86
434,185	58,61
434,436	58,68
434,687	61,09
434,937	63,21
435,188	62,92
435,439	64,09
435,69	66,44
435,94	69,23
436,191	71,4
436,442	72,81
436,692	72,78
436,943	72,19
437,194	72,53
437,444	75,97
437,695	81,77
437,945	84,51
438,196	84,76
438,447	86,54
438,697	89,46
438,948	91,52
439,198	92,86
439,449	90,91
439,699	94,75
439,949	96,06
440,2	99,2
440,45	103,35
440,701	103,68
440,951	104,11
441,201	106,13
441,452	106,89
441,702	108,06
441,952	112,28
442,203	115,73
442,453	116,23
442,703	120,65
442,953	124,69
443,204	128,07
443,454	129,88
443,704	131,87
443,954	131,22
444,204	133,57
444,455	138,5
444,705	142,06
444,955	144,6
445,205	146,3
445,455	145,9
445,705	148,55
445,955	151,64
446,205	154,3
446,455	157,18
446,705	160,15
446,955	162,59
447,205	168,44
447,455	172,09
447,705	172,15
447,955	174,16
448,205	177,35
448,454	181,47
448,704	185,6
448,954	187,87
449,204	190,1
449,454	192,94
449,704	194,43
449,953	196,15
450,203	201,22
450,453	200,91
450,703	204,38
450,952	205,38
451,202	207,77
451,452	208,85
451,701	213,53
451,951	217,25
452,201	217,9
452,45	218,5
452,7	220,85
452,949	222,43
453,199	224,56
453,448	228,05
453,698	230,54
453,947	228,52
454,197	228,3
454,446	227,38
454,696	231,35
454,945	230,29
455,195	228,85
455,444	229,99
455,693	234,12
455,943	231,28
456,192	230,29
456,442	228,9
456,691	228,01
456,94	226,49
457,189	224,48
457,439	225,57
457,688	226,41
457,937	223,52
458,186	223,17
458,436	220,33
458,685	221,41
458,934	219,14
459,183	217,17
459,432	217,17
459,681	216,04
459,93	212,21
460,179	209,95
460,429	206,45
460,678	206,58
460,927	205,25
461,176	202,18
461,425	199,58
461,674	200,38
461,923	198,98
462,172	197,09
462,42	193,16
462,669	192,19
462,918	189,7
463,167	187,31
463,416	180,16
463,665	179,38
463,914	178,11
464,162	174,85
464,411	173,45
464,66	174,8
464,909	171,37
465,158	167,37
465,406	164,3
465,655	164,4
465,904	163,14
466,152	161,9
466,401	159,63
466,65	159,28
466,898	157,35
467,147	151,39
467,395	148,6
467,644	149,92
467,893	148,38
468,141	147,75
468,39	142,74
468,638	140,07
468,887	135,11
469,135	132,75
469,384	129,99
469,632	129,01
469,88	126,18
470,129	125,78
470,377	122,39
470,626	124,49
470,874	124,19
471,122	124,53
471,371	120,82
471,619	118,85
471,867	120,03
472,115	117,96
472,364	114,35
472,612	116,27
472,86	114,73
473,108	114,52
473,356	112,31
473,605	108,14
473,853	105,35
474,101	102,32
474,349	100,58
474,597	101,64
474,845	100,04
475,093	97,95
475,341	93,73
475,589	92,83
475,837	93,02
476,085	93,39
476,333	91,7
476,581	93,68
476,829	93,12
477,077	94,41
477,325	92,33
477,573	94,79
477,821	92,08
478,069	92,22
478,317	89,85
478,564	92,03
478,812	90,45
479,06	90,67
479,308	88,87
479,555	88,43
479,803	87,83
480,051	89,12
480,299	89
480,546	90,14
480,794	85,6
481,042	85,1
481,289	86,9
481,537	88,08
481,784	87,42
482,032	89,82
482,28	88,33
482,527	88,19
482,775	87,36
483,022	88,22
483,27	89,89
483,517	91,4
483,765	90,48
484,012	91,48
484,259	88,55
484,507	89,82
484,754	91,39
485,002	90,83
485,249	88,61
485,496	91,99
485,744	90,71
485,991	90,79
486,238	88,93
486,486	92,73
486,733	93,48
486,98	95,65
487,227	93,56
487,474	95,41
487,722	96
487,969	93,69
488,216	92,64
488,463	94,92
488,71	94,32
488,957	94,51
489,204	94,88
489,451	95,74
489,699	94,34
489,946	91,77
490,193	91,49
490,44	92,93
490,687	94,31
490,934	91,82
491,18	90,02
491,427	91,37
491,674	92,52
491,921	94,44
492,168	93,35
492,415	89,64
492,662	91,63
492,909	92,58
493,155	91,05
493,402	91,96
493,649	91,21
493,896	92,39
494,142	88,26
494,389	87,04
494,636	85,68
494,883	84,67
495,129	83,99
495,376	83,31
495,623	85,64
495,869	88,9
496,116	90,15
496,362	92,82
496,609	95,37
496,855	100,07
497,102	99,39
497,348	98,98
497,595	102,32
497,841	106,62
498,088	106,97
498,334	106,9
498,581	106,62
498,827	106,76
499,074	107,73
499,32	109,37
499,566	112,89
499,813	115,42
500,059	114,88
500,305	115,22
500,552	116,83
500,798	117,1
501,044	121,39
501,29	120,44
501,537	118,24
501,783	121,21
502,029	125,41
502,275	122,82
502,521	123,25
502,767	123,73
503,013	126,38
503,26	124,2
503,506	120,73
503,752	122,28
503,998	120,98
504,244	122,33
504,49	117,41
504,736	119,88
504,982	120,39
505,228	120,91
505,474	120,67
505,72	121,23
505,966	120,05
506,211	122,43
506,457	121,22
506,703	120,22
506,949	118,89
507,195	116,57
507,441	113,26
507,686	116,44
507,932	115,29
508,178	116,44
508,424	114,76
508,669	112,18
508,915	112,05
509,161	113,81
509,406	114,99
509,652	114,9
509,898	119,24
510,143	120,11
510,389	118,89
510,634	115,7
510,88	119,26
511,125	120,93
511,371	118,99
511,616	118,48
511,862	113,86
512,107	112,98
512,353	113,25
512,598	114,09
512,844	112,57
513,089	110,75
513,335	110,88
513,58	111,01
513,825	111,4
514,071	111,1
514,316	111,11
514,561	112,79
514,806	111,49
515,052	114,46
515,297	113,24
515,542	115,71
515,787	115,73
516,033	117,91
516,278	116,58
516,523	117,75
516,768	116,89
517,013	114,34
517,258	113,59
517,503	112,05
517,748	112
517,993	111,72
518,238	112,38
518,483	110,4
518,728	109,33
518,973	108,51
519,218	108,77
519,463	111
519,708	111,03
519,953	110,85
520,198	109,89
520,443	112,4
520,688	113,65
520,933	111,71
521,177	113,08
521,422	111,76
521,667	115,47
521,912	113,66
522,157	109,1
522,401	112,45
522,646	110,16
522,891	110,16
523,135	109,63
523,38	109,13
523,625	108,11
523,869	110,88
524,114	110,37
524,358	109,21
524,603	109,6
524,848	106,88
525,092	106,96
525,337	108,01
525,581	110
525,826	110,2
526,07	109,86
526,315	111,31
526,559	112,22
526,803	110,72
527,048	112,18
527,292	112,03
527,537	110,6
527,781	111,19
528,025	107,91
528,269	109,62
528,514	110,56
528,758	109,29
529,002	107,05
529,247	109,12
529,491	108,93
529,735	113,91
529,979	112,19
530,223	113,22
530,467	111,19
530,712	109,33
530,956	108,35
531,2	109,51
531,444	107,16
531,688	108,95
531,932	109,4
532,176	109,73
532,42	110,88
532,664	112,12
532,908	111,34
533,152	109,2
533,396	109,73
533,64	109,18
533,884	106,32
534,128	105,39
534,371	106,12
534,615	107,28
534,859	107,33
535,103	107,18
535,347	106,69
535,59	107,98
535,834	105,21
536,078	106,89
536,322	107,51
536,565	112,16
536,809	109,31
537,053	111,85
537,296	107,82
537,54	107,5
537,784	107,04
538,027	108,26
538,271	106,88
538,514	106,02
538,758	104,2
539,001	102,55
539,245	102,5
539,488	102,65
539,732	103,55
539,975	104,24
540,219	104,71
540,462	104,83
540,706	107,06
540,949	105,15
541,192	104,48
541,436	109,89
541,679	112,75
541,922	114,16
542,166	111,41
542,409	111,85
542,652	112,49
542,895	112,36
543,139	112,93
543,382	116,42
543,625	115,27
543,868	114,91
544,111	113,21
544,354	111,26
544,598	109,09
544,841	110,63
545,084	111,1
545,327	111,02
545,57	112,29
545,813	114,11
546,056	112,69
546,299	111,64
546,542	114,22
546,785	115,34
547,028	115,68
547,271	115,17
547,514	114,46
547,756	112,79
547,999	111,51
548,242	111,29
548,485	110,37
548,728	111,58
548,971	107,5
549,213	107,75
549,456	106,84
549,699	105,46
549,942	104,45
550,184	103,65
550,427	103,96
550,67	103,38
550,912	99,11
551,155	99,89
551,398	99,99
551,64	98,52
551,883	99,01
552,125	98,93
552,368	100,04
552,61	97,08
552,853	97,85
553,095	95,79
553,338	94,8
553,58	96,34
553,823	97,04
554,065	98,33
554,308	94,85
554,55	93,25
554,792	89,9
555,035	88,11
555,277	87,42
555,519	87,4
555,762	84,57
556,004	84,73
556,246	80,51
556,488	81,67
556,731	77,74
556,973	78,07
557,215	77,26
557,457	78,28
557,699	80,18
557,941	77,33
558,183	76,68
558,426	77,29
558,668	73,5
558,91	72,42
559,152	73,53
559,394	73,59
559,636	74,04
559,878	72,93
560,12	71,75
560,362	73,68
560,604	74,04
560,845	73,09
561,087	71,59
561,329	73,12
561,571	71,14
561,813	72,1
562,055	70,72
562,297	72,29
562,538	74,02
562,78	75,68
563,022	73,8
563,264	75,83
563,505	76,37
563,747	77,57
563,989	73,93
564,23	75,17
564,472	73,58
564,714	75,45
564,955	75,8
565,197	72,7
565,438	73,27
565,68	75,98
565,921	75,79
566,163	77,55
566,404	77,29
566,646	78,45
566,887	78,39
567,129	79,53
567,37	78,71
567,612	79,75
567,853	75,36
568,094	75,99
568,336	75,64
568,577	76,13
568,818	75,03
569,06	73,33
569,301	70,65
569,542	70,9
569,783	71,92
570,025	70,45
570,266	70,25
570,507	71,83
570,748	71,95
570,989	71,15
571,23	73,06
571,472	74,22
571,713	72,49
571,954	73,22
572,195	71,04
572,436	71,65
572,677	73,09
572,918	73,98
573,159	69,96
573,4	67,64
573,641	66,66
573,882	66,78
574,123	63,9
574,364	60,38
574,604	60,22
574,845	58,65
575,086	59,69
575,327	59,7
575,568	57,21
575,809	56,49
576,049	55,12
576,29	53,07
576,531	57,15
576,771	59,72
577,012	61,42
577,253	62,19
577,494	61,82
577,734	61,83
577,975	61,96
578,215	61,04
578,456	60,12
578,697	59,87
578,937	60,82
579,178	59,89
579,418	58,65
579,659	59,51
579,899	56,78
580,14	56,19
580,38	56,57
580,62	57,53
580,861	60,25
581,101	59,53
581,342	59,69
581,582	57,87
581,822	60,37
582,063	59,12
582,303	60,13
582,543	59,03
582,783	61,07
583,024	62,39
583,264	66,6
583,504	65,78
583,744	68,72
583,984	65,55
584,224	65,19
584,465	63,66
584,705	62,08
584,945	62,85
585,185	62,06
585,425	62,38
585,665	61,26
585,905	59,63
586,145	60,1
586,385	58,66
586,625	61,23
586,865	60,3
587,105	59,95
587,345	60,61
587,585	59,93
587,824	58,68
588,064	58,75
588,304	57,05
588,544	58,74
588,784	56,35
589,024	58,01
589,263	57,04
589,503	55,31
589,743	56,97
589,982	57
590,222	56,54
590,462	56
590,701	52,43
590,941	55,58
591,181	53,08
591,42	53,14
591,66	56,19
591,899	59,06
592,139	59,38
592,378	59,47
592,618	59,03
592,857	59,37
593,097	60,97
593,336	62,98
593,576	61,85
593,815	63,47
594,055	63,14
594,294	64,08
594,533	64,09
594,773	63,32
595,012	64,84
595,251	66,06
595,491	69,19
595,73	70,61
595,969	70,58
596,208	72,61
596,447	77,49
596,687	78,43
596,926	79,12
597,165	77,44
597,404	78,84
597,643	78,44
597,882	77,71
598,121	78,27
598,36	77,71
598,599	78,65
598,838	77,77
599,077	73,88
599,316	74,23
599,555	73,63
599,794	74,37
600,033	76,08
600,272	76,73
600,511	75,34
600,75	76,91
600,989	78,8
601,228	77,6
601,466	77,83
601,705	78,41
601,944	78,15
602,183	79,94
602,422	78,62
602,66	77,48
602,899	75,68
603,138	75,7
603,376	75,12
603,615	76,4
603,854	73,49
604,092	74,75
604,331	75,98
604,569	77,14
604,808	76,58
605,047	77,71
605,285	78,53
605,524	79,77
605,762	79,47
606	83,15
606,239	84,26
606,477	84,48
606,716	81,39
606,954	80,93
607,193	78,74
607,431	75,42
607,669	74,25
607,908	73,28
608,146	73,95
608,384	73,82
608,622	75,43
608,861	74
609,099	73,18
609,337	72,56
609,575	71,82
609,813	73,55
610,052	73,44
610,29	69,03
610,528	67,59
610,766	67,26
611,004	66,25
611,242	64,49
611,48	63,6
611,718	62,59
611,956	61,58
612,194	60,37
612,432	59,96
612,67	58,91
612,908	59,18
613,146	57,04
613,384	53,98
613,621	53
613,859	55,31
614,097	54,42
614,335	54,37
614,573	55,71
614,811	56,57
615,048	56,27
615,286	56,39
615,524	55,79
615,761	53,28
615,999	52,32
616,237	53,5
616,474	56,46
616,712	58,81
616,95	58,34
617,187	56,68
617,425	57,75
617,662	59,93
617,9	59,07
618,137	57,88
618,375	56,67
618,612	55,49
618,85	57,17
619,087	58,22
619,325	57,43
619,562	57,06
619,799	56,34
620,037	55,94
620,274	54,5
620,511	56,62
620,749	54,05
620,986	52,69
621,223	49,3
621,461	50,29
621,698	51,86
621,935	49,53
622,172	49,04
622,409	50,73
622,647	51,52
622,884	49,49
623,121	50,14
623,358	48,42
623,595	48,79
623,832	47,07
624,069	44,44
624,306	45,36
624,543	47,76
624,78	48,87
625,017	48,41
625,254	50,32
625,491	51,52
625,728	53,33
625,965	54,6
626,202	52,75
626,438	52,27
626,675	52,72
626,912	55,3
627,149	55,27
627,386	55,4
627,622	55,31
627,859	54,36
628,096	55,83
628,333	56,92
628,569	57,19
628,806	58,73
629,043	58,17
629,279	60,63
629,516	62,16
629,752	58,81
629,989	58,84
630,225	57,86
630,462	58,84
630,699	59,61
630,935	56,93
631,171	55,38
631,408	56,52
631,644	54,99
631,881	52,3
632,117	49,12
632,354	50,07
632,59	50,03
632,826	49,39
633,063	49,56
633,299	50,83
633,535	48,95
633,771	48,59
634,008	49,56
634,244	47,61
634,48	45,76
634,716	47,7
634,953	46,21
635,189	46,37
635,425	48,18
635,661	50,34
635,897	50,72
636,133	49,2
636,369	48,59
636,605	45,98
636,841	45,36
637,077	46,6
637,313	46,98
637,549	47,92
637,785	46,16
638,021	46,44
638,257	46,45
638,493	48,22
638,729	46,38
638,965	49,22
639,2	50,45
639,436	50,43
639,672	49,95
639,908	47,67
640,144	51,88
640,379	53,34
640,615	50,37
640,851	52,97
641,086	54,11
641,322	52,66
641,558	53,04
641,793	54,17
642,029	51,27
642,264	50,94
642,5	52,24
642,736	48,34
642,971	47,74
643,207	46,53
643,442	44,72
643,678	44,22
643,913	44,53
644,148	43,35
644,384	46,16
644,619	45,6
644,855	46,35
645,09	47,22
645,325	46,87
645,561	48
645,796	45,76
646,031	47,44
646,266	44,34
646,502	43,01
646,737	45,15
646,972	46,59
647,207	46,36
647,442	43,37
647,678	39,47
647,913	41,13
648,148	41,77
648,383	39,66
648,618	39,79
648,853	39,93
649,088	42,31
649,323	45,25
649,558	46,29
649,793	44,28
650,028	46
650,263	42,93
650,498	44,13
650,733	45,01
650,968	44,19
651,202	45,81
651,437	44,74
651,672	41,07
651,907	40,24
652,142	40,64
652,376	41,17
652,611	42,94
652,846	43,01
653,081	41,6
653,315	41,03
653,55	42,11
653,785	41,02
654,019	41,73
654,254	39,92
654,488	41
654,723	37,77
654,958	36,37
655,192	35,06
655,427	32,22
655,661	35,02
655,896	36,47
656,13	37,63
656,364	34,02
656,599	31,78
656,833	34,36
657,068	35,83
657,302	35,97
657,536	35,61
657,771	37,35
658,005	38,23
658,239	39,29
658,474	37,69
658,708	38,23
658,942	39,28
659,176	38,04
659,41	36,29
659,645	35,74
659,879	33,99
660,113	30,58
660,347	31,7
660,581	29,43
660,815	29,14
661,049	29,07
661,283	25,85
661,517	22,71
661,751	21,99
661,985	21,92
662,219	23,49
662,453	22,35
662,687	22,62
662,921	17,8
663,155	16,56
663,389	10,95
663,622	10,73
663,856	12,95
664,09	9,41
664,324	8,37
664,558	7,24
664,791	5,9
665,025	4,53
665,259	3,28
665,492	1,8
665,726	3,25
665,96	2,76
666,193	0,28
666,427	1,67
666,661	0,39
666,894	-1,13
667,128	-1,5
667,361	1,6
667,595	1,91
667,828	1,84
668,062	0,7
668,295	0,53
668,529	1,32
668,762	2,37
668,995	0,74
669,229	3,45
669,462	3,91
669,695	4,81
669,929	2,81
670,162	5,04
670,395	4,78
670,629	6,84
670,862	8,03
671,095	4,6
671,328	6,31
671,561	4,53
671,795	6,06
672,028	8,06
672,261	8,49
672,494	9,75
672,727	9,42
672,96	11,35
673,193	11,25
673,426	14,69
673,659	15,01
673,892	15,48
674,125	15,22
674,358	13,85
674,591	12,27
674,824	9,65
675,057	9,44
675,29	8,6
675,523	10,99
675,755	10,41
675,988	11,73
676,221	14,53
676,454	13,39
676,687	13,82
676,919	13,8
677,152	14,25
677,385	12,63
677,617	12,2
677,85	13,29
678,083	11,53
678,315	13,19
678,548	10,91
678,78	10,2
679,013	8,65
679,246	9,2
679,478	8,04
679,711	6,68
679,943	7,44
680,175	4,15
680,408	7,34
680,64	3,68
680,873	4,21
681,105	5,21
681,338	8,03
681,57	9
681,802	9,05
682,034	11,01
682,267	13,92
682,499	14,93
682,731	12,03
682,964	11,69
683,196	9,48
683,428	7,39
683,66	5,62
683,892	7,63
684,124	9,66
684,356	12,51
684,589	13,48
684,821	12,59
685,053	12,52
685,285	13,63
685,517	13,85
685,749	14,69
685,981	16,09
686,213	17,23
686,445	16,25
686,676	14,64
686,908	15,2
687,14	14,78
687,372	15,25
687,604	12,23
687,836	13,42
688,068	13,37
688,299	12,25
688,531	9,87
688,763	13,21
688,995	12,39
689,226	13,88
689,458	11,85
689,69	10,81
689,921	10,58
690,153	9,68
690,384	11,26
690,616	12,09
690,848	13,31
691,079	11,55
691,311	8,65
691,542	5,44
691,774	3
692,005	5,49
692,237	7,45
692,468	5,23
692,699	3,77
692,931	3,56
693,162	1,97
693,393	0,73
693,625	0,46
693,856	2,16
694,087	1,26
694,319	1,93
694,55	1,91
694,781	1,07
695,012	1,19
695,243	-1,6
695,475	-3,07
695,706	-2,56
695,937	-4,33
696,168	-4,28
696,399	-5,22
696,63	-4,61
696,861	-5,41
697,092	-2,31
697,323	0,14
697,554	1,26
697,785	0,73
698,016	1,57
698,247	0,12
698,478	2,78
698,709	4,35
698,94	7,25
699,171	6,22
699,401	3,51
699,632	5,75
699,863	4,79
700,094	4,88
700,325	8,02
700,555	8,51
700,786	10,23
701,017	9,5
701,247	9,25
701,478	8,71
701,709	8,73
701,939	8,42
702,17	10,22
702,401	13,67
702,631	16,19
702,862	13,98
703,092	11,34
703,323	13,82
703,553	14,18
703,784	14,08
704,014	14,4
704,244	10,05
704,475	9,58
704,705	9,85
704,936	10,46
705,166	9,16
705,396	9,03
705,627	8,23
705,857	9,39
706,087	10,06
706,317	8,57
706,548	5,9
706,778	3,99
707,008	4,79
707,238	5,5
707,468	1,78
707,698	0,64
707,928	-0,7
708,158	-0,92
708,389	-0,68
708,619	-1,53
708,849	-2,19
709,079	-0,73
709,309	-2,29
709,539	-5,65
709,768	-6,35
709,998	-3,46
710,228	-3,22
710,458	-4,47
710,688	-5,93
710,918	-7,08
711,148	-7,18
711,378	-6,22
711,607	-7,6
711,837	-7,25
712,067	-8,21
712,297	-7,5
712,526	-7,59
712,756	-7,65
712,986	-10,45
713,215	-12,36
713,445	-11,75
713,674	-9,43
713,904	-9,11
714,134	-7,12
714,363	-8,06
714,593	-7,15
714,822	-7
715,052	-6,39
715,281	-6,5
715,511	-7,51
715,74	-6,86
715,969	-7,7
716,199	-9,03
716,428	-9,96
716,657	-9,32
716,887	-7,6
717,116	-10,02
717,345	-9,03
717,575	-8,91
717,804	-8,76
718,033	-8,72
718,262	-8,25
718,492	-8,21
718,721	-7,1
718,95	-7,56
719,179	-8,72
719,408	-8,29
719,637	-9,86
719,866	-10,78
720,095	-9,59
720,324	-10,39
720,553	-12,9
720,782	-14,34
721,011	-14,11
721,24	-16,84
721,469	-17,89
721,698	-17,11
721,927	-17,16
722,156	-20,24
722,385	-19,74
722,613	-17,01
722,842	-16,66
723,071	-13,78
723,3	-12,73
723,529	-13,24
723,757	-13,45
723,986	-17,34
724,215	-16,43
724,443	-15,05
724,672	-13,56
724,901	-13,35
725,129	-12,88
725,358	-10,98
725,586	-13,55
725,815	-14,18
726,043	-16,19
726,272	-17,51
726,5	-17,96
726,729	-15,78
726,957	-19,61
727,186	-20,55
727,414	-18,87
727,642	-16,68
727,871	-14,5
728,099	-14,44
728,327	-13,53
728,556	-10,49
728,784	-10,62
729,012	-12,77
729,241	-9
729,469	-9,86
729,697	-11,24
729,925	-11,03
730,153	-13,23
730,381	-12,64
730,61	-12,19
730,838	-13,4
731,066	-10,52
731,294	-11,31
731,522	-13,59
731,75	-17,53
731,978	-17,67
732,206	-18,33
732,434	-19,81
732,662	-16,55
732,89	-18,2
733,118	-17,86
733,346	-16,34
733,573	-16,2
733,801	-16,74
734,029	-10,3
734,257	-8,48
734,485	-6,84
734,712	-6,55
734,94	-9,03
735,168	-6,19
735,396	-5,97
735,623	-7,63
735,851	-7,61
736,078	-4,79
736,306	-3,93
736,534	-4,4
736,761	-3,39
736,989	-5,4
737,216	-5,98
737,444	-7,5
737,671	-5,89
737,899	-1,62
738,126	-3,84
738,354	-5
738,581	-3,97
738,809	-2,38
739,036	-4,43
739,263	-4,23
739,491	-5,75
739,718	-6,1
739,945	-1,23
740,173	0,56
740,4	-0,23
740,627	-1,76
740,854	-2,16
741,081	-4,63
741,309	-7,16
741,536	-10,7
741,763	-11,29
741,99	-9,91
742,217	-10,22
742,444	-11,09
742,671	-10,87
742,898	-10,98
743,125	-13,65
743,352	-16,73
743,579	-15,91
743,806	-16,82
744,033	-15,27
744,26	-13,61
744,487	-14,41
744,714	-15
744,941	-16,16
745,167	-12,92
745,394	-12,16
745,621	-13,04
745,848	-12,78
746,075	-10,17
746,301	-7,56
746,528	-3,81
746,755	-4,97
746,981	-6,07
747,208	-5,04
747,435	-2,88
747,661	-1,57
747,888	-0,01
748,114	-1,56
748,341	0,48
748,567	2,25
748,794	1,23
749,02	0,31
749,247	-1,74
749,473	-1,59
749,7	-1,94
749,926	-2,55
750,152	1,27
750,379	0,85
750,605	1,41
750,831	0,73
751,058	0,1
751,284	-0,51
751,51	2,57
751,737	4,02
751,963	2,63
752,189	1,17
752,415	0,63
752,641	1,07
752,867	1,22
753,094	-0,1
753,32	-1,41
753,546	-3,26
753,772	-1,49
753,998	-3,31
754,224	-4,07
754,45	-4,28
754,676	-5,8
754,902	-7,35
755,128	-7,63
755,354	-7,5
755,579	-5,61
755,805	-4,11
756,031	-5,01
756,257	-4,84
756,483	-6,07
756,709	-7,45
756,934	-6,74
757,16	-8,84
757,386	-8,37
757,612	-10,52
757,837	-10,95
758,063	-7,89
758,289	-6,73
758,514	-9,05
758,74	-10,98
758,965	-12,92
759,191	-10,26
759,416	-9,37
759,642	-7,62
759,868	-7,05
760,093	-5,7
760,318	-7,12
760,544	-7,05
760,769	-8,02
760,995	-7,6
761,22	-8,57
761,445	-7,11
761,671	-4,72
761,896	-1,47
762,121	-0,16
762,347	-0,71
762,572	-3,77
762,797	-4,86
763,022	-3,66
763,248	-1,63
763,473	-0,27
763,698	-1,45
763,923	-2,31
764,148	-2,22
764,373	-2,37
764,598	-0,94
764,823	-0,05
765,048	-3,85
765,273	-6,17
765,498	-6,29
765,723	-7,52
765,948	-5,49
766,173	-7,85
766,398	-6,96
766,623	-10,29
766,848	-12,08
767,073	-12,94
767,298	-11,89
767,522	-12,49
767,747	-11,82
767,972	-12,7
768,197	-11,37
768,421	-14,14
768,646	-17,14
768,871	-21,17
769,095	-20,78
769,32	-20,1
769,545	-20,48
769,769	-18,91
769,994	-17,61
770,218	-18,78
770,443	-17,41
770,667	-15,95
770,892	-14,27
771,116	-15,77
771,341	-15,01
771,565	-16,04
771,79	-15,97
772,014	-15,61
772,238	-16,52
772,463	-15,47
772,687	-14,53
772,911	-15,45
773,136	-17,29
773,36	-17,09
773,584	-15,27
773,808	-16,41
774,033	-16,8
774,257	-17,76
774,481	-19,38
774,705	-20,12
774,929	-19,5
775,153	-19,33
775,377	-16,39
775,602	-16,43
775,826	-14,73
776,05	-13,74
776,274	-14,53
776,498	-12,64
776,722	-13,62
776,945	-13,72
777,169	-14,69
777,393	-15,52
777,617	-16,34
777,841	-15,94
778,065	-15,08
778,289	-15,83
778,512	-15,61
778,736	-14,84
778,96	-15
779,184	-12,3
779,407	-12,12
779,631	-11,94
779,855	-13,01
780,078	-10,72
780,302	-11,44
780,526	-13,4
780,749	-11,98
780,973	-10,36
781,196	-8,82
781,42	-9,16
781,643	-8,58
781,867	-8,21
782,09	-11,84
782,314	-13,05
782,537	-12,94
782,76	-13,37
782,984	-12,52
783,207	-13,63
783,431	-15,1
783,654	-16,21
783,877	-18,21
784,1	-19,55
784,324	-21,24
784,547	-21,42
784,77	-23,85
784,993	-22,83
785,216	-22,35
785,44	-22,45
785,663	-24,38
785,886	-22,17
786,109	-23,38
786,332	-23,47
786,555	-23,7
786,778	-21,6
787,001	-22,32
787,224	-22,14
787,447	-19,91
787,67	-20,19
787,893	-20,37
788,116	-21,25
788,339	-21,23
788,561	-22,03
788,784	-24,58
789,007	-24,76
789,23	-26,41
789,453	-26,22
789,675	-28,46
789,898	-30,32
790,121	-30,97
790,344	-30,92
790,566	-30,01
790,789	-28,98
791,012	-28,05
791,234	-24,12
791,457	-21,01
791,679	-20,28
791,902	-20,47
792,124	-21,4
792,347	-22,42
792,569	-22,96
792,792	-24,66
793,014	-22,63
793,237	-21,33
793,459	-20,62
793,681	-21,22
793,904	-21,6
794,126	-22,39
794,348	-23,72
794,571	-20,87
794,793	-21,62
795,015	-19,66
795,237	-19,44
795,46	-17,81
795,682	-15,2
795,904	-13,13
796,126	-13,45
796,348	-14,01
796,57	-10,01
796,792	-9,23
797,014	-4,78
797,237	-3,6
797,459	-0,33
797,681	-0,72
797,903	-1,93
798,124	-2,57
798,346	8,39
798,568	9,07
798,79	10,8
799,012	12,77
799,234	14,25
799,456	16,2
799,678	16,55
799,899	15,27
800,121	12,11
800,343	12,29
800,565	12,47
800,786	13,04
801,008	14,56
801,23	14,27
801,451	14,8
801,673	13,8
801,895	13,99
802,116	15,57
802,338	16,37
802,559	14,45
802,781	11,91
803,002	14,08
803,224	16,26
803,445	13,88
803,667	14,65
803,888	12,82
804,109	11,98
804,331	9,63
804,552	11,37
804,773	14,08
804,995	11,31
805,216	-2,57
805,437	-4,01
805,658	-5,86
805,88	-7,85
806,101	-7,31
806,322	-8,05
806,543	-7,63
806,764	-10,94
806,985	-8,62
807,207	-8,72
807,428	-8,33
807,649	-10,65
807,87	-12,62
808,091	-11,81
808,312	-13,19
808,533	-9,77
808,754	-9,63
808,975	-10,63
809,195	-8,94
809,416	-8,79
809,637	-8,34
809,858	-9,61
810,079	-11,81
810,3	-10,37
810,52	-11,37
810,741	-15,29
810,962	-16,04
811,183	-17,24
811,403	-17,7
811,624	-18,6
811,845	-16,6
812,065	-13,89
812,286	-13,55
812,506	-14,09
812,727	-13,38
812,948	-12,13
813,168	-9,88
813,389	-11,26
813,609	-7,82
813,83	-7,85
814,05	-9,6
814,27	-9,87
814,491	-7,08
814,711	-6,23
814,931	-7,54
815,152	-7,41
815,372	-8,85
815,592	-10,29
815,813	-11,46
816,033	-13,7
816,253	-12,43
816,473	-12,1
816,694	-11,58
816,914	-9,24
817,134	-9,7
817,354	-11,99
817,574	-9,76
817,794	-9,24
818,014	-9,39
818,234	-9,4
818,454	-10,89
818,674	-13,28
818,894	-16,23
819,114	-14,26
819,334	-13,25
819,554	-12,08
819,774	-10,49
819,994	-12,84
820,214	-14,25
820,433	-14,08
820,653	-14,41
820,873	-10,77
821,093	-10,48
821,312	-13,24
821,532	-10,96
821,752	-9,82
821,972	-11,4
822,191	-10,47
822,411	-11,99
822,63	-10,57
822,85	-10,45
823,07	-14,36
823,289	-13,57
823,509	-15,02
823,728	-13,64
823,948	-13,64
824,167	-12,6
824,387	-13,33
824,606	-12,23
824,825	-13,49
825,045	-13,66
825,264	-13,92
825,483	-12,07
825,703	-10,74
825,922	-11,96
826,141	-12,86
826,361	-12,68
826,58	-16,09
826,799	-17,25
827,018	-14,6
827,237	-14,91
827,456	-14,28
827,676	-14,82
827,895	-13,8
828,114	-12,11
828,333	-14,18
828,552	-14,45
828,771	-13,96
828,99	-17,19
829,209	-16,14
829,428	-14,69
829,647	-15,19
829,866	-12,63
830,084	-12,85
830,303	-12,44
830,522	-13,64
830,741	-14,74
830,96	-15,29
831,179	-15,69
831,397	-17,16
831,616	-16,42
831,835	-17,46
832,053	-15,87
832,272	-16,17
832,491	-14,87
832,709	-15,97
832,928	-14,75
833,147	-15,7
833,365	-14,95
833,584	-12,32
833,802	-10,52
834,021	-10,82
834,239	-10,32
834,458	-11,68
834,676	-14,75
834,894	-14,28
835,113	-13,92
835,331	-13,94
835,55	-14,9
835,768	-12,1
835,986	-12,04
836,204	-12,62
836,423	-11,51
836,641	-11,3
836,859	-12,64
837,077	-12,62
837,296	-13,85
837,514	-14,44
837,732	-15
837,95	-14,85
838,168	-11,94
838,386	-12,32
838,604	-10,34
838,822	-10,08
839,04	-11,24
839,258	-11,23
839,476	-9,83
839,694	-10,65
839,912	-11,81
840,13	-12,66
840,348	-10,45
840,566	-13,36
840,783	-12,51
841,001	-14,85
841,219	-14,27
841,437	-14,57
841,655	-14,82
841,872	-15,07
842,09	-15,31
842,308	-13,24
842,525	-13,93
842,743	-12,26
842,961	-13,52
843,178	-15,19
843,396	-13,15
843,613	-11,37
843,831	-9,28
844,048	-9,98
844,266	-9,66
844,483	-8,91
844,701	-10,03
844,918	-11,51
845,136	-11,9
845,353	-13,02
845,57	-12,99
845,788	-9,4
846,005	-11,16
846,222	-11,9
846,439	-9,85
846,657	-8,96
846,874	-7,51
847,091	-9,92
847,308	-9,25
847,526	-9,84
847,743	-9,18
847,96	-11,16
848,177	-9,31
848,394	-9,02
848,611	-9,97
848,828	-10,52
849,045	-12,25
849,262	-13,06
849,479	-13,78
849,696	-16,02
849,913	-17,71
850,13	-20,54
850,347	-19,17
850,564	-21,62
850,78	-22,08
850,997	-23,45
851,214	-23,64
851,431	-23,15
851,647	-23,94
851,864	-21,99
852,081	-19,7
852,298	-21,67
852,514	-22,25
852,731	-20,96
852,948	-19,15
853,164	-20,5
853,381	-20,48
853,597	-22,09
853,814	-23,15
854,03	-25,1
854,247	-24,66
854,463	-25,03
854,68	-24,06
854,896	-23,69
855,113	-23,47
855,329	-22,59
855,545	-19,88
855,762	-20,31
855,978	-22,29
856,194	-24,2
856,411	-19,85
856,627	-17,37
856,843	-17,7
857,059	-15,16
857,275	-15,76
857,492	-14,42
857,708	-10,32
857,924	-9,22
858,14	-5,61
858,356	-6,92
858,572	-7,11
858,788	-9,57
859,004	-9,06
859,22	-12,55
859,436	-12,1
859,652	-13,64
859,868	-13,73
860,084	-13,68
860,3	-12,82
860,516	-13,24
860,731	-13,1
860,947	-13,85
861,163	-12,25
861,379	-11,73
861,595	-10,2
861,81	-10,03
862,026	-10,46
862,242	-11,04
862,457	-10,37
862,673	-8,34
862,889	-7,04
863,104	-7,43
863,32	-7,62
863,535	-6,24
863,751	-10,26
863,966	-6,93
864,182	-5,52
864,397	-6,66
864,613	-7,91
864,828	-10,45
865,044	-8,14
865,259	-7
865,474	-6,99
865,69	-5,64
865,905	-3,64
866,12	-6,32
866,336	-6,68
866,551	-4,77
866,766	-6,31
866,981	-7,26
867,196	-7,82
867,412	-6,79
867,627	-7,29
867,842	-8,3
868,057	-8,28
868,272	-9,89
868,487	-10,15
868,702	-12,02
868,917	-12,69
869,132	-11,72
869,347	-12
869,562	-12,98
869,777	-13,22
869,992	-13,72
870,207	-13,41
870,422	-12,97
870,636	-15,82
870,851	-17,43
871,066	-19,59
871,281	-20,18
871,495	-19,85
871,71	-19,24
871,925	-21,97
872,14	-22,79
872,354	-23,79
872,569	-26,09
872,783	-23,49
872,998	-22,1
873,213	-23,44
873,427	-19,53
873,642	-19,51
873,856	-18,75
874,071	-18,73
874,285	-19,48
874,5	-20,12
874,714	-22,22
874,928	-21,94
875,143	-23,28
875,357	-21,76
875,571	-24,24
875,786	-22,79
876	-19,35
876,214	-17,55
876,429	-19,94
876,643	-19,77
876,857	-19,05
877,071	-19,79
877,285	-19,5
877,499	-21,6
877,714	-19,58
877,928	-17,6
878,142	-19,68
878,356	-21,68
878,57	-20,38
878,784	-18,36
878,998	-18,24
879,212	-14,92
879,426	-16,31
879,639	-16,29
879,853	-18,02
880,067	-18,5
880,281	-18,11
880,495	-16,98
880,709	-13,94
880,922	-13,24
881,136	-11,13
881,35	-9,83
881,564	-10,99
881,777	-12,25
881,991	-11,69
882,205	-6,9
882,418	-8,15
882,632	-10,29
882,845	-11,47
883,059	-10,11
883,273	-10,4
883,486	-11,89
883,7	-10,56
883,913	-10,73
884,126	-9,28
884,34	-11,25
884,553	-13,16
884,767	-8,93
884,98	-9,58
885,193	-10,63
885,407	-12,07
885,62	-11,83
885,833	-11,86
886,046	-9,84
886,26	-10,87
886,473	-10,35
886,686	-12,07
886,899	-10,43
887,112	-11,44
887,326	-15,07
887,539	-14,23
887,752	-14,71
887,965	-16,06
888,178	-14,71
888,391	-13,75
888,604	-13,92
888,817	-17,74
889,03	-16,98
889,243	-17,79
889,455	-19,67
889,668	-19,61
889,881	-17,4
890,094	-18,09
890,307	-19,15
890,52	-18,56
890,732	-18,18
890,945	-18,04
891,158	-17,06
891,37	-19,96
891,583	-18,63
891,796	-16,75
892,008	-17,54
892,221	-18,12
892,434	-21,55
892,646	-23,55
892,859	-24,9
893,071	-23,79
893,284	-22,66
893,496	-24,38
893,709	-24,06
893,921	-23,35
894,133	-23,58
894,346	-23,97
894,558	-23,63
894,771	-23,55
894,983	-20,98
895,195	-19,44
895,407	-17,6
895,62	-18,5
895,832	-19,56
896,044	-17,24
896,256	-17,28
896,468	-18,99
896,681	-17,51
896,893	-16,37
897,105	-16,24
897,317	-16,98
897,529	-14,99
897,741	-14,59
897,953	-12,11
898,165	-13,89
898,377	-15,4
898,589	-14,13
898,801	-14,59
899,013	-12,03
899,224	-10,64
899,436	-7,59
899,648	-9,68
899,86	-10,13
900,072	-7,78
900,283	-6,66
900,495	-5,04
900,707	-3,68
900,919	-6,33
901,13	-5,43
901,342	-7,82
901,554	-9,35
901,765	-10,19
901,977	-11,91
902,188	-13,48
902,4	-14,11
902,611	-14,09
902,823	-15,76
903,034	-18,21
903,246	-19
903,457	-19,43
903,669	-19,57
903,88	-18,73
904,091	-19,19
904,303	-18,53
904,514	-20,42
904,725	-18,86
904,936	-18,88
905,148	-19,39
905,359	-17,67
905,57	-18,72
905,781	-19,77
905,992	-20,31
906,204	-18,92
906,415	-20,55
906,626	-23,11
906,837	-20,55
907,048	-21,41
907,259	-22,7
907,47	-22,57
907,681	-23,55
907,892	-20,13
908,103	-21,73
908,314	-23,44
908,525	-22,58
908,735	-23,36
908,946	-23,23
909,157	-25,44
909,368	-22,6
909,579	-20,46
909,789	-22,2
910	-23,47
910,211	-22,42
910,421	-23,17
910,632	-22,53
910,843	-25,75
911,053	-23,83
911,264	-21,46
911,475	-22,24
911,685	-22,6
911,896	-22,58
912,106	-21,54
912,317	-22,54
912,527	-21,66
912,737	-21,51
912,948	-19,7
913,158	-18,57
913,369	-21,72
913,579	-20,93
913,789	-20,73
914	-17,9
914,21	-16,84
914,42	-17,98
914,63	-17,95
914,841	-18,15
915,051	-16,59
915,261	-13,99
915,471	-11,2
915,681	-9,92
915,891	-10,46
916,101	-12,28
916,311	-11,59
916,521	-11,12
916,731	-10,2
916,941	-8,88
917,151	-11,48
917,361	-8,1
917,571	-10,53
917,781	-11,7
917,991	-12,78
918,201	-12,98
918,411	-15,37
918,621	-16,39
918,83	-15,48
919,04	-18,27
919,25	-16,85
919,46	-16,47
919,669	-19,1
919,879	-20,34
920,089	-21,1
920,298	-22,28
920,508	-22,74
920,717	-22,37
920,927	-23,71
921,136	-22,53
921,346	-21,74
921,555	-23,35
921,765	-24,46
921,974	-26,2
922,184	-28,14
922,393	-28,1
922,603	-28,33
922,812	-25,89
923,021	-26,54
923,23	-27,73
923,44	-29,9
923,649	-28,1
923,858	-29,2
924,067	-29,26
924,277	-31,77
924,486	-29,86
924,695	-29,72
924,904	-28,25
925,113	-27,92
925,322	-26,12
925,531	-25,34
925,74	-29,09
925,949	-29,25
926,158	-27,08
926,367	-25,54
926,576	-25,18
926,785	-25,38
926,994	-26,22
927,203	-26,27
927,412	-24,99
927,621	-25,18
927,83	-23,47
928,038	-24
928,247	-23,48
928,456	-23,03
928,665	-21,79
928,873	-20,7
929,082	-17,57
929,291	-17,69
929,499	-15,62
929,708	-17,03
929,916	-15,52
930,125	-17,18
930,333	-17,55
930,542	-14,58
930,75	-11,35
930,959	-11,01
931,167	-10,52
931,376	-11,22
931,584	-10,4
931,793	-10,83
932,001	-10,66
932,209	-10,4
932,418	-13,4
932,626	-14,78
932,834	-16,69
933,042	-18,74
933,251	-18,41
933,459	-17,58
933,667	-17,27
933,875	-18,87
934,083	-18,24
934,291	-17,59
934,499	-16,4
934,707	-16,22
934,915	-17,62
935,123	-16,32
935,331	-16,91
935,539	-19,82
935,747	-21,3
935,955	-22,67
936,163	-22,51
936,371	-22,44
936,579	-20,55
936,787	-20,79
936,995	-23,27
937,202	-26,72
937,41	-26,74
937,618	-27,74
937,826	-27,16
938,033	-30,84
938,241	-32,81
938,449	-31,27
938,656	-29,29
938,864	-28,78
939,071	-28,44
939,279	-26,5
939,486	-23,72
939,694	-23,88
939,901	-25,42
940,109	-24,86
940,316	-24,77
940,524	-23,95
940,731	-26,13
940,939	-25,6
941,146	-27,05
941,353	-27,51
941,561	-27,61
941,768	-29,08
941,975	-27,76
942,182	-28,07
942,39	-27,77
942,597	-25
942,804	-25,81
943,011	-27,11
943,218	-25,15
943,425	-25,25
943,632	-23,35
943,839	-23,17
944,046	-22,27
944,253	-22,2
944,46	-20,86
944,667	-16,93
944,874	-17,7
945,081	-15,11
945,288	-12,58
945,495	-11,57
945,702	-10,81
945,909	-13,39
946,115	-13,35
946,322	-14,68
946,529	-17,33
946,736	-17,21
946,942	-18,37
947,149	-18,32
947,356	-19,1
947,562	-20,45
947,769	-20,48
947,976	-21,29
948,182	-20,05
948,389	-20,44
948,595	-20,96
948,802	-20,46
949,008	-21,63
949,215	-20,34
949,421	-20,47
949,628	-22,96
949,834	-21,98
950,04	-22,42
950,247	-19,7
950,453	-19,23
950,659	-20,44
950,865	-19,18
951,072	-24,23
951,278	-21,76
951,484	-23,94
951,69	-27,56
951,896	-28,09
952,103	-29,09
952,309	-27,77
952,515	-27,25
952,721	-25,01
952,927	-22,99
953,133	-24,06
953,339	-24,77
953,545	-24,4
953,751	-24,31
953,957	-21,73
954,163	-23,3
954,369	-22,41
954,574	-23,8
954,78	-23,32
954,986	-22,34
955,192	-21,71
955,398	-23,01
955,603	-24,46
955,809	-22,7
956,015	-20,54
956,22	-18,82
956,426	-18,04
956,632	-20,97
956,837	-21,68
957,043	-20,9
957,248	-21,03
957,454	-21,01
957,66	-22,76
957,865	-22,32
958,07	-21,12
958,276	-21,67
958,481	-22,61
958,687	-23,29
958,892	-23,62
959,097	-23,58
959,303	-23,39
959,508	-22,33
959,713	-21,87
959,919	-22,06
960,124	-23,02
960,329	-21,85
960,534	-18,6
960,739	-16,69
960,945	-15,04
961,15	-16,42
961,355	-16,93
961,56	-19,44
961,765	-20,35
961,97	-19,52
962,175	-17,44
962,38	-22,19
962,585	-22,24
962,79	-23,6
962,995	-24,14
963,2	-25,38
963,404	-25,23
963,609	-26,2
963,814	-25,3
964,019	-27,96
964,224	-30,27
964,428	-28,48
964,633	-27,48
964,838	-26,96
965,042	-26,11
965,247	-27,05
965,452	-27,24
965,656	-27,08
965,861	-27,14
966,066	-27,32
966,27	-25,73
966,475	-21,68
966,679	-25,78
966,884	-25,08
967,088	-28,35
967,292	-29,48
967,497	-28,14
967,701	-29,8
967,906	-27,87
968,11	-25,2
968,314	-22,95
968,518	-25,45
968,723	-22,06
968,927	-23,02
969,131	-21,82
969,335	-18,97
969,539	-18,28
969,744	-16,4
969,948	-14,65
970,152	-13,07
970,356	-12,12
970,56	-12,54
970,764	-12,86
970,968	-11,31
971,172	-11,69
971,376	-12,06
971,58	-10,23
971,784	-10,12
971,988	-10,71
972,192	-8,93
972,395	-9,16
972,599	-11,92
972,803	-13,54
973,007	-10,65
973,21	-11,4
973,414	-12,33
973,618	-11,86
973,822	-10,94
974,025	-9,65
974,229	-10,05
974,432	-12,33
974,636	-13,59
974,84	-13,05
975,043	-13,55
975,247	-14,83
975,45	-16,65
975,654	-17,38
975,857	-16,07
976,06	-17,27
976,264	-18,22
976,467	-17,5
976,671	-17,81
976,874	-16,82
977,077	-16,89
977,28	-17,97
977,484	-19,73
977,687	-20,93
977,89	-20,35
978,093	-19,42
978,297	-19,35
978,5	-20,17
978,703	-19,09
978,906	-16,66
979,109	-18,11
979,312	-17,79
979,515	-18,48
979,718	-17,81
979,921	-18,64
980,124	-21,73
980,327	-21,24
980,53	-21,71
980,733	-19,84
980,936	-18,8
981,138	-20,74
981,341	-20,22
981,544	-19,59
981,747	-18,39
981,949	-19,56
982,152	-18,54
982,355	-19,64
982,558	-17,23
982,76	-19,83
982,963	-19,95
983,165	-19,06
983,368	-19,03
983,571	-19,82
983,773	-16,37
983,976	-15,55
984,178	-15,09
984,381	-15,44
984,583	-17,18
984,785	-18,09
984,988	-16,57
985,19	-15,98
985,392	-16,2
985,595	-18,63
985,797	-16,78
985,999	-13,84
986,202	-12,3
986,404	-11
986,606	-8,99
986,808	-9,72
987,01	-8,64
987,212	-9,23
987,415	-10,43
987,617	-10,43
987,819	-10,39
988,021	-9,79
988,223	-11,26
988,425	-11,55
988,627	-11,44
988,829	-14,93
989,031	-12,51
989,232	-13,58
989,434	-13,78
989,636	-14
989,838	-14,17
990,04	-13,14
990,242	-13,74
990,443	-16,42
990,645	-15,71
990,847	-12,45
991,048	-12,11
991,25	-14,23
991,452	-14,71
991,653	-15,78
991,855	-14,95
992,057	-15,11
992,258	-16,3
992,46	-15,38
992,661	-15,34
992,863	-15,88
993,064	-15,34
993,265	-16,92
993,467	-18,81
993,668	-16,03
993,87	-15,63
994,071	-15,4
994,272	-15,77
994,473	-13,78
994,675	-13,63
994,876	-12,61
995,077	-12,2
995,278	-11,92
995,48	-9,8
995,681	-11,07
995,882	-10,63
996,083	-10,72
996,284	-14,79
996,485	-14,92
996,686	-15,27
996,887	-16,2
997,088	-20,11
997,289	-21,05
997,49	-21,51
997,691	-22,35
997,892	-22,39
998,092	-19,42
998,293	-20,84
998,494	-20,19
998,695	-22,27
998,896	-20,36
999,096	-20,89
999,297	-20,24
999,498	-22,05
999,698	-22,09
999,899	-23,75
1000,1	-25,34
1000,3	-25,34
1000,501	-25,67
1000,701	-25,67
1000,902	-25,51
1001,102	-26,79
1001,303	-24,59
1001,503	-27,16
1001,704	-28,38
1001,904	-28,69
1002,105	-29,09
1002,305	-28,48
1002,505	-28,81
1002,706	-29,59
1002,906	-29,55
1003,106	-29,8
1003,306	-28,62
1003,507	-26,31
1003,707	-25,36
1003,907	-23,95
1004,107	-22,65
1004,307	-25,17
1004,507	-22,09
1004,707	-23,38
1004,907	-22,79
1005,107	-24,01
1005,308	-23,49
1005,507	-24,65
1005,707	-22,61
1005,907	-22,99
1006,107	-21,19
1006,307	-19,66
1006,507	-20,64
1006,707	-19,94
1006,907	-20,51
1007,106	-22,6
1007,306	-22,89
1007,506	-22,93
1007,706	-22,06
1007,905	-22,44
1008,105	-21,13
1008,305	-20,8
1008,504	-20,04
1008,704	-15,46
1008,903	-13,62
1009,103	-12,11
1009,303	-14,32
1009,502	-13,01
1009,702	-14,41
1009,901	-15,5
1010,1	-18,12
1010,3	-15,91
1010,499	-16,81
1010,699	-19,87
1010,898	-20,44
1011,097	-21,22
1011,296	-20,6
1011,496	-21,87
1011,695	-21,62
1011,894	-22,83
1012,093	-20,25
1012,293	-19,48
1012,492	-20,37
1012,691	-20,8
1012,89	-21,27
1013,089	-23
1013,288	-21,3
1013,487	-19,69
1013,686	-20,67
1013,885	-21,31
1014,084	-20,69
1014,283	-21,22
1014,482	-22,33
1014,681	-23,63
1014,88	-28,14
1015,078	-26,87
1015,277	-28,87
1015,476	-28,44
1015,675	-28,62
1015,873	-27,42
1016,072	-28,04
1016,271	-25,21
1016,47	-28,88
1016,668	-27,43
1016,867	-28,09
1017,065	-29,81
1017,264	-28,91
1017,463	-28,6
1017,661	-29,23
1017,86	-29,47
1018,058	-28,1
1018,256	-30,4
1018,455	-32,33
1018,653	-31,1
1018,852	-30,63
1019,05	-31,9
1019,248	-32,26
1019,447	-33,99
1019,645	-33,7
1019,843	-34,19
1020,041	-33,41
1020,24	-34,48
1020,438	-30,74
1020,636	-31,78
1020,834	-33
1021,032	-29,86
1021,23	-32,2
1021,428	-31,18
1021,626	-28,04
1021,824	-28,68
1022,022	-30,31
1022,22	-28,63
1022,418	-28,71
1022,616	-29,31
1022,814	-28,77
1023,012	-29,2
1023,21	-27,5
1023,408	-28,6
1023,606	-29,26
1023,803	-25,51
1024,001	-24,87
1024,199	-28,26
1024,397	-26,83
1024,594	-26,39
1024,792	-27,79
1024,99	-26,54
1025,187	-26,64
1025,385	-23,49
1025,582	-22,59
1025,78	-23,61
1025,977	-23,79
1026,175	-24,99
1026,372	-23,29
1026,57	-26,36
1026,767	-24,01
1026,965	-23,12
1027,162	-23,1
1027,359	-22,43
1027,557	-20,63
1027,754	-23,34
1027,951	-24,34
1028,148	-22,22
1028,346	-24,65
1028,543	-26,3
1028,74	-26,41
1028,937	-29,09
1029,134	-28,99
1029,331	-28,28
1029,528	-27,99
1029,725	-28,78
1029,923	-31,96
1030,12	-29
1030,317	-27,22
1030,513	-26,74
1030,71	-25,47
1030,907	-22,86
1031,104	-24,37
1031,301	-24,81
1031,498	-24,98
1031,695	-25
1031,892	-24,75
1032,088	-23,56
1032,285	-24,35
1032,482	-26,13
1032,678	-28,01
1032,875	-28,93
1033,072	-28,7
1033,268	-29,81
1033,465	-29,86
1033,662	-31,75
1033,858	-31,47
1034,055	-31,14
1034,251	-29,85
1034,448	-29,66
1034,644	-29,03
1034,84	-26,07
1035,037	-22,4
1035,233	-20,89
1035,43	-20,11
1035,626	-21,55
1035,822	-21,55
1036,019	-20,59
1036,215	-24,94
1036,411	-25,58
1036,607	-26,93
1036,803	-30,09
1037	-30,46
1037,196	-31,7
1037,392	-32,3
1037,588	-34,08
1037,784	-33,99
1037,98	-34,71
1038,176	-35,19
1038,372	-35,58
1038,568	-34,14
1038,764	-33,67
1038,96	-31,62
1039,156	-32,87
1039,352	-33,3
1039,547	-32,27
1039,743	-31,64
1039,939	-29,45
1040,135	-28,8
1040,331	-30,48
1040,526	-27,56
1040,722	-28,48
1040,918	-30,26
1041,113	-33,63
1041,309	-34,53
1041,505	-37,59
1041,7	-35,37
1041,896	-35,57
1042,091	-36,83
1042,287	-35,8
1042,482	-34,68
1042,678	-34,71
1042,873	-33,28
1043,069	-35,16
1043,264	-33,52
1043,459	-31,57
1043,655	-30,84
1043,85	-31,32
1044,045	-30,29
1044,24	-30,94
1044,436	-27,85
1044,631	-28,11
1044,826	-26,27
1045,021	-29,53
1045,216	-27,18
