Data from led2700K_USB4H112691__7__12-55-32-100.txt Node

Date: Tue Dec 17 12:55:32 CET 2024
User: Etudiants TP
Spectrometer: USB4H11269
Trigger mode: 4
Integration Time (sec): 1.000000E0
Scans to average: 1
Electric dark correction enabled: true
Nonlinearity correction enabled: false
Boxcar width: 0
XAxis mode: Wavelengths
Number of Pixels in Spectrum: 3648
>>>>>Begin Spectral Data<<<<<
286.377	-1674.56
286.631	-1674.56
286.884	-1674.56
287.138	-1639.74
287.391	-1682.75
287.644	-859.46
287.896	-613.71
288.149	731.81
288.401	479.91
288.653	-513.36
288.905	-474.45
289.157	914.08
289.409	303.78
289.661	-427.34
289.912	-802.12
290.163	557.73
290.414	703.14
290.665	-689.48
290.916	-595.28
291.166	680.61
291.417	1112.73
291.667	-609.61
291.917	-265.55
292.167	574.11
292.417	414.37
292.666	-804.17
292.916	-677.19
293.165	555.68
293.414	635.55
293.663	-998.73
293.912	-906.57
294.16	707.23
294.408	733.86
294.657	-728.39
294.905	-394.58
295.153	551.59
295.4	567.97
295.648	-806.22
295.895	-750.92
296.143	127.66
296.39	846.49
296.637	-677.19
296.884	-755.02
297.13	694.94
297.377	819.87
297.623	-523.6
297.869	-380.24
298.115	836.25
298.361	821.92
298.606	-763.21
298.852	-650.57
299.097	600.74
299.342	1032.86
299.587	-437.58
299.832	-628.04
300.077	705.18
300.322	598.69
300.566	-773.45
300.81	-482.64
301.054	475.81
301.298	871.07
301.542	-265.55
301.785	-390.48
302.029	993.95
302.272	854.69
302.515	-834.89
302.758	-486.73
303.001	666.27
303.244	828.06
303.486	-619.85
303.729	-865.61
303.971	1000.09
304.213	807.58
304.455	-890.18
304.696	-349.52
304.938	256.68
305.179	909.98
305.421	-535.89
305.662	-488.78
305.903	385.7
306.143	342.69
306.384	-392.53
306.625	-554.32
306.865	459.43
307.105	287.4
307.345	-494.93
307.585	-548.17
307.825	166.57
308.064	715.42
308.304	-650.57
308.543	-855.37
308.782	590.5
309.021	893.6
309.26	-367.95
309.499	-621.9
309.737	854.69
309.976	721.57
310.214	-746.83
310.452	-671.05
310.69	1143.45
310.928	254.63
311.165	-664.91
311.403	-546.12
311.64	922.27
311.878	565.92
312.115	-587.08
312.351	-482.64
312.588	432.8
312.825	971.42
313.061	-873.8
313.298	33.45
313.534	305.83
313.77	770.72
314.006	-578.89
314.241	-707.91
314.477	715.42
314.713	1274.52
314.948	-519.5
315.183	193.19
315.418	948.89
315.653	606.88
315.888	-769.35
316.122	-511.31
316.357	283.3
316.591	889.5
316.825	-556.36
317.059	-658.76
317.293	975.52
317.527	463.52
317.76	-652.62
317.994	-494.93
318.227	690.85
318.46	1168.02
318.693	-703.82
318.926	-456.01
319.159	51.88
319.391	602.79
319.624	-793.93
319.856	-548.17
320.088	750.24
320.321	662.18
320.552	-333.14
320.784	-582.99
321.016	813.73
321.247	88.75
321.479	-382.29
321.71	-406.86
321.941	-152.91
322.172	1125.02
322.403	-671.05
322.633	-400.72
322.864	776.86
323.094	268.97
323.325	74.41
323.555	-662.86
323.785	221.86
324.014	303.78
324.244	-464.21
324.474	-310.61
324.703	854.69
324.933	840.35
325.162	-449.87
325.391	-925
325.62	-23.89
325.848	836.25
326.077	-605.52
326.306	-394.58
326.534	746.14
326.762	1024.67
326.99	-537.93
327.218	-326.99
327.446	897.69
327.674	-32.08
327.901	-683.34
328.129	-716.11
328.356	811.68
328.583	254.63
328.81	-677.19
329.037	-445.77
329.264	459.43
329.491	869.02
329.717	-490.83
329.944	-656.72
330.17	436.9
330.396	209.58
330.622	-771.4
330.848	-363.86
331.074	524.96
331.299	1479.32
331.525	-695.63
331.75	-656.72
331.975	885.41
332.201	299.69
332.426	-920.9
332.65	-648.52
332.875	-71
333.1	377.51
333.324	-783.69
333.549	-640.33
333.773	397.99
333.997	535.2
334.221	-605.52
334.445	-589.13
334.668	631.46
334.892	1200.79
335.116	-392.53
335.339	-630.09
335.562	47.79
335.785	500.39
336.008	-390.48
336.231	-662.86
336.454	-154.96
336.676	924.32
336.899	-558.41
337.121	-349.52
337.343	90.79
337.566	606.88
337.788	-626
338.009	-640.33
338.231	144.04
338.453	494.24
338.674	3336.82
338.896	-496.97
339.117	-56.66
339.338	1024.67
339.559	-742.73
339.78	-609.61
340.001	37.55
340.222	899.74
340.442	-587.08
340.663	-206.16
340.883	719.52
341.103	463.52
341.323	-603.47
341.543	-376.14
341.763	772.77
341.983	385.7
342.202	-742.73
342.422	-654.67
342.641	1139.35
342.861	338.6
343.08	-269.65
343.299	-597.32
343.518	780.96
343.736	643.74
343.955	-617.8
344.174	-738.63
344.392	871.07
344.61	60.07
344.829	-724.3
345.047	-539.98
345.265	615.07
345.483	924.32
345.7	-671.05
345.918	-292.18
346.136	168.62
346.353	924.32
346.57	-806.22
346.788	-679.24
347.005	365.22
347.222	21.16
347.438	-93.52
347.655	-564.56
347.872	137.9
348.088	1125.02
348.305	-400.72
348.521	-607.56
348.737	74.41
348.953	946.84
349.169	-195.92
349.385	-521.55
349.601	402.08
349.817	70.31
350.032	-195.92
350.248	-392.53
350.463	1266.33
350.678	-261.46
350.893	-699.72
351.108	-728.39
351.323	191.14
351.538	791.2
351.753	-593.23
351.967	-556.36
352.182	842.4
352.396	197.29
352.61	-707.91
352.824	-564.56
353.038	707.23
353.252	834.21
353.466	-425.29
353.68	-564.56
353.894	441
354.107	213.67
354.32	-337.23
354.534	-642.38
354.747	740
354.96	-42.32
355.173	-400.72
355.386	-800.07
355.599	516.77
355.811	328.36
356.024	-687.43
356.236	-400.72
356.449	297.64
356.661	342.69
356.873	-705.87
357.085	-922.95
357.297	817.82
357.509	635.55
357.721	-621.9
357.933	-695.63
358.144	228.01
358.356	205.48
358.567	-390.48
358.778	-740.68
358.989	918.17
359.2	131.75
359.411	-474.45
359.622	-347.47
359.833	541.35
360.044	363.17
360.254	-548.17
360.465	-634.19
360.675	463.52
360.885	389.8
361.096	-765.26
361.306	-515.41
361.516	178.86
361.726	451.24
361.935	-857.42
362.145	-628.04
362.355	549.54
362.564	469.67
362.774	-824.65
362.983	-822.6
363.192	928.41
363.401	86.7
363.61	-646.48
363.819	-331.09
364.028	443.04
364.237	957.08
364.445	-580.94
364.654	-380.24
364.862	420.52
365.071	180.9
365.279	-482.64
365.487	-613.71
365.695	639.65
365.903	447.14
366.111	-720.2
366.319	-572.75
366.527	688.8
366.734	289.45
366.942	-406.86
367.149	-759.11
367.357	-519.5
367.564	1086.11
367.771	-535.89
367.978	-662.86
368.185	254.63
368.392	309.93
368.599	-324.94
368.806	-566.6
369.013	-64.85
369.219	563.87
369.426	-824.65
369.632	-277.84
369.838	1184.41
370.044	713.38
370.251	-494.93
370.457	-570.7
370.663	893.6
370.868	461.48
371.074	-576.84
371.28	-638.28
371.485	-118.1
371.691	735.9
371.896	-677.19
372.102	-826.7
372.307	1024.67
372.512	862.88
372.717	-664.91
372.922	-224.59
373.127	141.99
373.332	397.99
373.537	-558.41
373.741	-494.93
373.946	508.58
374.151	385.7
374.355	-806.22
374.559	-443.73
374.764	287.4
374.968	-333.14
375.172	-617.8
375.376	-283.98
375.58	492.2
375.784	53.93
375.987	-757.07
376.191	-589.13
376.395	137.9
376.598	164.52
376.802	-718.15
377.005	-232.79
377.208	213.67
377.412	144.04
377.615	-847.18
377.818	-675.15
378.021	240.3
378.224	-77.14
378.426	-652.62
378.629	-820.55
378.832	721.57
379.034	590.5
379.237	-881.99
379.439	-939.33
379.642	789.15
379.844	563.87
380.046	-931.14
380.248	-613.71
380.45	-36.18
380.652	-95.57
380.854	-554.32
381.056	-687.43
381.258	275.11
381.459	520.87
381.661	-816.46
381.862	-357.71
382.064	-130.39
382.265	246.44
382.467	-658.76
382.668	-486.73
382.869	789.15
383.07	363.17
383.271	-462.16
383.472	-636.24
383.673	778.91
383.874	328.36
384.074	-447.82
384.275	-810.31
384.476	533.15
384.676	1163.93
384.876	-761.16
385.077	-654.67
385.277	746.14
385.477	895.65
385.677	-728.39
385.878	-548.17
386.078	281.25
386.278	303.78
386.477	-314.7
386.677	-157.01
386.877	582.31
387.077	586.4
387.276	-415.05
387.476	-509.26
387.675	361.13
387.875	848.54
388.074	-671.05
388.273	-597.32
388.472	803.49
388.671	-50.52
388.87	-724.3
389.069	-159.06
389.268	-154.96
389.467	0.68
389.666	-724.3
389.865	-214.35
390.063	623.27
390.262	737.95
390.461	-632.14
390.659	-697.67
390.857	723.62
391.056	660.13
391.254	-671.05
391.452	-662.86
391.65	713.38
391.849	377.51
392.047	-441.68
392.245	-228.69
392.442	295.59
392.64	492.2
392.838	-269.65
393.036	-464.21
393.233	324.26
393.431	238.25
393.629	-812.36
393.826	-552.27
394.023	340.65
394.221	-234.83
394.418	-449.87
394.615	-294.22
394.812	-58.71
395.01	651.94
395.207	-621.9
395.404	-656.72
395.601	930.46
395.797	424.61
395.994	-787.79
396.191	-482.64
396.388	287.4
396.584	696.99
396.781	-320.85
396.977	-21.84
397.174	623.27
397.37	-13.65
397.567	-449.87
397.763	-709.96
397.959	297.64
398.155	361.13
398.352	-492.88
398.548	-343.38
398.744	533.15
398.94	352.93
399.136	-808.26
399.331	-316.75
399.527	279.21
399.723	557.73
399.919	-326.99
400.114	-539.98
400.31	213.67
400.505	506.53
400.701	-501.07
400.896	-564.56
401.092	232.1
401.287	318.12
401.482	-728.39
401.678	-466.25
401.873	527.01
402.068	631.46
402.263	-449.87
402.458	-550.22
402.653	236.2
402.848	414.37
403.043	-474.45
403.237	-701.77
403.432	84.65
403.627	-195.92
403.822	-810.31
404.016	-548.17
404.211	117.42
404.405	653.98
404.6	-302.42
404.794	-281.94
404.989	500.39
405.183	164.52
405.377	-413.01
405.571	-187.73
405.766	461.48
405.96	352.93
406.154	-507.21
406.348	-494.93
406.542	461.48
406.736	516.77
406.93	-648.52
407.124	-390.48
407.318	287.4
407.511	387.75
407.705	-347.47
407.899	-617.8
408.092	520.87
408.286	397.99
408.48	-679.24
408.673	-613.71
408.867	-19.8
409.06	338.6
409.253	-400.72
409.447	-439.63
409.64	656.03
409.833	469.67
410.026	-419.15
410.22	-372.05
410.413	660.13
410.606	305.83
410.799	-806.22
410.992	-539.98
411.185	412.32
411.378	963.23
411.571	-466.25
411.764	-431.44
411.956	545.44
412.149	451.24
412.342	-253.27
412.534	-449.87
412.727	557.73
412.92	457.38
413.112	-431.44
413.305	-226.64
413.497	754.34
413.69	629.41
413.882	-480.59
414.075	-228.69
414.267	461.48
414.459	299.69
414.652	-662.86
414.844	-535.89
415.036	471.72
415.228	842.4
415.42	-228.69
415.612	-433.49
415.804	950.94
415.997	463.52
416.188	-322.9
416.38	-216.4
416.572	205.48
416.764	647.84
416.956	-632.14
417.148	-519.5
417.34	322.21
417.531	-85.33
417.723	-527.69
417.915	-480.59
418.107	127.66
418.298	473.76
418.49	-355.66
418.681	-286.03
418.873	756.38
419.064	445.09
419.256	-310.61
419.447	-478.54
419.639	600.74
419.83	811.68
420.021	-269.65
420.213	-462.16
420.404	328.36
420.595	486.05
420.786	-261.46
420.978	-236.88
421.169	666.27
421.36	324.26
421.551	-388.43
421.742	-564.56
421.933	1045.15
422.124	705.18
422.315	-314.7
422.506	-478.54
422.697	680.61
422.888	352.93
423.079	-56.66
423.27	-347.47
423.461	533.15
423.652	242.34
423.842	-439.63
424.033	-326.99
424.224	617.12
424.415	1028.76
424.605	-283.98
424.796	-408.91
424.987	690.85
425.177	606.88
425.368	-638.28
425.558	-564.56
425.749	490.15
425.939	375.46
426.13	6.83
426.32	-89.43
426.511	402.08
426.701	225.96
426.892	-281.94
427.082	-363.86
427.272	328.36
427.463	549.54
427.653	-175.44
427.843	-44.37
428.034	1104.54
428.224	746.14
428.414	-318.8
428.604	-228.69
428.795	713.38
428.985	789.15
429.175	86.7
429.365	-73.04
429.555	674.46
429.745	604.83
429.935	-183.63
430.126	37.55
430.316	938.65
430.506	996
430.696	-11.61
430.886	82.6
431.076	873.12
431.266	637.6
431.456	244.39
431.645	-64.85
431.835	600.74
432.025	885.41
432.215	-200.02
432.405	94.89
432.595	932.51
432.785	760.48
432.975	-130.39
433.164	-261.46
433.354	641.7
433.544	1071.77
433.734	-136.53
433.923	221.86
434.113	834.21
434.303	858.78
434.493	166.57
434.682	191.14
434.872	991.9
435.062	488.1
435.251	217.77
435.441	172.71
435.631	1499.8
435.82	996
436.01	66.22
436.2	246.44
436.389	934.56
436.579	1641.11
436.768	565.92
436.958	606.88
437.147	1057.43
437.337	1524.37
437.527	598.69
437.716	383.65
437.906	1639.06
438.095	1301.14
438.285	443.04
438.474	570.02
438.664	1591.95
438.853	1532.56
439.043	684.7
439.232	615.07
439.422	1614.48
439.611	1573.52
439.8	549.54
439.99	1024.67
440.179	1786.51
440.369	1974.92
440.558	594.59
440.748	783.01
440.937	1419.93
441.126	1301.14
441.316	1215.13
441.505	946.84
441.695	1962.64
441.884	2368.13
442.073	1069.72
442.263	914.08
442.452	1837.71
442.642	2181.77
442.831	1204.89
443.02	1507.99
443.21	2482.82
443.399	2966.14
443.588	1483.41
443.778	1442.45
443.967	2777.73
444.156	2482.82
444.346	1278.62
444.535	1481.36
444.725	2900.61
444.914	2390.66
445.103	1548.95
445.293	1778.32
445.482	3138.17
445.671	2787.97
445.861	1837.71
446.05	2083.47
446.239	2890.37
446.429	2609.79
446.618	1694.35
446.807	2298.5
446.997	3201.66
447.186	3248.76
447.376	2208.39
447.565	2304.65
447.754	3342.97
447.944	3594.87
448.133	2290.31
448.322	1981.07
448.512	2888.32
448.701	3736.18
448.891	2331.27
449.08	2511.49
449.269	2710.15
449.459	3003
449.648	2282.12
449.838	2337.42
450.027	3105.4
450.217	2914.94
450.406	2259.59
450.595	2527.88
450.785	3428.98
450.974	3453.56
451.164	2474.63
451.353	2531.97
451.543	3375.74
451.732	3695.22
451.922	2237.06
452.111	2400.9
452.301	2929.28
452.49	2935.42
452.68	2038.41
452.869	2822.78
453.059	2982.53
453.249	3467.89
453.438	1903.25
453.628	2386.57
453.817	3160.7
454.007	3031.68
454.197	1952.4
454.386	2144.91
454.576	3494.52
454.765	3273.34
454.955	2230.92
455.145	1974.92
455.334	2933.37
455.524	2560.64
455.714	2181.77
455.904	1884.81
456.093	3656.31
456.283	2892.41
456.473	1864.33
456.663	1788.56
456.852	2892.41
457.042	2912.89
457.232	1784.46
457.422	2466.44
457.612	2808.45
457.802	2904.7
457.991	1471.12
458.181	1530.52
458.371	2863.74
458.561	2738.82
458.751	1720.98
458.941	1540.76
459.131	2443.91
459.321	2200.2
459.511	1909.39
459.701	1581.71
459.891	2478.72
460.081	2011.79
460.271	1536.66
460.461	1188.5
460.651	3105.4
460.841	3023.48
461.032	1505.94
461.222	1393.3
461.412	2228.87
461.602	3113.6
461.792	1198.74
461.983	1327.77
462.173	2433.67
462.363	2904.7
462.554	1372.82
462.744	1491.6
462.934	2493.06
463.125	2429.57
463.315	1335.96
463.505	1393.3
463.696	2466.44
463.886	1981.07
464.077	1125.02
464.267	1290.9
464.458	2726.53
464.648	1909.39
464.839	1424.02
465.03	1350.29
465.22	1927.82
465.411	2351.75
465.601	1155.74
465.792	1184.41
465.983	2112.14
466.174	2419.33
466.364	922.27
466.555	1262.23
466.746	2468.49
466.937	1972.88
467.128	1018.52
467.319	1168.02
467.51	2441.86
467.701	3070.59
467.891	1200.79
468.082	1002.14
468.274	2073.23
468.465	1383.06
468.656	1258.14
468.847	821.92
469.038	1718.93
469.229	1870.48
469.42	1223.32
469.612	989.85
469.803	2226.82
469.994	2196.11
470.185	1122.97
470.377	952.99
470.568	1970.83
470.76	2003.6
470.951	1086.11
471.142	1098.39
471.334	2206.35
471.526	2079.37
471.717	1284.76
471.909	762.53
472.1	1929.87
472.292	1948.3
472.484	766.62
472.675	864.93
472.867	1835.66
473.059	2273.93
473.251	916.12
473.443	932.51
473.635	1852.05
473.826	2126.47
474.018	926.36
474.21	1008.28
474.402	1882.77
474.595	2212.49
474.787	1000.09
474.979	1188.5
475.171	1690.26
475.363	1237.66
475.555	617.12
475.748	977.56
475.94	2196.11
476.132	1659.54
476.325	819.87
476.517	1376.92
476.71	2671.23
476.902	1548.95
477.095	819.87
477.287	1282.71
477.48	2114.19
477.673	1897.1
477.865	1065.63
478.058	975.52
478.251	2163.34
478.444	2341.51
478.636	1049.24
478.829	858.78
479.022	1997.45
479.215	2163.34
479.408	1043.1
479.601	1430.16
479.794	1512.08
479.988	1833.61
480.181	1241.75
480.374	1161.88
480.567	2114.19
480.76	2642.56
480.954	1129.11
481.147	719.52
481.341	1761.94
481.534	1761.94
481.728	1194.65
481.921	1338.01
482.115	2384.52
482.308	2550.4
482.502	924.32
482.696	1172.12
482.89	2757.25
483.084	2253.45
483.277	1270.42
483.471	1350.29
483.665	2624.13
483.859	3379.83
484.053	866.97
484.247	854.69
484.442	2263.69
484.636	2099.85
484.83	1082.01
485.024	1231.51
485.219	2200.2
485.413	1991.31
485.608	1151.64
485.802	1385.11
485.997	2646.66
486.191	2171.53
486.386	1301.14
486.58	1483.41
486.775	2249.35
486.97	2646.66
487.165	1354.39
487.36	1507.99
487.555	2394.76
487.75	2284.17
487.945	1655.44
488.14	1165.98
488.335	2161.29
488.53	2132.62
488.725	1395.35
488.92	1659.54
489.116	2949.76
489.311	2574.98
489.507	1262.23
489.702	2044.56
489.898	2900.61
490.093	2245.26
490.289	2017.93
490.485	1620.63
490.68	2067.08
490.876	3035.77
491.072	1606.29
491.268	1839.76
491.464	3033.72
491.66	2884.22
491.856	1886.86
492.052	2099.85
492.248	3091.07
492.445	2835.07
492.641	1720.98
492.837	1843.85
493.034	3048.06
493.23	3373.69
493.427	2335.37
493.623	1866.38
493.82	3146.36
494.017	3560.05
494.214	2048.65
494.41	1897.1
494.607	3076.73
494.804	2650.75
495.001	2189.96
495.198	2179.72
495.395	3357.3
495.593	3441.27
495.79	2105.99
495.987	2048.65
496.184	2620.03
496.382	3211.9
496.579	2083.47
496.777	2257.54
496.974	3828.34
497.172	3205.75
497.37	2372.23
497.568	2052.75
497.766	4139.63
497.963	3494.52
498.161	2458.25
498.359	2603.65
498.558	3975.79
498.756	3658.35
498.954	2306.7
499.152	2855.55
499.351	3861.1
499.549	3613.3
499.747	2640.51
499.946	2499.2
500.145	3601.01
500.343	3539.57
500.542	2452.1
500.741	2638.47
500.94	3940.97
501.139	4033.13
501.338	2603.65
501.537	2982.53
501.736	4264.55
501.935	3940.97
502.134	2560.64
502.334	2759.3
502.533	3996.27
502.733	3908.21
502.932	2804.35
503.132	2839.17
503.331	3674.74
503.531	4158.06
503.731	2914.94
503.931	2820.74
504.131	3564.15
504.331	4194.92
504.531	2863.74
504.731	2935.42
504.931	4080.24
505.132	4070
505.332	2970.24
505.532	2886.27
505.733	4215.4
505.933	4575.84
506.134	3103.36
506.335	2955.9
506.536	3963.5
506.736	4412.01
506.937	3050.11
507.138	2863.74
507.34	4917.86
507.541	4162.16
507.742	3361.4
507.943	3111.55
508.145	4276.84
508.346	3629.68
508.548	2929.28
508.749	3058.3
508.951	3889.78
509.153	4039.28
509.354	3273.34
509.556	3283.58
509.758	4354.66
509.96	3736.18
510.163	3621.49
510.365	3543.67
510.567	4004.46
510.769	4074.09
510.972	3015.29
511.174	3592.82
511.377	3963.5
511.58	5163.61
511.782	3236.47
511.985	3248.76
512.188	4715.11
512.391	4637.28
512.594	3287.67
512.797	3439.22
513.001	4653.67
513.204	4973.15
513.407	3441.27
513.611	3297.91
513.814	4452.97
514.018	4751.97
514.222	3590.77
514.425	3498.61
514.629	4602.47
514.833	4293.23
515.037	3469.94
515.241	3388.02
515.445	4164.2
515.65	4143.72
515.854	3451.51
516.059	3490.42
516.263	4571.75
516.468	4567.65
516.672	3383.93
516.877	3408.5
517.082	4121.2
517.287	4522.6
517.492	3775.09
517.697	3463.8
517.902	4661.86
518.107	4203.11
518.313	3541.62
518.518	3510.9
518.724	4989.53
518.929	4530.79
519.135	3680.88
519.341	3287.67
519.547	4567.65
519.753	4794.98
519.959	3383.93
520.165	3508.85
520.371	4831.84
520.577	5155.42
520.784	3250.81
520.99	3762.8
521.197	4438.63
521.404	4498.02
521.61	3154.55
521.817	3226.23
522.024	4913.76
522.231	4340.33
522.438	3027.58
522.645	4026.99
522.853	4338.28
523.06	4680.29
523.268	3476.09
523.475	3615.35
523.683	4588.13
523.891	4590.18
524.098	3256.95
524.306	3422.84
524.514	4373.1
524.722	4295.27
524.931	3570.29
525.139	3377.78
525.347	3998.32
525.556	4366.95
525.764	3441.27
525.973	3568.24
526.182	4375.14
526.391	4272.75
526.6	3400.31
526.809	3654.26
527.018	4409.96
527.227	4579.94
527.436	3285.62
527.646	3426.93
527.855	4471.4
528.065	4166.25
528.275	3302.01
528.484	3293.82
528.694	4674.15
528.904	4444.77
529.114	3203.71
529.325	3545.72
529.535	3895.92
529.745	4457.06
529.956	3232.38
530.166	3320.44
530.377	4452.97
530.588	4747.87
530.799	3590.77
531.01	3322.49
531.221	4573.8
531.432	4608.61
531.643	3285.62
531.855	3721.84
532.066	4645.48
532.278	4252.27
532.489	3459.7
532.701	3148.41
532.913	4686.44
533.125	4424.3
533.337	3078.78
533.549	3132.03
533.762	4354.66
533.974	3838.58
534.186	2960
534.399	3191.42
534.612	4551.27
534.825	4348.52
535.037	3320.44
535.25	3433.08
535.464	3842.67
535.677	4573.8
535.89	3031.68
536.104	3310.2
536.317	4135.53
536.531	4088.43
536.744	3379.83
536.958	2904.7
537.172	4127.34
537.386	3965.55
537.6	3060.35
537.815	3179.13
538.029	4205.16
538.244	4225.64
538.458	2681.47
538.673	3086.97
538.888	4059.76
539.103	4319.85
539.318	3009.15
539.533	2914.94
539.748	3885.68
539.963	3705.46
540.179	2765.44
540.394	2808.45
540.61	3338.87
540.826	3760.75
541.042	2839.17
541.258	2712.19
541.474	4438.63
541.69	3838.58
541.906	2837.12
542.123	2820.74
542.339	3904.11
542.556	3582.58
542.773	2767.49
542.99	2878.08
543.207	3773.04
543.424	3449.46
543.641	2900.61
543.858	3148.41
544.076	3449.46
544.293	3381.88
544.511	2802.3
544.729	2671.23
544.947	3459.7
545.165	3639.92
545.383	2568.84
545.601	2695.81
545.819	3701.36
546.038	3601.01
546.256	2904.7
546.475	2464.39
546.694	4395.62
546.913	3875.44
547.132	3162.75
547.351	2663.04
547.57	3148.41
547.79	3322.49
548.009	2613.89
548.229	2507.4
548.449	3312.25
548.668	3820.14
548.888	2749.06
549.109	2564.74
549.329	3707.51
549.549	3867.25
549.77	2613.89
549.99	2747.01
550.211	3723.89
550.432	4041.33
550.653	2398.85
550.874	2548.36
551.095	4149.87
551.316	3484.28
551.538	2302.6
551.759	2699.91
551.981	3445.37
552.203	3701.36
552.424	2540.16
552.646	2769.54
552.869	3347.06
553.091	3342.97
553.313	2585.22
553.536	2620.03
553.758	3621.49
553.981	3314.3
554.204	2286.22
554.427	2566.79
554.65	3684.98
554.873	2845.31
555.097	1995.4
555.32	2384.52
555.544	3754.61
555.768	3484.28
555.992	2343.56
556.216	2146.95
556.44	2929.28
556.664	3533.43
556.888	2818.69
557.113	2007.69
557.337	3912.3
557.562	3779.18
557.787	2222.73
558.012	2458.25
558.237	3424.89
558.462	3099.26
558.688	2488.96
558.913	2493.06
559.139	2744.96
559.365	3385.97
559.591	2245.26
559.817	2353.8
560.043	3400.31
560.269	3660.4
560.496	2654.85
560.722	2163.34
560.949	3842.67
561.176	2650.75
561.403	2163.34
561.63	2312.84
561.857	2685.57
562.084	2892.41
562.312	2216.58
562.539	2343.56
562.767	3719.79
562.995	2892.41
563.223	2146.95
563.451	2204.3
563.679	2863.74
563.908	3070.59
564.136	2126.47
564.365	2491.01
564.594	2527.88
564.823	4125.29
565.052	2204.3
565.281	1845.9
565.51	3263.1
565.74	2753.15
565.969	1839.76
566.199	2257.54
566.429	3277.43
566.659	3203.71
566.889	2099.85
567.119	2122.38
567.35	3531.38
567.58	3678.83
567.811	2335.37
568.042	2149
568.273	3007.1
568.504	3179.13
568.735	2171.53
568.966	2163.34
569.198	3066.49
569.43	3377.78
569.661	2273.93
569.893	2380.42
570.125	3467.89
570.358	3400.31
570.59	1985.16
570.822	2136.71
571.055	3265.14
571.288	3361.4
571.521	1981.07
571.754	2044.56
571.987	3508.85
572.22	2914.94
572.454	2099.85
572.687	2134.67
572.921	2556.55
573.155	2964.09
573.389	2536.07
573.623	2343.56
573.858	2826.88
574.092	3162.75
574.327	2165.39
574.561	2556.55
574.796	2683.52
575.031	3150.46
575.266	2040.46
575.502	2122.38
575.737	3191.42
575.973	2986.62
576.209	1950.35
576.445	2028.17
576.681	2749.06
576.917	3086.97
577.153	1974.92
577.39	2032.27
577.626	3019.39
577.863	3017.34
578.1	1741.46
578.337	2005.64
578.574	2757.25
578.812	3435.13
579.049	2192.01
579.287	1958.54
579.525	3142.27
579.763	2982.53
580.001	1761.94
580.239	1958.54
580.478	3449.46
580.716	2835.07
580.955	2142.86
581.194	2189.96
581.433	3256.95
581.672	2806.4
581.911	1938.06
582.151	1860.24
582.39	2859.65
582.63	3359.35
582.87	1852.05
583.11	1854.09
583.35	2183.82
583.591	2787.97
583.831	2212.49
584.072	2292.36
584.313	3105.4
584.554	2908.8
584.795	2032.27
585.036	2122.38
585.277	3607.16
585.519	3142.27
585.761	1680.02
586.003	1880.72
586.245	2939.52
586.487	3482.23
586.729	2288.26
586.972	1942.16
587.215	3752.56
587.457	2384.52
587.7	2167.43
587.944	2108.04
588.187	2810.5
588.43	2656.9
588.674	1860.24
588.918	1780.37
589.162	3097.21
589.406	2622.08
589.65	1745.55
589.894	2427.53
590.139	3027.58
590.384	3013.24
590.629	1649.3
590.874	1868.43
591.119	2405
591.364	3043.96
591.61	1823.37
591.855	1559.19
592.101	3373.69
592.347	2919.04
592.593	1737.36
592.84	2075.28
593.086	3312.25
593.333	2405
593.58	1729.17
593.827	1680.02
594.074	2687.62
594.321	2626.18
594.568	1725.07
594.816	1551
595.064	2634.37
595.312	2755.2
595.56	1606.29
595.808	1936.01
596.057	3060.35
596.305	2648.71
596.554	1315.48
596.803	1786.51
597.052	2951.81
597.301	3236.47
597.551	1493.65
597.8	2017.93
598.05	2876.03
598.3	2548.36
598.55	1512.08
598.8	1651.35
599.051	2282.12
599.301	2380.42
599.552	1442.45
599.803	1933.97
600.054	2781.82
600.305	2695.81
600.556	1921.68
600.808	1788.56
601.06	2493.06
601.312	2806.4
601.564	1712.78
601.816	1260.18
602.068	2966.14
602.321	2777.73
602.574	1628.82
602.827	1235.61
603.08	2370.18
603.333	2560.64
603.587	1462.93
603.84	1751.7
604.094	2728.58
604.348	2339.46
604.602	1483.41
604.856	1516.18
605.111	2744.96
605.365	2761.34
605.62	1651.35
605.875	1407.64
606.13	2562.69
606.386	2450.05
606.641	1491.6
606.897	1381.01
607.153	2392.71
607.409	2673.28
607.665	1245.85
607.921	1243.8
608.178	2149
608.435	2601.6
608.692	1428.12
608.949	1450.64
609.206	2728.58
609.463	2507.4
609.721	1303.19
609.979	1553.04
610.237	2460.29
610.495	2794.11
610.753	1673.87
611.012	1512.08
611.27	2640.51
611.529	2695.81
611.788	1518.23
612.047	1313.43
612.307	1819.28
612.566	2558.6
612.826	1258.14
613.086	1510.04
613.346	1770.13
613.606	2499.2
613.867	1315.48
614.127	1487.51
614.388	1974.92
614.649	2605.7
614.91	1102.49
615.172	1634.96
615.433	1983.12
615.695	2245.26
615.957	1489.56
616.219	1276.57
616.481	2607.75
616.743	2181.77
617.006	897.69
617.269	1299.09
617.532	2341.51
617.795	2329.22
618.058	1266.33
618.322	1413.78
618.586	2280.07
618.849	1974.92
619.114	1450.64
619.378	881.31
619.642	2200.2
619.907	2431.62
620.172	1165.98
620.437	1303.19
620.702	2419.33
620.967	1874.57
621.233	1133.21
621.499	1032.86
621.765	2042.51
622.031	2312.84
622.297	1028.76
622.564	1127.07
622.83	1966.73
623.097	2794.11
623.364	1168.02
623.631	1411.73
623.899	2237.06
624.166	2331.27
624.434	987.8
624.702	959.13
624.97	2394.76
625.239	1893.01
625.507	1002.14
625.776	1196.7
626.045	1675.92
626.314	1991.31
626.584	1135.26
626.853	1053.34
627.123	1979.02
627.393	1401.49
627.663	1024.67
627.933	1233.56
628.204	2222.73
628.474	2163.34
628.745	811.68
629.016	1208.98
629.287	2017.93
629.559	1770.13
629.83	811.68
630.102	977.56
630.374	1518.23
630.646	2413.19
630.919	1026.72
631.191	1295
631.464	1876.62
631.737	1491.6
632.01	871.07
632.284	885.41
632.557	2345.61
632.831	2112.14
633.105	764.58
633.379	991.9
633.654	1503.89
633.928	1983.12
634.203	836.25
634.478	754.34
634.753	1841.81
635.028	1950.35
635.304	897.69
635.58	780.96
635.856	1895.05
636.132	1671.83
636.408	717.47
636.685	846.49
636.961	1657.49
637.238	1720.98
637.515	715.42
637.793	768.67
638.07	2065.04
638.348	1671.83
638.626	952.99
638.904	930.46
639.182	1196.7
639.461	1198.74
639.74	811.68
640.019	967.32
640.298	944.8
640.577	1663.63
640.857	699.04
641.136	699.04
641.416	1530.52
641.696	2155.15
641.977	926.36
642.257	787.1
642.538	1811.09
642.819	2099.85
643.1	627.36
643.382	406.18
643.663	1942.16
643.945	1680.02
644.227	766.62
644.509	443.04
644.792	2085.51
645.074	1557.14
645.357	584.35
645.64	418.47
645.923	1616.53
646.207	1727.12
646.49	651.94
646.774	475.81
647.058	1399.45
647.342	1882.77
647.627	389.8
647.911	359.08
648.196	1882.77
648.481	1815.18
648.767	598.69
649.052	500.39
649.338	1262.23
649.624	1315.48
649.91	438.95
650.196	463.52
650.483	1677.97
650.77	1829.52
651.057	821.92
651.344	586.4
651.631	1491.6
651.919	1229.46
652.207	461.48
652.495	637.6
652.783	1540.76
653.071	1510.04
653.36	297.64
653.649	455.33
653.938	1305.24
654.227	1634.96
654.517	627.36
654.806	397.99
655.096	1043.1
655.387	1604.24
655.677	537.25
655.968	389.8
656.258	1116.83
656.549	1786.51
656.841	555.68
657.132	393.89
657.424	1120.92
657.716	1544.85
658.008	402.08
658.3	191.14
658.592	1469.08
658.885	1634.96
659.178	271.01
659.471	185
659.765	932.51
660.058	1393.3
660.352	197.29
660.646	340.65
660.94	1890.96
661.235	1436.31
661.53	774.81
661.824	-81.24
662.12	1274.52
662.415	754.34
662.711	342.69
663.006	565.92
663.302	985.76
663.599	873.12
663.895	279.21
664.192	471.72
664.489	1639.06
664.786	1585.81
665.083	74.41
665.381	94.89
665.678	1143.45
665.976	1438.36
666.275	2.73
666.573	340.65
666.872	805.53
667.171	1286.81
667.47	-5.46
667.769	21.16
668.069	1313.43
668.368	1401.49
668.668	-193.87
668.969	-32.08
669.269	1096.35
669.57	762.53
669.871	148.14
670.172	262.82
670.473	1405.59
670.775	1540.76
671.077	-27.99
671.379	178.86
671.681	1419.93
671.983	1221.27
672.286	25.26
672.589	150.18
672.892	1180.31
673.196	1286.81
673.499	-30.04
673.803	135.85
674.107	1335.96
674.411	1073.82
674.716	150.18
675.021	287.4
675.326	932.51
675.631	1370.77
675.936	-89.43
676.242	45.74
676.548	737.95
676.854	1542.8
677.16	-226.64
677.467	-54.61
677.774	1067.67
678.081	815.77
678.388	326.31
678.696	242.34
679.004	1342.1
679.312	1594
679.62	139.94
679.928	170.66
680.237	1350.29
680.546	549.54
680.855	119.46
681.164	17.07
681.474	1098.39
681.784	1049.24
682.094	-42.32
682.404	-243.03
682.715	1440.4
683.026	496.29
683.337	-89.43
683.648	223.91
683.959	1585.81
684.271	1151.64
684.583	55.98
684.895	-257.36
685.208	1020.57
685.52	1301.14
685.833	185
686.146	-105.81
686.46	1434.26
686.773	881.31
687.087	115.37
687.401	-122.2
687.716	1055.39
688.03	1090.2
688.345	-263.51
688.66	74.41
688.975	1176.22
689.291	1075.87
689.607	484
689.923	-50.52
690.239	860.83
690.555	1237.66
690.872	-195.92
691.189	-322.9
691.506	1073.82
691.824	1176.22
692.142	-292.18
692.459	-71
692.778	664.22
693.096	1159.83
693.415	250.53
693.734	98.99
694.053	877.21
694.372	428.71
694.692	-335.18
695.012	-15.7
695.332	737.95
695.652	864.93
695.973	92.84
696.294	-204.11
696.615	565.92
696.936	1333.91
697.258	-462.16
697.579	-87.38
697.902	576.16
698.224	627.36
698.546	-271.7
698.869	-382.29
699.192	590.5
699.516	1182.36
699.839	-171.35
700.163	-58.71
700.487	406.18
700.811	1436.31
701.136	-453.97
701.461	-169.3
701.786	946.84
702.111	1387.16
702.436	-372.05
702.762	4.78
703.088	1016.48
703.415	1421.97
703.741	-19.8
704.068	-226.64
704.395	635.55
704.722	1000.09
705.05	-312.66
705.377	-204.11
705.705	897.69
706.034	783.01
706.362	-376.14
706.691	-523.6
707.02	1168.02
707.349	909.98
707.679	-245.07
708.009	-273.75
708.339	840.35
708.669	731.81
709	-232.79
709.33	-507.21
709.661	811.68
709.993	727.71
710.324	-175.44
710.656	-326.99
710.988	942.75
711.321	1045.15
711.653	-546.12
711.986	-202.07
712.319	271.01
712.652	944.8
712.986	-36.18
713.32	-343.38
713.654	1084.06
713.988	1079.96
714.323	-271.7
714.658	-310.61
714.993	672.42
715.328	516.77
715.664	-107.86
716	-68.95
716.336	1305.24
716.673	426.66
717.009	-73.04
717.346	-111.96
717.683	1213.08
718.021	756.38
718.359	-361.81
718.697	-185.68
719.035	627.36
719.373	410.28
719.712	-54.61
720.051	-408.91
720.39	1008.28
720.73	682.66
721.07	-322.9
721.41	-302.42
721.75	1106.59
722.091	795.29
722.432	-324.94
722.773	-95.57
723.114	631.46
723.456	658.08
723.798	-265.55
724.14	-236.88
724.482	377.51
724.825	844.45
725.168	-52.56
725.511	-296.27
725.855	643.74
726.198	504.48
726.542	-462.16
726.887	131.75
727.231	1057.43
727.576	295.59
727.921	-185.68
728.266	-535.89
728.612	633.51
728.958	844.45
729.304	-400.72
729.651	98.99
729.997	582.31
730.344	705.18
730.691	-359.76
731.039	-97.62
731.387	692.9
731.735	469.67
732.083	-144.72
732.431	-109.91
732.78	574.11
733.129	-75.09
733.479	-400.72
733.828	-249.17
734.178	486.05
734.528	70.31
734.879	-230.74
735.23	-406.86
735.581	696.99
735.932	592.55
736.283	-286.03
736.635	-499.02
736.987	1065.63
737.34	934.56
737.692	-441.68
738.045	-433.49
738.398	645.79
738.752	895.65
739.105	-607.56
739.459	-52.56
739.814	909.98
740.168	889.5
740.523	-494.93
740.878	-95.57
741.233	604.83
741.589	907.93
741.945	-384.34
742.301	-376.14
742.657	1012.38
743.014	412.32
743.371	-437.58
743.728	174.76
744.086	574.11
744.444	500.39
744.802	-529.74
745.16	-441.68
745.519	721.57
745.878	330.41
746.237	-441.68
746.597	-269.65
746.956	926.36
747.316	529.06
747.677	-574.8
748.037	-345.42
748.398	529.06
748.759	758.43
749.121	-85.33
749.482	-185.68
749.844	348.84
750.207	230.06
750.569	-836.94
750.932	-191.83
751.295	1151.64
751.659	619.17
752.022	-453.97
752.386	90.79
752.751	477.86
753.115	15.02
753.48	-341.33
753.845	-251.22
754.21	688.8
754.576	582.31
754.942	-607.56
755.308	-212.31
755.675	459.43
756.041	977.56
756.409	-566.6
756.776	-234.83
757.144	1151.64
757.511	746.14
757.88	-421.2
758.248	-619.85
758.617	-13.65
758.986	557.73
759.355	-257.36
759.725	-355.66
760.095	174.76
760.465	864.93
760.836	-552.27
761.206	-408.91
761.577	862.88
761.949	326.31
762.32	-253.27
762.692	-482.64
763.065	404.13
763.437	297.64
763.81	-531.79
764.183	-339.28
764.556	873.12
764.93	459.43
765.304	-144.72
765.678	-148.82
766.053	602.79
766.428	598.69
766.803	-580.94
767.178	-474.45
767.554	-11.61
767.93	299.69
768.306	-544.08
768.683	-556.36
769.06	766.62
769.437	584.35
769.814	-593.23
770.192	-558.41
770.57	387.75
770.948	1098.39
771.327	-331.09
771.706	-572.75
772.085	621.22
772.464	955.04
772.844	-382.29
773.224	-619.85
773.605	119.46
773.985	443.04
774.366	-357.71
774.748	-122.2
775.129	901.79
775.511	668.32
775.893	-513.36
776.276	-361.81
776.658	864.93
777.041	596.64
777.425	-619.85
777.808	-437.58
778.192	367.27
778.576	893.6
778.961	-712.01
779.346	-630.09
779.731	668.32
780.116	-107.86
780.502	-499.02
780.888	-380.24
781.274	475.81
781.661	219.82
782.048	-548.17
782.435	-634.19
782.823	361.13
783.21	533.15
783.598	-417.1
783.987	-370
784.376	869.02
784.765	283.3
785.154	-404.82
785.544	-544.08
785.933	711.33
786.324	236.2
786.714	-283.98
787.105	-603.47
787.496	512.67
787.888	172.71
788.279	-609.61
788.671	-507.21
789.064	434.85
789.456	647.84
789.849	-662.86
790.242	-689.48
790.636	314.02
791.03	604.83
791.424	-578.89
791.818	1002.14
792.213	713.38
792.608	477.86
793.004	-226.64
793.399	-814.41
793.795	402.08
794.192	340.65
794.588	-580.94
794.985	-779.59
795.382	500.39
795.78	387.75
796.178	-458.06
796.576	-591.18
796.974	1053.34
797.373	447.14
797.772	-646.48
798.172	-642.38
798.571	291.49
798.971	744.1
799.372	-437.58
799.772	-523.6
800.173	785.05
800.574	375.46
800.976	-472.4
801.378	-718.15
801.78	125.61
802.182	0.68
802.585	-421.2
802.988	-539.98
803.392	115.37
803.795	76.46
804.199	-570.7
804.604	-470.35
805.008	574.11
805.413	903.84
805.819	-466.25
806.224	-699.72
806.63	402.08
807.036	549.54
807.443	-476.49
807.85	-382.29
808.257	520.87
808.664	428.71
809.072	-146.77
809.48	-271.7
809.889	748.19
810.297	656.03
810.706	-259.41
811.116	-478.54
811.526	322.21
811.936	332.45
812.346	-582.99
812.757	-531.79
813.167	434.85
813.579	293.54
813.99	-456.01
814.402	-640.33
814.814	955.04
815.227	357.03
815.64	-728.39
816.053	-578.89
816.467	649.89
816.88	494.24
817.294	-208.21
817.709	-343.38
818.124	248.49
818.539	805.53
818.954	-277.84
819.37	-218.45
819.786	2.73
820.202	590.5
820.619	-775.5
821.036	-720.2
821.453	803.49
821.871	424.61
822.289	-660.81
822.707	-494.93
823.126	479.91
823.545	43.69
823.964	-490.83
824.384	-574.8
824.804	228.01
825.224	551.59
825.645	-286.03
826.065	-703.82
826.487	707.23
826.908	748.19
827.33	-466.25
827.752	-130.39
828.175	549.54
828.598	774.81
829.021	-87.38
829.444	336.55
829.868	570.02
830.292	246.44
830.717	-595.28
831.142	-652.62
831.567	158.38
831.992	354.98
832.418	-81.24
832.844	-601.42
833.27	443.04
833.697	445.09
834.124	-802.12
834.552	-683.34
834.979	938.65
835.408	586.4
835.836	-683.34
836.265	-482.64
836.694	305.83
837.123	625.31
837.553	-652.62
837.983	-816.46
838.413	608.93
838.844	567.97
839.275	-683.34
839.706	-349.52
840.138	1032.86
840.57	137.9
841.003	-527.69
841.435	-406.86
841.868	279.21
842.302	234.15
842.735	-310.61
843.169	-671.05
843.604	588.45
844.039	451.24
844.474	-611.66
844.909	-509.26
845.345	586.4
845.781	639.65
846.217	-605.52
846.654	-703.82
847.091	641.7
847.528	299.69
847.966	-675.15
848.404	-544.08
848.842	996
849.281	-214.35
849.72	-468.3
850.16	-666.96
850.599	156.33
851.039	107.18
851.48	-167.25
851.921	-537.93
852.362	524.96
852.803	787.1
853.245	-865.61
853.687	-523.6
854.129	658.08
854.572	236.2
855.015	-771.4
855.459	-664.91
855.903	101.03
856.347	625.31
856.791	-556.36
857.236	-507.21
857.681	977.56
858.127	1213.08
858.572	-310.61
859.019	-535.89
859.465	668.32
859.912	391.84
860.359	-730.44
860.807	-660.81
861.255	203.43
861.703	740
862.151	-462.16
862.6	-101.72
863.05	586.4
863.499	246.44
863.949	-521.55
864.4	-712.01
864.85	936.6
865.301	787.1
865.752	-523.6
866.204	-585.04
866.656	187.05
867.109	811.68
867.561	-519.5
868.014	-417.1
868.468	623.27
868.921	647.84
869.376	-478.54
869.83	-503.12
870.285	516.77
870.74	123.56
871.195	-437.58
871.651	-408.91
872.107	916.12
872.564	348.84
873.021	-777.55
873.478	-832.84
873.936	656.03
874.394	565.92
874.852	-574.8
875.31	-376.14
875.769	455.33
876.229	969.37
876.688	-355.66
877.148	-521.55
877.609	361.13
878.069	215.72
878.531	-298.32
878.992	-693.58
879.454	391.84
879.916	422.56
880.378	-458.06
880.841	-533.84
881.304	-126.29
881.768	60.07
882.232	-679.24
882.696	-277.84
883.161	72.36
883.626	383.65
884.091	-486.73
884.557	-482.64
885.023	64.17
885.489	717.47
885.956	-802.12
886.423	-619.85
886.89	-42.32
887.358	578.21
887.826	-580.94
888.295	-556.36
888.763	144.04
889.233	977.56
889.702	-550.22
890.172	-552.27
890.642	275.11
891.113	223.91
891.584	-259.41
892.055	-535.89
892.527	678.56
892.999	809.63
893.472	-648.52
893.944	-337.23
894.417	410.28
894.891	98.99
895.365	-490.83
895.839	-320.85
896.314	461.48
896.789	-347.47
897.264	-636.24
897.74	-697.67
898.216	754.34
898.692	696.99
899.169	-636.24
899.646	-597.32
900.123	524.96
900.601	987.8
901.079	-621.9
901.558	-453.97
902.037	733.86
902.516	418.47
902.996	-679.24
903.476	-697.67
903.956	262.82
904.437	629.41
904.918	-638.28
905.399	-728.39
905.881	537.25
906.363	641.7
906.846	-685.39
907.329	-490.83
907.812	74.41
908.296	596.64
908.78	-724.3
909.264	-669
909.749	164.52
910.234	606.88
910.719	-712.01
911.205	-306.51
911.691	-101.72
912.178	551.59
912.665	-191.83
913.152	-634.19
913.64	185
914.128	656.03
914.616	-482.64
915.105	-560.46
915.594	475.81
916.084	891.55
916.574	-410.96
917.064	-666.96
917.555	-60.76
918.046	572.07
918.537	-136.53
919.029	-918.86
919.521	283.3
920.013	856.73
920.506	-466.25
920.999	-650.57
921.493	664.22
921.987	197.29
922.481	-351.57
922.976	-560.46
923.471	311.97
923.967	451.24
924.462	-314.7
924.959	-470.35
925.455	469.67
925.952	367.27
926.449	-742.73
926.947	-580.94
927.445	402.08
927.944	320.17
928.442	-925
928.942	-687.43
929.441	725.66
929.941	70.31
930.442	-605.52
930.942	-537.93
931.443	680.61
931.945	49.83
932.447	-781.64
932.949	-609.61
933.451	287.4
933.954	225.96
934.458	-482.64
934.961	-707.91
935.465	172.71
935.97	156.33
936.475	-408.91
936.98	-726.35
937.486	-122.2
937.992	121.51
938.498	-597.32
939.005	-429.39
939.512	189.1
940.019	492.2
940.527	-517.45
941.035	-374.1
941.544	639.65
942.053	230.06
942.562	-245.07
943.072	-193.87
943.582	641.7
944.093	281.25
944.604	-730.44
945.115	-630.09
945.627	668.32
946.139	838.3
946.651	-548.17
947.164	-470.35
947.677	541.35
948.191	352.93
948.705	-646.48
949.219	-707.91
949.734	166.57
950.249	610.98
950.765	-591.18
951.281	-613.71
951.797	1385.11
952.314	676.51
952.831	-650.57
953.348	-855.37
953.866	578.21
954.384	314.02
954.903	-576.84
955.422	-816.46
955.941	291.49
956.461	303.78
956.981	-662.86
957.502	-423.25
958.023	510.63
958.544	486.05
959.066	-435.53
959.588	-761.16
960.11	-19.8
960.633	815.77
961.156	-626
961.68	-611.66
962.204	815.77
962.729	41.64
963.253	-638.28
963.779	-114
964.304	559.78
964.83	879.26
965.357	-769.35
965.883	-478.54
966.411	328.36
966.938	637.6
967.466	-521.55
967.994	-800.07
968.523	66.22
969.052	928.41
969.582	-666.96
970.112	-646.48
970.642	-7.51
971.173	733.86
971.704	-646.48
972.235	-398.67
972.767	426.66
973.3	332.45
973.832	-304.46
974.365	-814.41
974.899	397.99
975.433	584.35
975.967	-798.03
976.502	-396.62
977.037	410.28
977.572	846.49
978.108	-671.05
978.644	-793.93
979.181	1026.72
979.718	619.17
980.255	-1064.26
980.793	-396.62
981.331	-238.93
981.87	682.66
982.409	-623.95
982.948	-365.9
983.488	295.59
984.028	846.49
984.569	-492.88
985.11	-554.32
985.651	844.45
986.193	627.36
986.735	-804.17
987.278	-720.2
987.821	-75.09
988.364	305.83
988.908	-441.68
989.452	-683.34
989.997	-415.05
990.542	504.48
991.088	-654.67
991.633	-292.18
992.18	271.01
992.726	-93.52
993.273	-570.7
993.821	-443.73
994.369	432.8
994.917	647.84
995.465	-726.35
996.014	-771.4
996.564	516.77
997.114	123.56
997.664	-265.55
998.215	-742.73
998.766	463.52
999.317	-34.13
999.869	-580.94
1000.421	-759.11
1000.974	639.65
1001.527	522.91
1002.081	-716.11
1002.635	-351.57
1003.189	459.43
1003.744	705.18
1004.299	-957.77
1004.854	-603.47
1005.41	754.34
1005.967	225.96
1006.523	-572.75
1007.081	-478.54
1007.638	545.44
1008.196	516.77
1008.755	-789.83
1009.313	-519.5
1009.873	623.27
1010.432	-40.28
1010.992	-404.82
1011.553	-466.25
1012.114	426.66
1012.675	-48.47
1013.237	-343.38
1013.799	-333.14
1014.361	545.44
1014.924	-89.43
1015.487	-783.69
1016.051	-521.55
1016.615	746.14
1017.18	416.42
1017.745	-712.01
1018.31	-204.11
1018.876	862.88
1019.442	436.9
1020.009	-556.36
1020.576	-826.7
1021.143	348.84
1021.711	707.23
1022.28	-626
1022.848	-634.19
1023.417	748.19
1023.987	338.6
1024.557	-697.67
1025.127	-642.38
1025.698	-60.76
1026.269	37.55
1026.841	-752.97
1027.413	-494.93
1027.985	166.57
1028.558	406.18
1029.131	-675.15
1029.705	-492.88
1030.279	297.64
1030.854	318.12
1031.429	-757.07
1032.004	-224.59
1032.58	776.86
1033.156	-19.8
1033.733	-662.86
1034.31	-693.58
1034.887	688.8
1035.465	688.8
1036.043	-990.53
1036.622	-554.32
1037.201	295.59
1037.781	627.36
1038.361	-677.19
1038.941	-802.12
1039.522	467.62
1040.103	811.68
1040.685	-636.24
1041.267	-415.05
1041.85	1149.59
1042.433	627.36
1043.016	-709.96
1043.6	-482.64
1044.184	-304.46
1044.769	502.44
1045.354	-501.07
1045.939	-785.74
1046.525	338.6
1047.111	377.51
1047.698	-456.01
1048.285	-871.75
1048.873	574.11
1049.461	-13.65
1050.049	-644.43
1050.638	-626
1051.228	41.64
1051.817	770.72
1052.407	-630.09
1052.998	-382.29
1053.589	471.72
1054.18	696.99
1054.772	-949.57
1055.365	-658.76
1055.957	475.81
1056.55	309.93
1057.144	-531.79
1057.738	-695.63
1058.333	90.79
1058.927	82.6
1059.523	-558.41
1060.118	-712.01
1060.715	58.03
1061.311	615.07
1061.908	-720.2
1062.506	-425.29
1063.103	576.16
1063.702	-15.7
1064.3	-957.77
1064.9	-757.07
1065.499	1049.24
1066.099	178.86
1066.7	-595.28
1067.301	-859.46
1067.902	805.53
1068.504	705.18
1069.106	-355.66
1069.709	-404.82
1070.312	715.42
1070.915	494.24
1071.519	-660.81
1072.123	-367.95
1072.728	580.26
1073.333	242.34
1073.939	-277.84
1074.545	-503.12
1075.152	535.2
1075.759	94.89
1076.366	-757.07
1076.974	-394.58
1077.582	289.45
1078.191	660.13
1078.8	-476.49
1079.41	-884.04
1080.02	377.51
1080.63	367.27
1081.241	-146.77
1081.852	-892.23
1082.464	418.47
1083.076	348.84
1083.689	-728.39
1084.302	-593.23
1084.915	780.96
1085.529	508.58
1086.144	-658.76
1086.759	-505.17
1087.374	193.19
1087.99	320.17
1088.606	-703.82
1089.222	-654.67
1089.839	651.94
1090.457	238.25
1091.075	-503.12
1091.693	-939.33
1092.312	565.92
1092.931	836.25
1093.551	-748.87
1094.171	-339.28
1094.792	428.71
1095.413	135.85
1096.034	-564.56
1096.656	-621.9
1097.278	635.55
1097.901	273.06
1098.524	-660.81
1099.148	-357.71
1099.772	950.94
1100.397	322.21
1101.022	-732.49
1101.647	-634.19
1102.273	443.04
1102.899	635.55
1103.526	-927.05
1104.153	-400.72
1104.781	658.08
1105.409	795.29
1106.038	-812.36
1106.667	-918.86
1107.296	291.49
1107.926	133.8
1108.556	-171.35
1109.187	-499.02
1109.818	430.76
1110.45	674.46
1111.082	-548.17
1111.715	-578.89
1112.348	451.24
1112.981	254.63
1113.615	-283.98
1114.25	-566.6
1114.885	211.62
1115.52	215.72
1116.156	-818.5
1116.792	-623.95
1117.428	533.15
1118.066	191.14
1118.703	-326.99
1119.341	-621.9
1119.98	705.18
1120.618	801.44
1121.258	-781.64
1121.898	-750.92
1122.538	395.94
1123.179	-109.91
1123.82	-546.12
1124.461	-535.89
1125.103	639.65
1125.746	201.38
1126.389	-408.91
1127.032	-783.69
1127.676	567.97
1128.32	922.27
1128.965	-523.6
1129.61	-390.48
1130.256	199.34
1130.902	645.79
1131.549	-691.53
1132.196	-630.09
1132.844	701.09
1133.491	656.03
1134.14	-552.27
1134.789	-646.48
1135.438	926.36
1136.088	141.99
1136.738	-683.34
1137.389	-716.11
1138.04	484
1138.692	928.41
1139.344	-709.96
1139.996	-630.09
1140.649	432.8
1141.303	658.08
1141.957	-490.83
1142.611	-568.65
1143.266	479.91
1143.921	527.01
1144.577	-568.65
1145.233	-662.86
1145.89	197.29
1146.547	557.73
1147.205	-744.78
1147.863	-496.97
1148.521	402.08
1149.18	639.65
1149.84	-822.6
1150.5	-605.52
1151.16	314.02
1151.821	649.89
1152.482	-712.01
1153.144	-97.62
1153.806	467.62
1154.469	535.2
1155.132	-800.07
1155.796	-521.55
1156.46	610.98
1157.124	938.65
1157.789	-654.67
1158.455	-595.28
1159.121	346.79
1159.787	-44.37
1160.454	-537.93
1161.121	-445.77
1161.789	318.12
1162.457	680.61
1163.126	-613.71
1163.795	-576.84
1164.465	361.13
1165.135	166.57
1165.806	-507.21
1166.477	-376.14
1167.148	-300.37
1167.82	436.9
1168.493	-810.31
1169.166	-367.95
1169.839	17.07
1170.513	418.47
1171.187	-730.44
1171.862	-683.34
1172.537	311.97
1173.213	438.95
1173.889	-679.24
1174.566	-720.2
1175.243	723.62
1175.921	352.93
1176.599	-492.88
1177.278	-394.58
1177.957	92.84
1178.636	803.49
1179.316	-359.76
1179.997	-925
1180.678	473.76
1181.359	758.43
1182.041	-740.68
1182.723	-836.94
1183.406	729.76
1184.089	76.46
1184.773	-687.43
1185.457	-847.18
1186.142	193.19
1186.827	1301.14
1187.513	-724.3
1188.199	-169.3
1188.886	101.03
1189.573	397.99
1190.26	-544.08
1190.948	-687.43
1191.637	51.88
1192.326	264.87
1193.015	-779.59
1193.705	-793.93
1194.396	174.76
1195.087	320.17
1195.778	-466.25
1196.47	-720.2
1197.162	434.85
1197.855	471.72
1198.548	-636.24
1199.242	-855.37
1199.936	492.2
1200.631	643.74
1201.326	-761.16
1202.022	-638.28
1202.718	764.58
1203.415	467.62
1204.112	-894.28
1204.81	-509.26
1205.508	221.86
1206.206	965.28
1206.905	-646.48
1207.605	-748.87
1208.305	131.75
1209.005	590.5
1209.706	-818.5
1210.408	-744.78
1211.11	246.44
1211.812	479.91
1212.515	-572.75
1213.218	-621.9
1213.922	369.32
1214.627	307.88
1215.331	-513.36
1216.037	-556.36
1216.743	45.74
1217.449	477.86
1218.156	-523.6
1218.863	-456.01
1219.571	225.96
1220.279	803.49
1220.988	-843.08
1221.697	-539.98
1222.406	584.35
1223.117	162.47
1223.827	-605.52
1224.538	-648.52
1225.25	393.89
1225.962	428.71
1226.675	-867.66
1227.388	-503.12
1228.101	258.73
1228.815	133.8
1229.53	-619.85
1230.245	-423.25
1230.961	426.66
1231.677	316.07
1232.393	-626
1233.11	-587.08
1233.828	1006.24
1234.546	443.04
1235.264	-496.97
1235.983	-304.46
1236.702	1086.11
1237.422	352.93
1238.143	-355.66
1238.864	-726.35
1239.585	690.85
1240.307	-273.75
1241.029	-845.13
1241.752	-245.07
1242.476	592.55
1243.2	846.49
1243.924	-445.77
1244.649	-529.74
1245.374	631.46
1246.1	846.49
1246.826	-843.08
1247.553	-589.13
1248.28	518.82
1249.008	500.39
1249.737	-732.49
1250.465	-464.21
1251.195	402.08
1251.925	762.53
1252.655	-693.58
1253.386	-355.66
1254.117	383.65
1254.849	64.17
1255.581	-593.23
1256.314	-441.68
1257.047	709.28
1257.781	535.2
1258.515	-621.9
1259.25	-202.07
1259.985	389.8
1260.721	414.37
1261.457	-548.17
1262.194	-884.04
1262.931	221.86
1263.669	770.72
1264.407	-376.14
1265.146	-765.26
1265.885	430.76
1266.625	271.01
1267.365	-546.12
1268.106	-666.96
1268.847	352.93
1269.589	195.24
1270.331	-406.86
1271.074	-513.36
1271.817	428.71
1272.561	447.14
1273.305	-316.75
1274.05	-474.45
1274.795	436.9
1275.541	406.18
1276.287	-935.24
1277.034	-865.61
1277.781	41.64
1278.529	578.21
1279.277	-867.66
1280.026	-822.6
1280.775	785.05
1281.525	-453.97
1282.275	-818.5
1283.026	-146.77
1283.777	414.37
1284.529	510.63
1285.281	-537.93
1286.034	-802.12
1286.788	793.25
1287.541	457.38
1288.296	-884.04
1289.051	-363.86
1289.806	434.85
1290.562	516.77
1291.318	-802.12
1292.075	-587.08
1292.832	776.86
1293.59	785.05
1294.349	-734.54
1295.108	-580.94
1295.867	1045.15
1296.627	504.48
1297.387	-791.88
1298.148	-548.17
1298.91	322.21
1299.672	96.94
1300.434	-654.67
1301.197	-775.5
1301.961	1297.05
1302.725	230.06
1303.489	-546.12
1304.254	-548.17
1305.02	492.2
1305.786	740
1306.552	-933.19
1307.319	-920.9
1308.087	844.45
1308.855	746.14
1309.624	-752.97
1310.393	-537.93
1311.162	-210.26
1311.933	610.98
1312.703	-490.83
1313.474	-447.82
1314.246	266.92
1315.018	623.27
1315.791	-341.33
1316.564	-703.82
1317.338	651.94
1318.112	256.68
1318.887	-892.23
1319.662	-585.04
1320.438	361.13
1321.214	217.77
1321.991	-482.64
1322.769	-658.76
1323.546	402.08
1324.325	90.79
1325.104	-765.26
1325.883	-585.04
1326.663	-146.77
1327.444	457.38
1328.224	-621.9
1329.006	-527.69
1329.788	406.18
1330.571	357.03
1331.354	-292.18
1332.137	-728.39
1332.921	717.47
1333.706	-40.28
1334.491	-453.97
1335.277	-499.02
1336.063	74.41
1336.849	238.25
1337.637	-748.87
1338.424	-585.04
1339.213	971.42
1340.001	799.39
1340.791	-765.26
1341.581	-402.77
1342.371	553.63
1343.162	295.59
1343.953	-666.96
1344.745	-564.56
1345.537	547.49
1346.33	604.83
1347.124	-660.81
1347.918	-322.9
1348.712	901.79
1349.507	602.79
1350.303	-664.91
1351.099	-535.89
1351.896	33.45
1352.693	-306.51
1353.49	-556.36
1354.289	-523.6
1355.087	516.77
1355.887	819.87
1356.686	-433.49
1357.487	-634.19
1358.288	101.03
1359.089	293.54
1359.891	-234.83
1360.693	-634.19
1361.496	-89.43
1362.3	365.22
1363.104	-728.39
1363.908	-658.76
1364.713	901.79
1365.519	848.54
1366.325	-722.25
1367.131	-836.94
1367.939	225.96
1368.746	909.98
1369.555	-1039.69
1370.363	-462.16
1371.173	912.03
1371.982	1266.33
1372.793	-716.11
1373.604	-925
1374.415	576.16
1375.227	701.09
1376.039	-793.93
1376.852	-671.05
1377.666	1010.33
1378.48	389.8
1379.295	-746.83
1380.11	-795.98
1380.925	-36.18
1381.742	1032.86
1382.558	-671.05
1383.376	-642.38
1384.193	365.22
1385.012	172.71
1385.831	-652.62
1386.65	-662.86
1387.47	197.29
1388.29	199.34
1389.111	-556.36
1389.933	-933.19
1390.755	701.09
1391.578	254.63
1392.401	-875.85
1393.225	-695.63
1394.049	852.64
1394.873	336.55
1395.699	-709.96
1396.525	-474.45
1397.351	731.81
1398.178	31.4
1399.005	-593.23
1399.833	-1088.84
1400.662	598.69
1401.491	860.83
1402.321	-671.05
1403.151	-621.9
1403.981	455.33
1404.813	561.83
1405.644	-410.96
1406.477	-757.07
1407.309	156.33
1408.143	1133.21
1408.977	-800.07
1409.811	-695.63
1410.646	903.84
1411.482	791.2
1412.318	-572.75
1413.155	-613.71
1413.992	641.7
1414.829	-15.7
1415.668	-605.52
1416.506	-357.71
1417.346	717.47
1418.186	484
1419.026	-683.34
1419.867	-875.85
1420.709	651.94
1421.551	570.02
1422.393	-927.05
1423.236	-462.16
1424.08	551.59
1424.924	363.17
1425.769	-802.12
1426.614	-675.15
1427.46	615.07
1428.307	158.38
1429.154	-777.55
1430.001	-808.26
1430.849	404.13
1431.698	260.77
1432.547	-830.79
1433.397	-972.1
1434.247	555.68
1435.098	957.08
1435.949	-611.66
1436.801	-658.76
1437.653	68.27
1438.506	649.89
1439.36	-904.52
1440.214	-746.83
1441.069	537.25
1441.924	297.64
1442.78	-648.52
1443.636	-843.08
1444.493	301.73
1445.35	576.16
1446.208	-574.8
1447.067	-709.96
1447.926	455.33
1448.785	830.11
1449.645	-646.48
1450.506	-720.2
1451.367	336.55
1452.229	180.9
1453.091	-830.79
1453.954	-228.69
1454.818	244.39
1455.682	385.7
1456.546	-634.19
1457.412	-896.33
1458.277	783.01
1459.143	434.85
1460.01	-482.64
1460.878	-755.02
1461.745	410.28
1462.614	113.32
1463.483	-832.84
1464.352	-484.69
1465.223	817.82
1466.093	666.27
1466.964	-765.26
1467.836	-812.36
1468.709	772.77
1469.581	311.97
1470.455	-505.17
1471.329	-662.86
1472.203	0.68
1473.079	195.24
1473.954	-245.07
1474.831	-744.78
1475.707	109.23
1476.585	148.14
1477.463	-707.91
1478.341	-578.89
1479.22	-138.58
1480.1	463.52
1480.98	-974.15
1481.861	-847.18
1482.742	467.62
1483.624	576.16
1484.506	-365.9
1485.389	-630.09
1486.273	230.06
1487.157	195.24
1488.041	-767.31
1488.926	-812.36
1489.812	420.52
1490.699	393.89
1491.585	-810.31
1492.473	-613.71
1493.361	-232.79
1494.249	254.63
1495.139	-468.3
1496.028	-572.75
1496.919	68.27
1497.809	428.71
1498.701	-685.39
1499.593	-621.9
1500.485	289.45
1501.378	684.7
1502.272	-380.24
1503.166	-660.81
1504.061	737.95
1504.956	553.63
1505.852	-630.09
1506.749	-793.93
1507.646	504.48
1508.543	344.74
1509.442	-881.99
1510.34	-206.16
1511.24	1057.43
1512.14	320.17
1513.04	-691.53
1513.941	-871.75
1514.843	1219.22
1515.745	35.5
1516.648	-587.08
1517.551	-808.26
1518.455	-140.63
1519.359	-71
1520.264	-830.79
1521.17	-881.99
1522.076	180.9
1522.983	639.65
1523.89	-873.8
1524.798	-433.49
1525.706	422.56
1526.615	1376.92
1527.525	-828.74
1528.435	-691.53
1529.346	524.96
1530.257	176.81
1531.169	-431.44
1532.081	-716.11
1532.994	1030.81
1533.908	254.63
1534.822	-693.58
1535.737	-652.62
1536.652	330.41
1537.568	357.03
1538.484	-648.52
1539.401	-1031.49
1540.319	901.79
1541.237	-23.89
1542.156	-900.42
1543.075	-728.39
1543.995	983.71
1544.916	1131.16
1545.837	-775.5
1546.758	-777.55
1547.68	684.7
1548.603	725.66
1549.527	-423.25
1550.451	-800.07
1551.375	545.44
1552.3	725.66
1553.226	-916.81
1554.152	-777.55
1555.079	875.17
1556.006	359.08
1556.934	-472.4
1557.863	-615.76
1558.792	961.18
1559.722	62.12
1560.652	-572.75
1561.583	-896.33
1562.514	49.83
1563.446	139.94
1564.379	-980.29
1565.312	-505.17
1566.246	752.29
1567.18	418.47
1568.115	-503.12
1569.051	-728.39
1569.987	742.05
1570.924	967.32
1571.861	-881.99
1572.799	-623.95
1573.737	633.51
1574.676	414.37
1575.616	-523.6
1576.556	-720.2
1577.497	29.35
1578.438	258.73
1579.38	-757.07
1580.323	-599.37
1581.266	524.96
1582.21	725.66
1583.154	-838.98
1584.099	-828.74
1585.044	524.96
1585.99	731.81
1586.937	-400.72
1587.884	-554.32
1588.832	275.11
1589.78	877.21
1590.729	-695.63
1591.679	-386.38
1592.629	350.89
1593.58	510.63
1594.531	-605.52
1595.483	-439.63
1596.435	250.53
1597.388	72.36
1598.342	-355.66
1599.296	-404.82
1600.251	549.54
1601.207	785.05
1602.163	-521.55
1603.119	-732.49
1604.077	844.45
1605.034	764.58
1605.993	-458.06
1606.952	41.64
1607.911	328.36
1608.872	369.32
1609.832	-759.11
1610.794	-865.61
1611.756	647.84
1612.718	524.96
1613.681	-337.23
1614.645	-623.95
1615.609	846.49
1616.574	260.77
1617.54	-234.83
1618.506	-734.54
1619.472	690.85
1620.44	651.94
1621.408	-173.39
1622.376	-456.01
1623.345	363.17
1624.315	737.95
1625.285	-490.83
1626.256	-435.53
1627.227	463.52
1628.199	-89.43
1629.172	-478.54
1630.145	-392.53
1631.119	529.06
1632.094	987.8
1633.069	-527.69
1634.044	-384.34
1635.02	176.81
1635.997	699.04
1636.975	-570.7
1637.953	-769.35
1638.931	909.98
1639.911	-3.41
1640.89	-703.82
1641.871	-499.02
1642.852	465.57
1643.833	541.35
1644.816	-709.96
1645.798	-922.95
1646.782	901.79
1647.766	221.86
1648.75	-683.34
1649.736	-656.72
1650.721	-60.76
1651.708	418.47
1652.695	-613.71
1653.682	-462.16
1654.671	496.29
1655.66	565.92
1656.649	-666.96
1657.639	-699.72
1658.63	12.97
1659.621	201.38
1660.613	-873.8
1661.605	-822.6
1662.598	219.82
1663.592	182.95
1664.586	-906.57
1665.581	-812.36
1666.576	316.07
1667.572	354.98
1668.569	-683.34
1669.566	-744.78
1670.564	541.35
1671.563	737.95
1672.562	-646.48
1673.562	-259.41
1674.562	473.76
1675.563	469.67
1676.564	-374.1
1677.566	-630.09
1678.569	981.66
1679.572	-349.52
1680.576	-619.85
1681.581	-695.63
1682.586	137.9
1683.592	561.83
1684.598	-675.15
1685.605	-472.4
1686.613	639.65
1687.621	250.53
1688.63	-537.93
1689.639	-404.82
1690.649	223.91
1691.66	361.13
1692.671	-531.79
1693.683	-691.53
1694.696	101.03
1695.709	455.33
1696.722	-724.3
1697.737	-548.17
1698.752	115.37
1699.767	461.48
1700.783	-578.89
1701.8	-466.25
1702.818	373.41
1703.836	23.21
1704.854	-836.94
1705.873	-728.39
1706.893	201.38
1707.914	332.45
1708.935	-617.8
1709.956	-621.9
1710.979	322.21
1712.002	371.37
1713.025	-636.24
1714.049	-503.12
1715.074	557.73
1716.099	541.35
1717.125	-765.26
1718.152	-816.46
1719.179	117.42
1720.207	735.9
1721.235	-13.65
1722.265	-253.27
1723.294	377.51
1724.325	238.25
1725.355	-456.01
1726.387	-535.89
1727.419	264.87
1728.452	574.11
1729.485	-419.15
1730.519	-765.26
1731.554	51.88
1732.589	369.32
1733.625	-736.59
1734.662	-654.67
1735.699	-13.65
1736.736	629.41
1737.775	-679.24
1738.814	-640.33
1739.853	80.55
1740.894	160.42
1741.934	-509.26
1742.976	-806.22
1744.018	510.63
1745.061	377.51
1746.104	-726.35
1747.148	-673.1
1748.193	332.45
1749.238	389.8
1750.284	-539.98
1751.33	-832.84
1752.377	488.1
1753.425	1110.68
1754.473	-560.46
1755.522	-597.32
1756.572	762.53
1757.622	527.01
1758.673	-752.97
1759.724	-505.17
1760.776	770.72
1761.829	721.57
1762.882	-329.04
1763.936	-728.39
1764.991	109.23
1766.046	991.9
1767.102	-441.68
1768.158	-818.5
1769.215	508.58
1770.273	594.59
1771.331	-593.23
1772.39	-791.88
1773.45	467.62
1774.51	377.51
1775.571	-765.26
1776.632	-179.54
1777.694	275.11
1778.757	531.11
1779.82	-388.43
1780.884	-447.82
1781.949	119.46
1783.014	492.2
1784.08	-900.42
1785.147	-673.1
1786.214	131.75
1787.282	223.91
1788.35	-384.34
1789.419	-441.68
1790.489	703.14
1791.559	389.8
1792.63	-701.77
1793.702	-404.82
1794.774	287.4
1795.847	549.54
1796.92	-347.47
1797.994	-492.88
1799.069	543.39
1800.144	1118.87
1801.22	-677.19
1802.297	-374.1
1803.374	-38.23
1804.452	508.58
1805.531	-679.24
1806.61	-404.82
1807.69	610.98
1808.77	-79.19
1809.851	-470.35
1810.933	-898.38
1812.015	672.42
1813.098	96.94
1814.182	-572.75
1815.266	-456.01
1816.351	311.97
1817.437	373.41
1818.523	-523.6
1819.61	-552.27
1820.697	367.27
1821.785	1204.89
1822.874	-531.79
1823.963	-669
1825.053	129.7
1826.144	559.78
1827.235	-681.29
1828.327	-685.39
1829.42	336.55
1830.513	-64.85
1831.607	-740.68
1832.701	-705.87
1833.796	393.89
1834.892	696.99
1835.989	-816.46
1837.086	-720.2
1838.183	344.74
1839.282	377.51
1840.381	-632.14
1841.48	-646.48
1842.581	402.08
1843.682	963.23
1844.783	-253.27
1845.885	-396.62
1846.988	688.8
1848.092	561.83
1849.196	-576.84
1850.301	-474.45
1851.406	-11.61
1852.512	1090.2
1853.619	-656.72
1854.726	-738.63
1855.834	107.18
1856.943	658.08
1858.052	-720.2
1859.162	-587.08
1860.273	428.71
1861.384	778.91
1862.496	-611.66
1863.608	-693.58
1864.721	477.86
1865.835	191.14
1866.95	-683.34
1868.065	-638.28
1869.181	115.37
1870.297	656.03
1871.414	-304.46
1872.532	-816.46
1873.65	125.61
1874.769	236.2
1875.889	-748.87
1877.009	-306.51
1878.13	494.24
1879.252	791.2
1880.374	-527.69
1881.497	-718.15
1882.62	404.13
1883.745	187.05
1884.87	-847.18
1885.995	-834.89
1887.121	193.19
1888.248	74.41
1889.376	-818.5
1890.504	-679.24
1891.632	328.36
1892.762	199.34
1893.892	-701.77
1895.023	-413.01
1896.154	131.75
1897.286	250.53
1898.419	-656.72
1899.552	-556.36
1900.686	563.87
1901.821	494.24
1902.956	-646.48
1904.092	-515.41
1905.229	823.97
1906.366	606.88
1907.504	-666.96
1908.643	-648.52
1909.782	639.65
