Data from led2700K_USB4H112691__1__12-54-40-104.txt Node

Date: Tue Dec 17 12:54:40 CET 2024
User: Etudiants TP
Spectrometer: USB4H11269
Trigger mode: 4
Integration Time (sec): 1.000000E0
Scans to average: 1
Electric dark correction enabled: true
Nonlinearity correction enabled: false
Boxcar width: 0
XAxis mode: Wavelengths
Number of Pixels in Spectrum: 3648
>>>>>Begin Spectral Data<<<<<
286.377	-1713.3
286.631	-1713.3
286.884	-1713.3
287.138	-1619.09
287.391	-1701.01
287.644	-881.82
287.896	-648.35
288.149	744.27
288.401	500.56
288.653	-488.61
288.905	-459.94
289.157	871.24
289.409	285.52
289.661	-425.12
289.912	-777.37
290.163	535.37
290.414	744.27
290.665	-674.98
290.916	-613.54
291.166	557.9
291.417	1067.85
291.667	-580.77
291.917	-275.62
292.167	543.57
292.417	389.97
292.666	-765.09
292.916	-652.45
293.165	496.46
293.414	762.7
293.663	-969.88
293.912	-814.24
294.16	770.89
294.408	674.64
294.657	-748.7
294.905	-423.08
295.153	559.95
295.4	613.2
295.648	-799.9
295.895	-701.6
296.143	191.31
296.39	809.8
296.637	-689.31
296.884	-783.52
297.13	617.29
297.377	861
297.623	-570.53
297.869	-167.08
298.115	832.33
298.361	801.61
298.606	-769.18
298.852	-634.02
299.097	590.67
299.342	1010.5
299.587	-513.19
299.832	-558.24
300.077	697.16
300.322	625.48
300.566	-685.22
300.81	-470.18
301.054	572.24
301.298	822.09
301.542	-208.04
301.785	-380.07
302.029	1002.31
302.272	725.83
302.515	-853.15
302.758	-644.26
303.001	721.74
303.244	756.55
303.486	-593.06
303.729	-881.82
303.971	928.58
304.213	834.38
304.455	-859.29
304.696	-412.84
304.938	396.11
305.179	734.03
305.421	-500.9
305.662	-517.28
305.903	428.88
306.143	312.14
306.384	-507.04
306.625	-439.46
306.865	445.26
307.105	285.52
307.345	-484.52
307.585	-543.91
307.825	74.58
308.064	736.07
308.304	-658.59
308.543	-861.34
308.782	578.38
309.021	854.86
309.26	-330.92
309.499	-580.77
309.737	996.17
309.976	678.73
310.214	-816.29
310.452	-666.78
310.69	1213.25
310.928	308.05
311.165	-656.54
311.403	-728.22
311.64	977.73
311.878	684.87
312.115	-517.28
312.351	-517.28
312.588	445.26
312.825	920.39
313.061	-816.29
313.298	-38.06
313.534	320.34
313.77	777.03
314.006	-634.02
314.241	-634.02
314.477	871.24
314.713	1278.79
314.948	-570.53
315.183	349.01
315.418	1051.46
315.653	664.4
315.888	-732.32
316.122	-375.97
316.357	475.98
316.591	777.03
316.825	-521.38
317.059	-562.34
317.293	944.97
317.527	594.76
317.76	-699.55
317.994	-548
318.227	701.26
318.46	1241.92
318.693	-734.37
318.926	-545.95
319.159	152.4
319.391	551.76
319.624	-775.33
319.856	-609.44
320.088	719.69
320.321	682.83
320.552	-326.82
320.784	-627.87
321.016	801.61
321.247	35.67
321.479	-386.21
321.71	-365.73
321.941	-64.68
322.172	1088.32
322.403	-750.75
322.633	-390.31
322.864	770.89
323.094	361.3
323.325	-91.31
323.555	-668.83
323.785	156.5
324.014	336.72
324.244	-453.8
324.474	-279.72
324.703	889.67
324.933	883.53
325.162	-416.93
325.391	-808.09
325.62	-13.48
325.848	897.86
326.077	-502.95
326.306	-349.35
326.534	764.75
326.762	1018.69
326.99	-586.91
327.218	-298.15
327.446	848.71
327.674	76.63
327.901	-693.41
328.129	-644.26
328.356	785.23
328.583	195.41
328.81	-715.94
329.037	-388.26
329.264	502.61
329.491	889.67
329.717	-443.56
329.944	-650.4
330.17	379.73
330.396	222.03
330.622	-697.5
330.848	-437.41
331.074	496.46
331.299	1497.92
331.525	-640.16
331.75	-627.87
331.975	932.68
332.201	248.66
332.426	-890.01
332.65	-746.66
332.875	-58.54
333.1	379.73
333.324	-705.7
333.549	-754.85
333.773	346.96
333.997	602.96
334.221	-609.44
334.445	-599.2
334.668	658.25
334.892	1112.9
335.116	-373.92
335.339	-562.34
335.562	-5.29
335.785	543.57
336.008	-328.87
336.231	-605.35
336.454	-97.45
336.676	953.16
336.899	-525.47
337.121	-357.54
337.343	78.68
337.566	576.33
337.788	-566.43
338.009	-640.16
338.231	207.7
338.453	498.51
338.674	3437.34
338.896	-519.33
339.117	9.05
339.338	1067.85
339.559	-742.56
339.78	-586.91
340.001	109.4
340.222	885.58
340.442	-629.92
340.663	-177.32
340.883	674.64
341.103	453.45
341.323	-545.95
341.543	-439.46
341.763	822.09
341.983	381.78
342.202	-705.7
342.422	-752.8
342.641	1196.87
342.861	418.64
343.08	-308.39
343.299	-791.71
343.518	674.64
343.736	582.48
343.955	-562.34
344.174	-775.33
344.392	875.34
344.61	105.3
344.829	-746.66
345.047	-560.29
345.265	600.91
345.483	912.2
345.7	-652.45
345.918	-322.73
346.136	97.11
346.353	869.19
346.57	-738.46
346.788	-707.74
347.005	410.45
347.222	88.92
347.438	-25.77
347.655	-660.64
347.872	205.65
348.088	1108.8
348.305	-378.02
348.521	-607.39
348.737	211.79
348.953	930.63
349.169	-234.66
349.385	-476.32
349.601	600.91
349.817	-93.35
350.032	-191.66
350.248	-302.25
350.463	1295.17
350.678	-232.62
350.893	-629.92
351.108	-707.74
351.323	189.27
351.538	789.32
351.753	-697.5
351.967	-586.91
352.182	822.09
352.396	273.23
352.61	-715.94
352.824	-595.11
353.038	631.63
353.252	801.61
353.466	-388.26
353.68	-568.48
353.894	375.63
354.107	256.85
354.32	-404.64
354.534	-631.97
354.747	711.5
354.96	-9.39
355.173	-343.21
355.386	-756.9
355.599	582.48
355.811	277.33
356.024	-685.22
356.236	-433.32
356.449	250.71
356.661	365.39
356.873	-834.72
357.085	-904.35
357.297	709.45
357.509	686.92
357.721	-634.02
357.933	-717.98
358.144	252.75
358.356	170.83
358.567	-386.21
358.778	-754.85
358.989	973.64
359.2	166.74
359.411	-494.76
359.622	-509.09
359.833	600.91
360.044	244.56
360.254	-613.54
360.465	-797.85
360.675	512.85
360.885	449.36
361.096	-791.71
361.306	-509.09
361.516	285.52
361.726	400.21
361.935	-881.82
362.145	-611.49
362.355	543.57
362.564	527.18
362.774	-726.18
362.983	-869.53
363.192	834.38
363.401	193.36
363.61	-781.47
363.819	-283.81
364.028	502.61
364.237	971.59
364.445	-574.63
364.654	-410.79
364.862	475.98
365.071	158.55
365.279	-388.26
365.487	-668.83
365.695	555.85
365.903	367.44
366.111	-722.08
366.319	-638.11
366.527	578.38
366.734	244.56
366.942	-412.84
367.149	-785.57
367.357	-560.29
367.564	1002.31
367.771	-511.14
367.978	-709.79
368.185	152.4
368.392	375.63
368.599	-283.81
368.806	-593.06
369.013	-128.17
369.219	574.28
369.426	-767.13
369.632	-308.39
369.838	1153.86
370.044	693.07
370.251	-562.34
370.457	-480.42
370.663	990.02
370.868	406.35
371.074	-570.53
371.28	-625.83
371.485	-167.08
371.691	734.03
371.896	-636.06
372.102	-787.61
372.307	1071.94
372.512	897.86
372.717	-681.12
372.922	-197.8
373.127	60.24
373.332	512.85
373.537	-484.52
373.741	-605.35
373.946	531.28
374.151	383.82
374.355	-785.57
374.559	-455.84
374.764	260.95
374.968	-302.25
375.172	-599.2
375.376	-320.68
375.58	539.47
375.784	64.34
375.987	-783.52
376.191	-519.33
376.395	207.7
376.598	152.4
376.802	-773.28
377.005	-332.97
377.208	219.99
377.412	174.93
377.615	-840.86
377.818	-726.18
378.021	168.79
378.224	-11.43
378.426	-582.82
378.629	-838.81
378.832	770.89
379.034	551.76
379.237	-844.96
379.439	-863.39
379.642	791.37
379.844	494.41
380.046	-947.36
380.248	-754.85
380.45	-44.2
380.652	-197.8
380.854	-521.38
381.056	-664.74
381.258	338.77
381.459	518.99
381.661	-777.37
381.862	-328.87
382.064	-109.74
382.265	244.56
382.467	-756.9
382.668	-451.75
382.869	715.59
383.07	471.89
383.271	-572.58
383.472	-640.16
383.673	764.75
383.874	322.38
384.074	-660.64
384.275	-779.42
384.476	674.64
384.676	1053.51
384.876	-748.7
385.077	-689.31
385.277	672.59
385.477	979.78
385.677	-636.06
385.878	-488.61
386.078	379.73
386.278	250.71
386.477	-320.68
386.677	-246.95
386.877	529.23
387.077	650.06
387.276	-464.04
387.476	-543.91
387.675	297.81
387.875	1012.55
388.074	-808.09
388.273	-529.57
388.472	815.94
388.671	-191.66
388.87	-756.9
389.069	-226.47
389.268	-160.94
389.467	64.34
389.666	-783.52
389.865	-234.66
390.063	568.14
390.262	705.35
390.461	-689.31
390.659	-697.5
390.857	766.79
391.056	656.2
391.254	-713.89
391.452	-640.16
391.65	736.07
391.849	600.91
392.047	-470.18
392.245	-263.33
392.442	346.96
392.64	600.91
392.838	-273.57
393.036	-455.84
393.233	246.61
393.431	248.66
393.629	-855.2
393.826	-443.56
394.023	191.31
394.221	-240.81
394.418	-519.33
394.615	-339.11
394.812	-95.4
395.01	701.26
395.207	-486.56
395.404	-715.94
395.601	961.35
395.797	396.11
395.994	-717.98
396.191	-545.95
396.388	252.75
396.584	658.25
396.781	-373.92
396.977	-119.98
397.174	637.77
397.37	-23.72
397.567	-316.58
397.763	-697.5
397.959	299.86
398.155	301.9
398.352	-586.91
398.548	-259.24
398.744	381.78
398.94	379.73
399.136	-793.76
399.331	-357.54
399.527	252.75
399.723	529.23
399.919	-310.44
400.114	-529.57
400.31	269.14
400.505	523.09
400.701	-414.88
400.896	-605.35
401.092	119.64
401.287	363.34
401.482	-693.41
401.678	-519.33
401.873	629.58
402.068	658.25
402.263	-392.36
402.458	-548
402.653	123.73
402.848	494.41
403.043	-511.14
403.237	-746.66
403.432	219.99
403.627	-136.36
403.822	-738.46
404.016	-586.91
404.211	142.16
404.405	545.61
404.6	-255.14
404.794	-234.66
404.989	424.78
405.183	191.31
405.377	-312.49
405.571	-169.13
405.766	455.5
405.96	293.71
406.154	-533.67
406.348	-349.35
406.542	551.76
406.736	557.9
406.93	-681.12
407.124	-519.33
407.318	273.23
407.511	365.39
407.705	-373.92
407.899	-580.77
408.092	525.13
408.286	346.96
408.48	-674.98
408.673	-672.93
408.867	13.14
409.06	301.9
409.253	-287.91
409.447	-461.99
409.64	539.47
409.833	488.27
410.026	-357.54
410.22	-394.4
410.413	695.11
410.606	435.02
410.799	-746.66
410.992	-638.11
411.185	332.62
411.378	912.2
411.571	-525.47
411.764	-423.08
411.956	586.57
412.149	437.07
412.342	-332.97
412.534	-435.36
412.727	578.38
412.92	297.81
413.112	-459.94
413.305	-191.66
413.497	766.79
413.69	602.96
413.882	-431.27
414.075	-216.23
414.267	482.13
414.459	244.56
414.652	-593.06
414.844	-533.67
415.036	527.18
415.228	791.37
415.42	-222.38
415.612	-578.72
415.804	883.53
415.997	420.69
416.188	-320.68
416.38	-345.25
416.572	158.55
416.764	588.62
416.956	-521.38
417.148	-545.95
417.34	224.08
417.531	-60.59
417.723	-552.1
417.915	-513.19
418.107	109.4
418.298	422.73
418.49	-439.46
418.681	-300.2
418.873	785.23
419.064	365.39
419.256	-478.37
419.447	-627.87
419.639	482.13
419.83	758.6
420.021	-363.69
420.213	-603.3
420.404	342.86
420.595	387.92
420.786	-283.81
420.978	-314.53
421.169	668.49
421.36	318.29
421.551	-603.3
421.742	-627.87
421.933	826.18
422.124	510.8
422.315	-412.84
422.506	-480.42
422.697	566.09
422.888	166.74
423.079	-210.09
423.27	-560.29
423.461	199.51
423.652	95.06
423.842	-570.53
424.033	-431.27
424.224	527.18
424.415	928.58
424.605	-412.84
424.796	-517.28
424.987	658.25
425.177	482.13
425.368	-644.26
425.558	-715.94
425.749	301.9
425.939	162.64
426.13	-134.31
426.32	-378.02
426.511	191.31
426.701	117.59
426.892	-398.5
427.082	-584.87
427.272	152.4
427.463	371.54
427.653	-496.8
427.843	-330.92
428.034	912.2
428.224	457.55
428.414	-677.02
428.604	-369.83
428.795	525.13
428.985	539.47
429.175	-185.51
429.365	-271.53
429.555	357.2
429.745	367.44
429.935	-461.99
430.126	-339.11
430.316	695.11
430.506	723.79
430.696	-486.56
430.886	-273.57
431.076	447.31
431.266	215.89
431.456	-195.75
431.645	-470.18
431.835	281.43
432.025	478.03
432.215	-568.48
432.405	-265.38
432.595	484.17
432.785	310.1
432.975	-550.05
433.164	-656.54
433.354	152.4
433.544	379.73
433.734	-634.02
433.923	-312.49
434.113	387.92
434.303	306
434.493	-326.82
434.682	-431.27
434.872	545.61
435.062	-50.35
435.251	-351.4
435.441	-521.38
435.631	711.5
435.82	404.3
436.01	-566.43
436.2	-437.41
436.389	189.27
436.579	754.51
436.768	-144.55
436.958	-275.62
437.147	277.33
437.337	531.28
437.527	-226.47
437.716	-363.69
437.906	740.17
438.095	303.95
438.285	-492.71
438.474	-361.64
438.664	705.35
438.853	605
439.043	-261.29
439.232	-601.25
439.422	453.45
439.611	469.84
439.8	-494.76
439.99	-232.62
440.179	578.38
440.369	887.62
440.558	-642.21
440.748	-414.88
440.937	226.13
441.126	4.95
441.316	-173.22
441.505	-488.61
441.695	502.61
441.884	1084.23
442.073	-324.77
442.263	-566.43
442.452	326.48
442.642	551.76
442.831	-406.69
443.02	-183.46
443.21	830.28
443.399	1182.53
443.588	-388.26
443.778	-263.33
443.967	994.12
444.156	662.35
444.346	-507.04
444.535	-558.24
444.725	1008.45
444.914	547.66
445.103	-461.99
445.293	-273.57
445.482	973.64
445.671	551.76
445.861	-173.22
446.05	-136.36
446.239	785.23
446.429	314.19
446.618	-455.84
446.807	-13.48
446.997	731.98
447.186	791.37
447.376	-203.94
447.565	-97.45
447.754	1080.13
447.944	1047.37
448.133	-269.48
448.322	-396.45
448.512	512.85
448.701	1258.31
448.891	-175.27
449.08	-124.07
449.269	133.97
449.459	459.6
449.648	-142.5
449.838	-185.51
450.027	527.18
450.217	297.81
450.406	-347.3
450.595	-7.34
450.785	826.18
450.974	779.08
451.164	-314.53
451.353	-122.02
451.543	793.42
451.732	1186.63
451.922	-226.47
452.111	-236.71
452.301	310.1
452.49	189.27
452.68	-509.09
452.869	297.81
453.059	414.54
453.249	928.58
453.438	-537.76
453.628	-66.73
453.817	641.87
454.007	570.19
454.197	-504.99
454.386	-177.32
454.576	871.24
454.765	899.91
454.955	-152.74
455.145	-322.73
455.334	461.65
455.524	213.84
455.714	-152.74
455.904	-330.92
456.093	1356.61
456.283	715.59
456.473	-251.05
456.663	-369.83
456.852	600.91
457.042	631.63
457.232	-271.53
457.422	318.29
457.612	742.22
457.802	967.49
457.991	-586.91
458.181	-439.46
458.371	867.14
458.561	777.03
458.751	-300.2
458.941	-431.27
459.131	623.44
459.321	402.26
459.511	-117.93
459.701	-265.38
459.891	605
460.081	183.12
460.271	-308.39
460.461	-470.18
460.651	1274.69
460.841	1182.53
461.032	-275.62
461.222	-367.78
461.412	414.54
461.602	1268.55
461.792	-615.59
461.983	-543.91
462.173	600.91
462.363	1217.35
462.554	-212.14
462.744	-335.01
462.934	719.69
463.125	584.52
463.315	-578.72
463.505	-308.39
463.696	777.03
463.886	265.04
464.077	-492.71
464.267	-431.27
464.458	1014.6
464.648	183.12
464.839	-128.17
465.03	-418.98
465.22	248.66
465.411	676.68
465.601	-394.4
465.792	-425.12
465.983	371.54
466.174	635.72
466.364	-711.84
466.555	-330.92
466.746	701.26
466.937	432.97
467.128	-443.56
467.319	-486.56
467.51	832.33
467.701	1481.53
467.891	-324.77
468.082	-461.99
468.274	527.18
468.465	19.29
468.656	-251.05
468.847	-578.72
469.038	19.29
469.229	412.5
469.42	-349.35
469.612	-449.7
469.803	731.98
469.994	584.52
470.185	-324.77
470.377	-631.97
470.568	422.73
470.76	576.33
470.951	-513.19
471.142	-210.09
471.334	756.55
471.526	510.8
471.717	-257.19
471.909	-613.54
472.1	359.25
472.292	518.99
472.484	-695.46
472.675	-543.91
472.867	392.02
473.059	883.53
473.251	-423.08
473.443	-523.43
473.635	494.41
473.826	719.69
474.018	-550.05
474.21	-341.16
474.402	521.04
474.595	871.24
474.787	-509.09
474.979	-216.23
475.171	240.47
475.363	-91.31
475.555	-756.9
475.748	-539.81
475.94	660.3
476.132	269.14
476.325	-570.53
476.517	-95.4
476.71	1166.15
476.902	252.75
477.095	-615.59
477.287	-285.86
477.48	736.07
477.673	596.81
477.865	-412.84
478.058	-511.14
478.251	684.87
478.444	908.1
478.636	-375.97
478.829	-550.05
479.022	617.29
479.215	650.06
479.408	-433.32
479.601	19.29
479.794	150.36
479.988	346.96
480.181	-300.2
480.374	-375.97
480.567	582.48
480.76	938.82
480.954	-378.02
481.147	-707.74
481.341	306
481.534	269.14
481.728	-384.16
481.921	-212.14
482.115	691.02
482.308	969.54
482.502	-539.81
482.696	-498.85
482.89	1200.96
483.084	555.85
483.277	-429.22
483.471	-242.85
483.665	846.66
483.859	1559.36
484.053	-812.19
484.247	-730.27
484.442	527.18
484.636	416.59
484.83	-576.67
485.024	-302.25
485.219	412.5
485.413	248.66
485.608	-492.71
485.802	-339.11
485.997	934.73
486.191	392.02
486.386	-435.36
486.58	-304.29
486.775	635.72
486.97	830.28
487.165	-541.86
487.36	-421.03
487.555	539.47
487.75	342.86
487.945	-240.81
488.14	-750.75
488.335	215.89
488.53	277.33
488.725	-586.91
488.92	-392.36
489.116	977.73
489.311	486.22
489.507	-603.3
489.702	27.48
489.898	992.07
490.093	136.02
490.289	-54.44
490.485	-394.4
490.68	-5.29
490.876	895.82
491.072	-574.63
491.268	-357.54
491.464	883.53
491.66	699.21
491.856	-378.02
492.052	11.09
492.248	838.47
492.445	617.29
492.641	-529.57
492.837	-519.33
493.034	815.94
493.23	969.54
493.427	-11.43
493.623	-425.12
493.82	615.24
494.017	1059.65
494.214	-445.6
494.41	-578.72
494.607	654.16
494.804	269.14
495.001	-324.77
495.198	-347.3
495.395	805.71
495.593	738.12
495.79	-476.32
495.987	-574.63
496.184	-62.63
496.382	742.22
496.579	-556.19
496.777	-345.25
496.974	1293.12
497.172	799.56
497.37	-330.92
497.568	-570.53
497.766	1487.68
497.963	455.5
498.161	-359.59
498.359	-183.46
498.558	1035.08
498.756	879.43
498.954	-500.9
499.152	-117.93
499.351	977.73
499.549	725.83
499.747	-324.77
499.946	-314.53
500.145	494.41
500.343	658.25
500.542	-464.04
500.741	-212.14
500.94	826.18
501.139	928.58
501.338	-361.64
501.537	-56.49
501.736	1270.59
501.935	883.53
502.134	-513.19
502.334	-289.96
502.533	985.93
502.733	883.53
502.932	-177.32
503.132	-165.03
503.331	588.62
503.531	1061.7
503.731	-210.09
503.931	-271.53
504.131	471.89
504.331	1051.46
504.531	-326.82
504.731	-144.55
504.931	854.86
505.132	695.11
505.332	-281.77
505.532	-349.35
505.733	901.96
505.933	1338.18
506.134	-162.98
506.335	-371.88
506.536	383.82
506.736	977.73
506.937	-246.95
507.138	-406.69
507.34	1528.64
507.541	777.03
507.742	9.05
507.943	-367.78
508.145	674.64
508.346	193.36
508.548	-582.82
508.749	-306.34
508.951	314.19
509.153	676.68
509.354	-187.56
509.556	-156.84
509.758	1026.89
509.96	338.77
510.163	-38.06
510.365	-52.39
510.567	535.37
510.769	574.28
510.972	-375.97
511.174	183.12
511.377	408.4
511.58	1723.2
511.782	-298.15
511.985	-146.6
512.188	1327.94
512.391	1018.69
512.594	-361.64
512.797	-21.67
513.001	1129.28
513.204	1469.25
513.407	-105.64
513.611	-183.46
513.814	944.97
514.018	1135.43
514.222	-95.4
514.425	-42.15
514.629	891.72
514.833	713.55
515.037	101.2
515.241	-236.71
515.445	559.95
515.65	473.93
515.854	-3.24
516.059	-119.98
516.263	938.82
516.468	967.49
516.672	-38.06
516.877	-144.55
517.082	449.36
517.287	938.82
517.492	140.12
517.697	-87.21
517.902	963.4
518.107	568.14
518.313	45.91
518.518	-46.25
518.724	1497.92
518.929	844.62
519.135	103.25
519.341	-316.58
519.547	891.72
519.753	1125.19
519.959	-74.92
520.165	-175.27
520.371	1231.68
520.577	1551.17
520.784	-242.85
520.99	150.36
521.197	1022.79
521.404	897.86
521.61	-392.36
521.817	-246.95
522.024	1420.1
522.231	748.36
522.438	-365.73
522.645	371.54
522.853	691.02
523.06	1223.49
523.268	-46.25
523.475	-13.48
523.683	953.16
523.891	1129.28
524.098	-220.33
524.306	-21.67
524.514	850.76
524.722	830.28
524.931	39.76
525.139	-122.02
525.347	351.06
525.556	879.43
525.764	33.62
525.973	193.36
526.182	987.97
526.391	695.11
526.6	-119.98
526.809	11.09
527.018	944.97
527.227	1149.76
527.436	31.57
527.646	-58.54
527.855	1002.31
528.065	842.57
528.275	-158.89
528.484	-105.64
528.694	1121.09
528.904	1076.04
529.114	-152.74
529.325	76.63
529.535	576.33
529.745	1125.19
529.956	-222.38
530.166	-54.44
530.377	936.78
530.588	1432.38
530.799	195.41
531.01	-91.31
531.221	1250.11
531.432	1276.74
531.643	160.59
531.855	414.54
532.066	1307.46
532.278	895.82
532.489	152.4
532.701	-99.5
532.913	1372.99
533.125	1059.65
533.337	-212.14
533.549	-56.49
533.762	1184.58
533.974	609.1
534.186	-251.05
534.399	50
534.612	1338.18
534.825	971.59
535.037	228.18
535.25	162.64
535.464	740.17
535.677	1372.99
535.89	-29.87
536.104	191.31
536.317	863.05
536.531	1002.31
536.744	330.58
536.958	111.44
537.172	1096.52
537.386	895.82
537.6	168.79
537.815	41.81
538.029	1241.92
538.244	1424.19
538.458	-173.22
538.673	2.9
538.888	1176.39
539.103	1624.89
539.318	355.15
539.533	-36.01
539.748	1012.55
539.963	781.13
540.179	-218.28
540.394	-158.89
540.61	631.63
540.826	930.63
541.042	-56.49
541.258	-89.26
541.474	1600.32
541.69	955.21
541.906	99.16
542.123	2.9
542.339	1010.5
542.556	854.86
542.773	27.48
542.99	146.26
543.207	985.93
543.424	781.13
543.641	215.89
543.858	426.83
544.076	850.76
544.293	742.22
544.511	-52.39
544.729	2.9
544.947	912.2
545.165	1002.31
545.383	-95.4
545.601	25.43
545.819	1035.08
546.038	938.82
546.256	258.9
546.475	4.95
546.694	1805.11
546.913	1420.1
547.132	625.48
547.351	97.11
547.57	817.99
547.79	777.03
548.009	-17.58
548.229	-68.78
548.449	912.2
548.668	1313.6
548.888	226.13
549.109	29.52
549.329	1297.22
549.549	1434.43
549.77	203.6
549.99	346.96
550.211	1346.37
550.432	1577.79
550.653	-21.67
550.874	154.45
551.095	1823.55
551.316	971.59
551.538	-5.29
551.759	299.86
551.981	1010.5
552.203	1379.14
552.424	146.26
552.646	404.3
552.869	932.68
553.091	994.12
553.313	314.19
553.536	273.23
553.758	1350.46
553.981	1076.04
554.204	170.83
554.427	349.01
554.65	1403.71
554.873	697.16
555.097	-212.14
555.32	140.12
555.544	1538.88
555.768	1262.4
555.992	82.77
556.216	60.24
556.44	740.17
556.664	1266.5
556.888	621.39
557.113	27.48
557.337	1794.87
557.562	1444.67
557.787	37.72
558.012	174.93
558.237	1020.74
558.462	994.12
558.688	504.65
558.913	219.99
559.139	666.44
559.365	1284.93
559.591	205.65
559.817	203.6
560.043	1438.53
560.269	1520.45
560.496	564.04
560.722	277.33
560.949	1731.39
561.176	637.77
561.403	166.74
561.63	373.58
561.857	682.83
562.084	750.41
562.312	45.91
562.539	312.14
562.767	1649.47
562.995	920.39
563.223	162.64
563.451	351.06
563.679	924.49
563.908	1026.89
564.136	295.76
564.365	637.77
564.594	590.67
564.823	2149.17
565.052	346.96
565.281	-36.01
565.51	1086.28
565.74	944.97
565.969	-58.54
566.199	330.58
566.429	1256.26
566.659	1340.22
566.889	119.64
567.119	219.99
567.35	1594.17
567.58	1446.72
567.811	435.02
568.042	142.16
568.273	936.78
568.504	1338.18
568.735	236.37
568.966	387.92
569.198	1168.2
569.43	1436.48
569.661	398.16
569.893	568.14
570.125	1588.03
570.358	1477.44
570.59	289.62
570.822	248.66
571.055	1452.86
571.288	1469.25
571.521	222.03
571.754	244.56
571.987	1641.28
572.22	1174.34
572.454	422.73
572.687	275.28
572.921	715.59
573.155	1149.76
573.389	887.62
573.623	570.19
573.858	977.73
574.092	1512.25
574.327	379.73
574.561	674.64
574.796	926.54
575.031	1403.71
575.266	224.08
575.502	338.77
575.737	1473.34
575.973	1231.68
576.209	392.02
576.445	283.47
576.681	1059.65
576.917	1248.07
577.153	189.27
577.39	314.19
577.626	1323.84
577.863	1073.99
578.1	142.16
578.337	385.87
578.574	1057.61
578.812	1512.25
579.049	416.59
579.287	260.95
579.525	1452.86
579.763	1454.91
580.001	88.92
580.239	340.82
580.478	1710.91
580.716	1151.81
580.955	400.21
581.194	504.65
581.433	1641.28
581.672	1184.58
581.911	306
582.151	117.59
582.39	1100.61
582.63	1690.43
582.87	377.68
583.11	277.33
583.35	723.79
583.591	1094.47
583.831	541.52
584.072	758.6
584.313	1301.31
584.554	1291.07
584.795	449.36
585.036	379.73
585.277	2067.25
585.519	1618.75
585.761	93.01
586.003	234.32
586.245	1413.95
586.487	1760.06
586.729	600.91
586.972	351.06
587.215	2161.46
587.457	1006.41
587.7	682.83
587.944	457.55
588.187	1196.87
588.43	1190.72
588.674	346.96
588.918	271.19
589.162	1686.33
589.406	1051.46
589.65	176.98
589.894	1143.62
590.139	1493.82
590.384	1698.62
590.629	236.37
590.874	414.54
591.119	916.3
591.364	1428.29
591.61	236.37
591.855	142.16
592.101	2014.01
592.347	1536.83
592.593	465.74
592.84	764.75
593.086	1946.42
593.333	1057.61
593.58	215.89
593.827	283.47
594.074	1315.65
594.321	1162.05
594.568	322.38
594.816	97.11
595.064	1280.83
595.312	1336.13
595.56	244.56
595.808	572.24
596.057	1700.67
596.305	1166.15
596.554	-29.87
596.803	486.22
597.052	1502.01
597.301	1833.79
597.551	187.22
597.8	645.96
598.05	1651.52
598.3	1282.88
598.55	215.89
598.8	351.06
599.051	932.68
599.301	1084.23
599.552	62.29
599.803	650.06
600.054	1456.96
600.305	1270.59
600.556	570.19
600.808	539.47
601.06	1108.8
601.312	1461.06
601.564	322.38
601.816	129.88
602.068	1772.35
602.321	1596.22
602.574	488.27
602.827	152.4
603.08	1239.87
603.333	1352.51
603.587	279.38
603.84	394.06
604.094	1444.67
604.348	1016.65
604.602	84.82
604.856	332.62
605.111	1553.21
605.365	1467.2
605.62	496.46
605.875	215.89
606.13	1297.22
606.386	1084.23
606.641	248.66
606.897	154.45
607.153	1035.08
607.409	1585.98
607.665	127.83
607.921	213.84
608.178	953.16
608.435	1387.33
608.692	111.44
608.949	410.45
609.206	1583.93
609.463	1370.94
609.721	99.16
609.979	502.61
610.237	1231.68
610.495	1626.94
610.753	750.41
611.012	410.45
611.27	1600.32
611.529	1452.86
611.788	420.69
612.047	109.4
612.307	850.76
612.566	1555.26
612.826	197.46
613.086	301.9
613.346	670.54
613.606	1379.14
613.867	371.54
614.127	514.89
614.388	762.7
614.649	1518.4
614.91	-17.58
615.172	445.26
615.433	996.17
615.695	1012.55
615.957	342.86
616.219	379.73
616.481	1567.55
616.743	1053.51
617.006	-36.01
617.269	248.66
617.532	1499.97
617.795	1440.58
618.058	189.27
618.322	426.83
618.586	1307.46
618.849	904.01
619.114	416.59
619.378	-58.54
619.642	1315.65
619.907	1502.01
620.172	228.18
620.437	283.47
620.702	1424.19
620.967	1071.94
621.233	117.59
621.499	84.82
621.765	1092.42
622.031	1284.93
622.297	41.81
622.564	234.32
622.83	1071.94
623.097	1772.35
623.364	371.54
623.631	588.62
623.899	1346.37
624.166	1297.22
624.434	84.82
624.702	-33.96
624.97	1622.84
625.239	881.48
625.507	146.26
625.776	359.25
626.045	824.14
626.314	1231.68
626.584	166.74
626.853	9.05
627.123	1030.98
627.393	432.97
627.663	207.7
627.933	90.96
628.204	1432.38
628.474	1297.22
628.745	2.9
629.016	432.97
629.287	1063.75
629.559	928.58
629.83	-111.78
630.102	174.93
630.374	723.79
630.646	1624.89
630.919	68.44
631.191	459.6
631.464	971.59
631.737	705.35
632.01	-111.78
632.284	33.62
632.557	1497.92
632.831	1293.12
633.105	105.3
633.379	95.06
633.654	627.53
633.928	1141.57
634.203	62.29
634.478	-85.16
634.753	1043.27
635.028	1180.48
635.304	265.04
635.58	136.02
635.856	1024.84
636.132	912.2
636.408	15.19
636.685	103.25
636.961	971.59
637.238	944.97
637.515	-70.83
637.793	-3.24
638.07	1346.37
638.348	846.66
638.626	187.22
638.904	256.85
639.182	422.73
639.461	494.41
639.74	152.4
640.019	117.59
640.298	158.55
640.577	953.16
640.857	21.33
641.136	27.48
641.416	875.34
641.696	1418.05
641.977	125.78
642.257	174.93
642.538	1039.17
642.819	1450.82
643.1	-74.92
643.382	-267.43
643.663	1196.87
643.945	1094.47
644.227	84.82
644.509	-208.04
644.792	1420.1
645.074	1084.23
645.357	-103.59
645.64	-316.58
645.923	793.42
646.207	1100.61
646.49	-99.5
646.774	-212.14
647.058	846.66
647.342	1035.08
647.627	-124.07
647.911	-275.62
648.196	1221.44
648.481	1221.44
648.767	-1.19
649.052	-87.21
649.338	547.66
649.624	641.87
649.91	-306.34
650.196	-142.5
650.483	1096.52
650.77	1209.15
651.057	97.11
651.344	13.14
651.631	953.16
651.919	629.58
652.207	-165.03
652.495	88.92
652.783	1069.89
653.071	906.06
653.36	-312.49
653.649	-185.51
653.938	723.79
654.227	1133.38
654.517	47.96
654.806	-287.91
655.096	422.73
655.387	1010.5
655.677	-76.97
655.968	-201.9
656.258	435.02
656.549	1268.55
656.841	11.09
657.132	-101.55
657.424	701.26
657.716	863.05
658.008	-230.57
658.3	-246.95
658.592	842.57
658.885	1039.17
659.178	-255.14
659.471	-464.04
659.765	275.28
660.058	750.41
660.352	-339.11
660.646	-242.85
660.94	1258.31
661.235	934.73
661.53	174.93
661.824	-484.52
662.12	748.36
662.415	326.48
662.711	-332.97
663.006	-111.78
663.302	461.65
663.599	334.67
663.895	-308.39
664.192	-58.54
664.489	1135.43
664.786	1000.26
665.083	-402.6
665.381	-384.16
665.678	635.72
665.976	893.77
666.275	-515.23
666.573	-85.16
666.872	426.83
667.171	717.64
667.47	-406.69
667.769	-412.84
668.069	881.48
668.368	830.28
668.668	-574.63
668.969	-584.87
669.269	629.58
669.57	349.01
669.871	-380.07
670.172	-249
670.473	977.73
670.775	1010.5
671.077	-472.23
671.379	-287.91
671.681	959.3
671.983	774.99
672.286	-586.91
672.589	-208.04
672.892	764.75
673.196	707.4
673.499	-447.65
673.803	-349.35
674.107	768.84
674.411	496.46
674.716	-124.07
675.021	-148.65
675.326	461.65
675.631	895.82
675.936	-556.19
676.242	-363.69
676.548	316.24
676.854	1110.85
677.16	-619.68
677.467	-394.4
677.774	568.14
678.081	455.5
678.388	-160.94
678.696	-160.94
679.004	895.82
679.312	1235.78
679.62	-294.05
679.928	-275.62
680.237	867.14
680.546	105.3
680.855	-203.94
681.164	-396.45
681.474	684.87
681.784	764.75
682.094	-380.07
682.404	-625.83
682.715	1043.27
683.026	84.82
683.337	-472.23
683.648	-95.4
683.959	1190.72
684.271	813.9
684.583	-388.26
684.895	-627.87
685.208	691.02
685.52	822.09
685.833	-238.76
686.146	-513.19
686.46	1018.69
686.773	572.24
687.087	-332.97
687.401	-496.8
687.716	617.29
688.03	760.65
688.345	-642.21
688.66	-226.47
688.975	805.71
689.291	805.71
689.607	64.34
689.923	-382.12
690.239	586.57
690.555	998.21
690.872	-529.57
691.189	-660.64
691.506	584.52
691.824	967.49
692.142	-617.63
692.459	-388.26
692.778	430.93
693.096	795.47
693.415	-138.41
693.734	-210.09
694.053	496.46
694.372	127.83
694.692	-521.38
695.012	-292.01
695.332	283.47
695.652	529.23
695.973	-427.17
696.294	-513.19
696.615	389.97
696.936	916.3
697.258	-724.13
697.579	-513.19
697.902	254.8
698.224	367.44
698.546	-502.95
698.869	-668.83
699.192	322.38
699.516	949.06
699.839	-443.56
700.163	-263.33
700.487	236.37
700.811	1194.82
701.136	-715.94
701.461	-421.03
701.786	594.76
702.111	1127.24
702.436	-674.98
702.762	-298.15
703.088	707.4
703.415	1297.22
703.741	-345.25
704.068	-627.87
704.395	400.21
704.722	809.8
705.05	-525.47
705.377	-464.04
705.705	668.49
706.034	461.65
706.362	-693.41
706.691	-738.46
707.02	817.99
707.349	701.26
707.679	-437.41
708.009	-537.76
708.339	695.11
708.669	512.85
709	-437.41
709.33	-603.3
709.661	449.36
709.993	398.16
710.324	-222.38
710.656	-543.91
710.988	654.16
711.321	785.23
711.653	-769.18
711.986	-390.31
712.319	-11.43
712.652	740.17
712.986	-111.78
713.32	-525.47
713.654	928.58
713.988	875.34
714.323	-464.04
714.658	-431.27
714.993	414.54
715.328	486.22
715.664	-335.01
716	-259.24
716.336	985.93
716.673	201.55
717.009	-240.81
717.346	-193.7
717.683	1092.42
718.021	588.62
718.359	-595.11
718.697	-400.55
719.035	432.97
719.373	224.08
719.712	-205.99
720.051	-595.11
720.39	881.48
720.73	473.93
721.07	-500.9
721.41	-455.84
721.75	809.8
722.091	746.31
722.432	-521.38
722.773	-165.03
723.114	430.93
723.456	478.03
723.798	-490.66
724.14	-394.4
724.482	281.43
724.825	676.68
725.168	-156.84
725.511	-369.83
725.855	496.46
726.198	283.47
726.542	-496.8
726.887	-85.16
727.231	838.47
727.576	160.59
727.921	-292.01
728.266	-660.64
728.612	467.79
728.958	758.6
729.304	-513.19
729.651	-79.02
729.997	357.2
730.344	371.54
730.691	-502.95
731.039	-226.47
731.387	535.37
731.735	303.95
732.083	-390.31
732.431	-214.18
732.78	232.27
733.129	-289.96
733.479	-636.06
733.828	-382.12
734.178	361.3
734.528	4.95
734.879	-390.31
735.23	-562.34
735.581	633.68
735.932	406.35
736.283	-410.79
736.635	-541.86
736.987	990.02
737.34	768.84
737.692	-578.72
738.045	-603.3
738.398	543.57
738.752	912.2
739.105	-730.27
739.459	-13.48
739.814	703.31
740.168	807.75
740.523	-582.82
740.878	-265.38
741.233	478.03
741.589	752.46
741.945	-406.69
742.301	-351.4
742.657	869.19
743.014	308.05
743.371	-488.61
743.728	191.31
744.086	314.19
744.444	432.97
744.802	-623.78
745.16	-521.38
745.519	746.31
745.878	275.28
746.237	-623.78
746.597	-343.21
746.956	723.79
747.316	547.66
747.677	-609.44
748.037	-396.45
748.398	410.45
748.759	705.35
749.121	-285.86
749.482	-263.33
749.844	142.16
750.207	33.62
750.569	-890.01
750.932	-292.01
751.295	1135.43
751.659	559.95
752.022	-574.63
752.386	125.78
752.751	488.27
753.115	19.29
753.48	-429.22
753.845	-478.37
754.21	510.8
754.576	355.15
754.942	-658.59
755.308	-230.57
755.675	363.34
756.041	873.29
756.409	-801.95
756.776	-332.97
757.144	1024.84
757.511	750.41
757.88	-472.23
758.248	-756.9
758.617	-101.55
758.986	562
759.355	-283.81
759.725	-365.73
760.095	80.72
760.465	842.57
760.836	-541.86
761.206	-451.75
761.577	820.04
761.949	117.59
762.32	-275.62
762.692	-568.48
763.065	291.66
763.437	187.22
763.81	-689.31
764.183	-431.27
764.556	901.96
764.93	379.73
765.304	-165.03
765.678	-275.62
766.053	363.34
766.428	488.27
766.803	-660.64
767.178	-591.01
767.554	-48.3
767.93	293.71
768.306	-705.7
768.683	-603.3
769.06	686.92
769.437	428.88
769.814	-693.41
770.192	-644.26
770.57	271.19
770.948	1110.85
771.327	-414.88
771.706	-670.88
772.085	529.23
772.464	918.34
772.844	-451.75
773.224	-683.17
773.605	47.96
773.985	228.18
774.366	-390.31
774.748	-169.13
775.129	746.31
775.511	572.24
775.893	-517.28
776.276	-441.51
776.658	844.62
777.041	529.23
777.425	-615.59
777.808	-519.33
778.192	183.12
778.576	807.75
778.961	-799.9
779.346	-586.91
779.731	578.38
780.116	-95.4
780.502	-517.28
780.888	-511.14
781.274	435.02
781.661	107.35
782.048	-666.78
782.435	-711.84
782.823	299.86
783.21	559.95
783.598	-566.43
783.987	-410.79
784.376	785.23
784.765	273.23
785.154	-412.84
785.544	-607.39
785.933	600.91
786.324	215.89
786.714	-300.2
787.105	-711.84
787.496	463.69
787.888	189.27
788.279	-619.68
788.671	-574.63
789.064	406.35
789.456	529.23
789.849	-769.18
790.242	-681.12
790.636	133.97
791.03	598.86
791.424	-681.12
791.818	1030.98
792.213	715.59
792.608	445.26
793.004	-384.16
793.399	-851.1
793.795	426.83
794.192	273.23
794.588	-529.57
794.985	-746.66
795.382	516.94
795.78	256.85
796.178	-474.28
796.576	-523.43
796.974	811.85
797.373	357.2
797.772	-595.11
798.172	-634.02
798.571	330.58
798.971	723.79
799.372	-453.8
799.772	-470.18
800.173	758.6
800.574	369.49
800.976	-451.75
801.378	-758.94
801.78	-13.48
802.182	-85.16
802.585	-445.6
802.988	-593.06
803.392	86.87
803.795	86.87
804.199	-566.43
804.604	-570.53
805.008	486.22
805.413	924.49
805.819	-443.56
806.224	-773.28
806.63	404.3
807.036	428.88
807.443	-504.99
807.85	-418.98
808.257	473.93
808.664	439.12
809.072	-230.57
809.48	-357.54
809.889	660.3
810.297	645.96
810.706	-158.89
811.116	-609.44
811.526	232.27
811.936	306
812.346	-677.02
812.757	-617.63
813.167	420.69
813.579	232.27
813.99	-494.76
814.402	-709.79
814.814	996.17
815.227	308.05
815.64	-777.37
816.053	-572.58
816.467	600.91
816.88	451.41
817.294	-308.39
817.709	-357.54
818.124	289.62
818.539	850.76
818.954	-300.2
819.37	-318.63
819.786	35.67
820.202	586.57
820.619	-898.2
821.036	-623.78
821.453	762.7
821.871	408.4
822.289	-693.41
822.707	-734.37
823.126	641.87
823.545	35.67
823.964	-578.72
824.384	-584.87
824.804	162.64
825.224	535.37
825.645	-349.35
826.065	-713.89
826.487	740.17
826.908	717.64
827.33	-472.23
827.752	-119.98
828.175	516.94
828.598	625.48
829.021	-216.23
829.444	250.71
829.868	516.94
830.292	115.54
830.717	-715.94
831.142	-586.91
831.567	168.79
831.992	459.6
832.418	-7.34
832.844	-699.55
833.27	473.93
833.697	351.06
834.124	-885.92
834.552	-742.56
834.979	904.01
835.408	443.21
835.836	-668.83
836.265	-502.95
836.694	236.37
837.123	580.43
837.553	-730.27
837.983	-799.9
838.413	666.44
838.844	600.91
839.275	-740.51
839.706	-347.3
840.138	969.54
840.57	236.37
841.003	-572.58
841.435	-404.64
841.868	232.27
842.302	226.13
842.735	-357.54
843.169	-742.56
843.604	514.89
844.039	559.95
844.474	-668.83
844.909	-668.83
845.345	576.33
845.781	451.41
846.217	-552.1
846.654	-689.31
847.091	514.89
847.528	211.79
847.966	-652.45
848.404	-578.72
848.842	949.06
849.281	-257.19
849.72	-478.37
850.16	-740.51
850.599	146.26
851.039	70.48
851.48	-267.43
851.921	-619.68
852.362	496.46
852.803	764.75
853.245	-812.19
853.687	-509.09
854.129	691.02
854.572	127.83
855.015	-771.23
855.459	-666.78
855.903	72.53
856.347	572.24
856.791	-533.67
857.236	-570.53
857.681	887.62
858.127	1252.16
858.572	-267.43
859.019	-541.86
859.465	725.83
859.912	387.92
860.359	-726.18
860.807	-668.83
861.255	195.41
861.703	725.83
862.151	-468.13
862.6	-38.06
863.05	596.81
863.499	254.8
863.949	-515.23
864.4	-709.79
864.85	947.01
865.301	654.16
865.752	-550.05
866.204	-570.53
866.656	207.7
867.109	764.75
867.561	-717.98
868.014	-246.95
868.468	592.72
868.921	658.25
869.376	-513.19
869.83	-617.63
870.285	428.88
870.74	82.77
871.195	-365.73
871.651	-378.02
872.107	838.47
872.564	273.23
873.021	-781.47
873.478	-777.37
873.936	662.35
874.394	588.62
874.852	-607.39
875.31	-357.54
875.769	414.54
876.229	947.01
876.688	-412.84
877.148	-480.42
877.609	181.07
878.069	215.89
878.531	-296.1
878.992	-814.24
879.454	412.5
879.916	424.78
880.378	-580.77
880.841	-570.53
881.304	-97.45
881.768	56.15
882.232	-705.7
882.696	-425.12
883.161	101.2
883.626	357.2
884.091	-478.37
884.557	-552.1
885.023	47.96
885.489	672.59
885.956	-789.66
886.423	-568.48
886.89	-54.44
887.358	465.74
887.826	-642.21
888.295	-535.71
888.763	64.34
889.233	949.06
889.702	-527.52
890.172	-580.77
890.642	299.86
891.113	242.51
891.584	-220.33
892.055	-550.05
892.527	576.33
892.999	748.36
893.472	-586.91
893.944	-406.69
894.417	412.5
894.891	101.2
895.365	-455.84
895.839	-447.65
896.314	330.58
896.789	-406.69
897.264	-595.11
897.74	-730.27
898.216	734.03
898.692	611.15
899.169	-634.02
899.646	-648.35
900.123	428.88
900.601	963.4
901.079	-664.74
901.558	-509.09
902.037	670.54
902.516	465.74
902.996	-836.77
903.476	-830.62
903.956	273.23
904.437	609.1
904.918	-691.36
905.399	-801.95
905.881	473.93
906.363	482.13
906.846	-742.56
907.329	-482.47
907.812	-87.21
908.296	488.27
908.78	-806.05
909.264	-691.36
909.749	121.68
910.234	684.87
910.719	-709.79
911.205	-246.95
911.691	-142.5
912.178	535.37
912.665	-111.78
913.152	-554.15
913.64	121.68
914.128	553.8
914.616	-560.29
915.105	-560.29
915.594	334.67
916.084	930.63
916.574	-554.15
917.064	-746.66
917.555	-25.77
918.046	484.17
918.537	-195.75
919.029	-873.63
919.521	168.79
920.013	895.82
920.506	-431.27
920.999	-687.26
921.493	613.2
921.987	76.63
922.481	-388.26
922.976	-607.39
923.471	324.43
923.967	484.17
924.462	-449.7
924.959	-537.76
925.455	568.14
925.952	451.41
926.449	-681.12
926.947	-562.34
927.445	447.31
927.944	273.23
928.442	-871.58
928.942	-808.09
929.441	641.87
929.941	60.24
930.442	-660.64
930.942	-670.88
931.443	621.39
931.945	68.44
932.447	-758.94
932.949	-591.01
933.451	293.71
933.954	295.76
934.458	-509.09
934.961	-650.4
935.465	109.4
935.97	183.12
936.475	-378.02
936.98	-672.93
937.486	-138.41
937.992	142.16
938.498	-629.92
939.005	-476.32
939.512	176.98
940.019	447.31
940.527	-488.61
941.035	-347.3
941.544	592.72
942.053	334.67
942.562	-216.23
943.072	-251.05
943.582	740.17
944.093	222.03
944.604	-783.52
945.115	-627.87
945.627	695.11
946.139	869.19
946.651	-660.64
947.164	-418.98
947.677	473.93
948.191	379.73
948.705	-654.5
949.219	-717.98
949.734	168.79
950.249	584.52
950.765	-636.06
951.281	-646.3
951.797	1289.03
952.314	750.41
952.831	-679.07
953.348	-789.66
953.866	660.3
954.384	258.9
954.903	-636.06
955.422	-783.52
955.941	312.14
956.461	387.92
956.981	-634.02
957.502	-509.09
958.023	576.33
958.544	449.36
959.066	-484.52
959.588	-806.05
960.11	4.95
960.633	783.18
961.156	-556.19
961.68	-529.57
962.204	686.92
962.729	-21.67
963.253	-562.34
963.779	-13.48
964.304	602.96
964.83	949.06
965.357	-847.01
965.883	-461.99
966.411	340.82
966.938	502.61
967.466	-636.06
967.994	-783.52
968.523	199.51
969.052	809.8
969.582	-707.74
970.112	-631.97
970.642	45.91
971.173	793.42
971.704	-722.08
972.235	-378.02
972.767	564.04
973.3	316.24
973.832	-406.69
974.365	-812.19
974.899	543.57
975.433	512.85
975.967	-875.68
976.502	-447.65
977.037	306
977.572	908.1
978.108	-638.11
978.644	-799.9
979.181	1063.75
979.718	592.72
980.255	-1029.27
980.793	-484.52
981.331	-214.18
981.87	654.16
982.409	-529.57
982.948	-435.36
983.488	281.43
984.028	834.38
984.569	-502.95
985.11	-574.63
985.651	734.03
986.193	518.99
986.735	-822.43
987.278	-693.41
987.821	-128.17
988.364	338.77
988.908	-445.6
989.452	-806.05
989.997	-369.83
990.542	467.79
991.088	-754.85
991.633	-281.77
992.18	256.85
992.726	-144.55
993.273	-582.82
993.821	-492.71
994.369	334.67
994.917	756.55
995.465	-779.42
996.014	-756.9
996.564	605
997.114	-15.53
997.664	-242.85
998.215	-765.09
998.766	516.94
999.317	-191.66
999.869	-568.48
1000.421	-746.66
1000.974	578.38
1001.527	584.52
1002.081	-654.5
1002.635	-310.44
1003.189	441.17
1003.744	785.23
1004.299	-783.52
1004.854	-599.2
1005.41	791.37
1005.967	226.13
1006.523	-548
1007.081	-464.04
1007.638	471.89
1008.196	412.5
1008.755	-756.9
1009.313	-478.37
1009.873	586.57
1010.432	-21.67
1010.992	-300.2
1011.553	-476.32
1012.114	445.26
1012.675	-1.19
1013.237	-443.56
1013.799	-287.91
1014.361	473.93
1014.924	-85.16
1015.487	-746.66
1016.051	-488.61
1016.615	717.64
1017.18	498.51
1017.745	-689.31
1018.31	-265.38
1018.876	817.99
1019.442	392.02
1020.009	-562.34
1020.576	-791.71
1021.143	287.57
1021.711	684.87
1022.28	-543.91
1022.848	-554.15
1023.417	754.51
1023.987	273.23
1024.557	-634.02
1025.127	-685.22
1025.698	-111.78
1026.269	-27.82
1026.841	-795.81
1027.413	-490.66
1027.985	252.75
1028.558	373.58
1029.131	-656.54
1029.705	-455.84
1030.279	406.35
1030.854	449.36
1031.429	-752.8
1032.004	-251.05
1032.58	783.18
1033.156	-52.39
1033.733	-720.03
1034.31	-660.64
1034.887	666.44
1035.465	695.11
1036.043	-969.88
1036.622	-586.91
1037.201	258.9
1037.781	666.44
1038.361	-693.41
1038.941	-787.61
1039.522	478.03
1040.103	731.98
1040.685	-685.22
1041.267	-267.43
1041.85	1059.65
1042.433	498.51
1043.016	-695.46
1043.6	-591.01
1044.184	-353.45
1044.769	678.73
1045.354	-504.99
1045.939	-789.66
1046.525	428.88
1047.111	494.41
1047.698	-521.38
1048.285	-810.14
1048.873	459.6
1049.461	-62.63
1050.049	-640.16
1050.638	-664.74
1051.228	-91.31
1051.817	774.99
1052.407	-750.75
1052.998	-355.49
1053.589	570.19
1054.18	592.72
1054.772	-928.92
1055.365	-773.28
1055.957	338.77
1056.55	170.83
1057.144	-449.7
1057.738	-623.78
1058.333	127.83
1058.927	111.44
1059.523	-629.92
1060.118	-687.26
1060.715	9.05
1061.311	521.04
1061.908	-697.5
1062.506	-439.46
1063.103	465.74
1063.702	76.63
1064.3	-875.68
1064.9	-816.29
1065.499	981.83
1066.099	105.3
1066.7	-685.22
1067.301	-902.3
1067.902	623.44
1068.504	777.03
1069.106	-423.08
1069.709	-504.99
1070.312	641.87
1070.915	478.03
1071.519	-771.23
1072.123	-373.92
1072.728	537.42
1073.333	306
1073.939	-367.78
1074.545	-582.82
1075.152	498.51
1075.759	78.68
1076.366	-781.47
1076.974	-355.49
1077.582	308.05
1078.191	797.51
1078.8	-558.24
1079.41	-988.32
1080.02	359.25
1080.63	389.97
1081.241	-136.36
1081.852	-900.25
1082.464	453.45
1083.076	420.69
1083.689	-615.59
1084.302	-597.15
1084.915	738.12
1085.529	547.66
1086.144	-662.69
1086.759	-539.81
1087.374	140.12
1087.99	299.86
1088.606	-730.27
1089.222	-677.02
1089.839	576.33
1090.457	332.62
1091.075	-545.95
1091.693	-890.01
1092.312	478.03
1092.931	852.81
1093.551	-685.22
1094.171	-308.39
1094.792	400.21
1095.413	199.51
1096.034	-578.72
1096.656	-660.64
1097.278	609.1
1097.901	306
1098.524	-681.12
1099.148	-289.96
1099.772	789.32
1100.397	365.39
1101.022	-836.77
1101.647	-545.95
1102.273	512.85
1102.899	633.68
1103.526	-953.5
1104.153	-388.26
1104.781	613.2
1105.409	705.35
1106.038	-722.08
1106.667	-906.4
1107.296	201.55
1107.926	201.55
1108.556	-152.74
1109.187	-556.19
1109.818	383.82
1110.45	605
1111.082	-464.04
1111.715	-595.11
1112.348	312.14
1112.981	320.34
1113.615	-328.87
1114.25	-509.09
1114.885	148.31
1115.52	193.36
1116.156	-816.29
1116.792	-586.91
1117.428	535.37
1118.066	142.16
1118.703	-388.26
1119.341	-609.44
1119.98	781.13
1120.618	891.72
1121.258	-789.66
1121.898	-816.29
1122.538	416.59
1123.179	-144.55
1123.82	-480.42
1124.461	-545.95
1125.103	682.83
1125.746	215.89
1126.389	-443.56
1127.032	-783.52
1127.676	441.17
1128.32	797.51
1128.965	-498.85
1129.61	-568.48
1130.256	150.36
1130.902	660.3
1131.549	-640.16
1132.196	-642.21
1132.844	742.22
1133.491	625.48
1134.14	-586.91
1134.789	-591.01
1135.438	1108.8
1136.088	105.3
1136.738	-701.6
1137.389	-709.79
1138.04	478.03
1138.692	879.43
1139.344	-677.02
1139.996	-595.11
1140.649	445.26
1141.303	590.67
1141.957	-509.09
1142.611	-576.67
1143.266	389.97
1143.921	504.65
1144.577	-566.43
1145.233	-574.63
1145.89	162.64
1146.547	588.62
1147.205	-783.52
1147.863	-502.95
1148.521	478.03
1149.18	654.16
1149.84	-832.67
1150.5	-617.63
1151.16	256.85
1151.821	691.02
1152.482	-629.92
1153.144	-54.44
1153.806	441.17
1154.469	453.45
1155.132	-849.05
1155.796	-470.18
1156.46	592.72
1157.124	969.54
1157.789	-709.79
1158.455	-672.93
1159.121	320.34
1159.787	35.67
1160.454	-552.1
1161.121	-533.67
1161.789	306
1162.457	600.91
1163.126	-488.61
1163.795	-574.63
1164.465	396.11
1165.135	240.47
1165.806	-443.56
1166.477	-443.56
1167.148	-382.12
1167.82	568.14
1168.493	-865.44
1169.166	-353.45
1169.839	37.72
1170.513	398.16
1171.187	-707.74
1171.862	-617.63
1172.537	342.86
1173.213	453.45
1173.889	-713.89
1174.566	-648.35
1175.243	764.75
1175.921	312.14
1176.599	-494.76
1177.278	-418.98
1177.957	19.29
1178.636	889.67
1179.316	-427.17
1179.997	-789.66
1180.678	570.19
1181.359	707.4
1182.041	-771.23
1182.723	-763.04
1183.406	736.07
1184.089	125.78
1184.773	-656.54
1185.457	-871.58
1186.142	176.98
1186.827	1200.96
1187.513	-701.6
1188.199	-244.9
1188.886	111.44
1189.573	426.83
1190.26	-570.53
1190.948	-664.74
1191.637	-33.96
1192.326	273.23
1193.015	-791.71
1193.705	-859.29
1194.396	125.78
1195.087	355.15
1195.778	-439.46
1196.47	-787.61
1197.162	320.34
1197.855	494.41
1198.548	-662.69
1199.242	-916.64
1199.936	506.7
1200.631	609.1
1201.326	-904.35
1202.022	-722.08
1202.718	768.84
1203.415	463.69
1204.112	-881.82
1204.81	-570.53
1205.508	133.97
1206.206	955.21
1206.905	-609.44
1207.605	-734.37
1208.305	314.19
1209.005	500.56
1209.706	-758.94
1210.408	-765.09
1211.11	308.05
1211.812	488.27
1212.515	-406.69
1213.218	-607.39
1213.922	314.19
1214.627	306
1215.331	-554.15
1216.037	-611.49
1216.743	-13.48
1217.449	486.22
1218.156	-437.41
1218.863	-427.17
1219.571	330.58
1220.279	774.99
1220.988	-711.84
1221.697	-543.91
1222.406	617.29
1223.117	191.31
1223.827	-414.88
1224.538	-599.2
1225.25	351.06
1225.962	451.41
1226.675	-935.07
1227.388	-423.08
1228.101	215.89
1228.815	76.63
1229.53	-562.34
1230.245	-537.76
1230.961	392.02
1231.677	224.08
1232.393	-582.82
1233.11	-674.98
1233.828	1069.89
1234.546	400.21
1235.264	-607.39
1235.983	-361.64
1236.702	1049.41
1237.422	346.96
1238.143	-337.06
1238.864	-672.93
1239.585	756.55
1240.307	-236.71
1241.029	-879.77
1241.752	-230.57
1242.476	709.45
1243.2	805.71
1243.924	-484.52
1244.649	-554.15
1245.374	611.15
1246.1	899.91
1246.826	-781.47
1247.553	-552.1
1248.28	496.46
1249.008	498.51
1249.737	-744.61
1250.465	-451.75
1251.195	510.8
1251.925	686.92
1252.655	-668.83
1253.386	-347.3
1254.117	254.8
1254.849	228.18
1255.581	-603.3
1256.314	-464.04
1257.047	666.44
1257.781	478.03
1258.515	-644.26
1259.25	-298.15
1259.985	389.97
1260.721	439.12
1261.457	-525.47
1262.194	-912.54
1262.931	289.62
1263.669	766.79
1264.407	-441.51
1265.146	-730.27
1265.885	471.89
1266.625	287.57
1267.365	-617.63
1268.106	-619.68
1268.847	465.74
1269.589	136.02
1270.331	-382.12
1271.074	-548
1271.817	404.3
1272.561	461.65
1273.305	-447.65
1274.05	-384.16
1274.795	453.45
1275.541	494.41
1276.287	-892.06
1277.034	-765.09
1277.781	179.03
1278.529	602.96
1279.277	-799.9
1280.026	-824.48
1280.775	846.66
1281.525	-361.64
1282.275	-914.59
1283.026	-226.47
1283.777	437.07
1284.529	379.73
1285.281	-558.24
1286.034	-855.2
1286.788	719.69
1287.541	408.4
1288.296	-775.33
1289.051	-396.45
1289.806	432.97
1290.562	543.57
1291.318	-722.08
1292.075	-476.32
1292.832	727.88
1293.59	861
1294.349	-775.33
1295.108	-658.59
1295.867	979.78
1296.627	666.44
1297.387	-756.9
1298.148	-464.04
1298.91	379.73
1299.672	224.08
1300.434	-701.6
1301.197	-760.99
1301.961	1389.38
1302.725	273.23
1303.489	-476.32
1304.254	-570.53
1305.02	490.32
1305.786	781.13
1306.552	-912.54
1307.319	-922.78
1308.087	858.95
1308.855	811.85
1309.624	-664.74
1310.393	-523.43
1311.162	-177.32
1311.933	625.48
1312.703	-588.96
1313.474	-386.21
1314.246	248.66
1315.018	650.06
1315.791	-195.75
1316.564	-758.94
1317.338	721.74
1318.112	269.14
1318.887	-804
1319.662	-570.53
1320.438	478.03
1321.214	219.99
1321.991	-412.84
1322.769	-693.41
1323.546	457.55
1324.325	23.38
1325.104	-705.7
1325.883	-509.09
1326.663	-93.35
1327.444	504.65
1328.224	-617.63
1329.006	-629.92
1329.788	482.13
1330.571	338.77
1331.354	-242.85
1332.137	-685.22
1332.921	793.42
1333.706	-62.63
1334.491	-390.31
1335.277	-576.67
1336.063	107.35
1336.849	222.03
1337.637	-730.27
1338.424	-672.93
1339.213	1108.8
1340.001	912.2
1340.791	-812.19
1341.581	-390.31
1342.371	543.57
1343.162	379.73
1343.953	-627.87
1344.745	-414.88
1345.537	400.21
1346.33	525.13
1347.124	-689.31
1347.918	-443.56
1348.712	961.35
1349.507	523.09
1350.303	-648.35
1351.099	-496.8
1351.896	109.4
1352.693	-240.81
1353.49	-634.02
1354.289	-570.53
1355.087	584.52
1355.887	791.37
1356.686	-404.64
1357.487	-607.39
1358.288	127.83
1359.089	252.75
1359.891	-259.24
1360.693	-617.63
1361.496	-111.78
1362.3	289.62
1363.104	-648.35
1363.908	-570.53
1364.713	807.75
1365.519	899.91
1366.325	-722.08
1367.131	-799.9
1367.939	295.76
1368.746	824.14
1369.555	-1008.8
1370.363	-570.53
1371.173	815.94
1371.982	1299.27
1372.793	-863.39
1373.604	-863.39
1374.415	523.09
1375.227	791.37
1376.039	-787.61
1376.852	-674.98
1377.666	985.93
1378.48	357.2
1379.295	-709.79
1380.11	-849.05
1380.925	-5.29
1381.742	973.64
1382.558	-582.82
1383.376	-640.16
1384.193	404.3
1385.012	166.74
1385.831	-597.15
1386.65	-656.54
1387.47	125.78
1388.29	154.45
1389.111	-582.82
1389.933	-865.44
1390.755	719.69
1391.578	289.62
1392.401	-847.01
1393.225	-584.87
1394.049	930.63
1394.873	306
1395.699	-713.89
1396.525	-498.85
1397.351	674.64
1398.178	2.9
1399.005	-533.67
1399.833	-1045.66
1400.662	588.62
1401.491	979.78
1402.321	-658.59
1403.151	-523.43
1403.981	371.54
1404.813	600.91
1405.644	-464.04
1406.477	-738.46
1407.309	273.23
1408.143	1256.26
1408.977	-752.8
1409.811	-691.36
1410.646	906.06
1411.482	744.27
1412.318	-502.95
1413.155	-660.64
1413.992	666.44
1414.829	-5.29
1415.668	-636.06
1416.506	-441.51
1417.346	727.88
1418.186	414.54
1419.026	-650.4
1419.867	-853.15
1420.709	715.59
1421.551	709.45
1422.393	-906.4
1423.236	-445.6
1424.08	373.58
1424.924	416.59
1425.769	-717.98
1426.614	-781.47
1427.46	521.04
1428.307	269.14
1429.154	-842.91
1430.001	-916.64
1430.849	478.03
1431.698	312.14
1432.547	-857.25
1433.397	-910.49
1434.247	627.53
1435.098	994.12
1435.949	-574.63
1436.801	-674.98
1437.653	119.64
1438.506	590.67
1439.36	-924.83
1440.214	-724.13
1441.069	641.87
1441.924	361.3
1442.78	-656.54
1443.636	-914.59
1444.493	273.23
1445.35	455.5
1446.208	-537.76
1447.067	-652.45
1447.926	394.06
1448.785	785.23
1449.645	-650.4
1450.506	-713.89
1451.367	336.72
1452.229	127.83
1453.091	-707.74
1453.954	-335.01
1454.818	168.79
1455.682	361.3
1456.546	-689.31
1457.412	-857.25
1458.277	875.34
1459.143	398.16
1460.01	-502.95
1460.878	-717.98
1461.745	320.34
1462.614	93.01
1463.483	-902.3
1464.352	-425.12
1465.223	731.98
1466.093	557.9
1466.964	-697.5
1467.836	-881.82
1468.709	846.66
1469.581	334.67
1470.455	-496.8
1471.329	-738.46
1472.203	60.24
1473.079	193.36
1473.954	-224.42
1474.831	-722.08
1475.707	70.48
1476.585	232.27
1477.463	-697.5
1478.341	-529.57
1479.22	25.43
1480.1	504.65
1480.98	-865.44
1481.861	-838.81
1482.742	582.48
1483.624	611.15
1484.506	-425.12
1485.389	-586.91
1486.273	252.75
1487.157	207.7
1488.041	-722.08
1488.926	-869.53
1489.812	432.97
1490.699	445.26
1491.585	-660.64
1492.473	-650.4
1493.361	-136.36
1494.249	432.97
1495.139	-482.47
1496.028	-504.99
1496.919	29.52
1497.809	500.56
1498.701	-681.12
1499.593	-664.74
1500.485	205.65
1501.378	799.56
1502.272	-287.91
1503.166	-593.06
1504.061	725.83
1504.956	537.42
1505.852	-562.34
1506.749	-806.05
1507.646	471.89
1508.543	379.73
1509.442	-902.3
1510.34	-144.55
1511.24	1051.46
1512.14	324.43
1513.04	-722.08
1513.941	-820.38
1514.843	1149.76
1515.745	-93.35
1516.648	-562.34
1517.551	-799.9
1518.455	-177.32
1519.359	-150.7
1520.264	-820.38
1521.17	-849.05
1522.076	213.84
1522.983	541.52
1523.89	-857.25
1524.798	-380.07
1525.706	441.17
1526.615	1315.65
1527.525	-824.48
1528.435	-660.64
1529.346	478.03
1530.257	129.88
1531.169	-324.77
1532.081	-763.04
1532.994	1030.98
1533.908	234.32
1534.822	-795.81
1535.737	-627.87
1536.652	498.51
1537.568	293.71
1538.484	-664.74
1539.401	-914.59
1540.319	863.05
1541.237	-48.3
1542.156	-832.67
1543.075	-777.37
1543.995	1000.26
1544.916	1067.85
1545.837	-783.52
1546.758	-771.23
1547.68	652.11
1548.603	666.44
1549.527	-496.8
1550.451	-748.7
1551.375	428.88
1552.3	752.46
1553.226	-898.2
1554.152	-824.48
1555.079	740.17
1556.006	340.82
1556.934	-461.99
1557.863	-648.35
1558.792	879.43
1559.722	158.55
1560.652	-513.19
1561.583	-922.78
1562.514	66.39
1563.446	150.36
1564.379	-988.32
1565.312	-421.03
1566.246	719.69
1567.18	389.97
1568.115	-636.06
1569.051	-726.18
1569.987	848.71
1570.924	1004.36
1571.861	-832.67
1572.799	-634.02
1573.737	535.37
1574.676	420.69
1575.616	-492.71
1576.556	-615.59
1577.497	-1.19
1578.438	199.51
1579.38	-758.94
1580.323	-607.39
1581.266	535.37
1582.21	764.75
1583.154	-773.28
1584.099	-754.85
1585.044	510.8
1585.99	764.75
1586.937	-347.3
1587.884	-545.95
1588.832	289.62
1589.78	852.81
1590.729	-681.12
1591.679	-382.12
1592.629	441.17
1593.58	473.93
1594.531	-550.05
1595.483	-537.76
1596.435	211.79
1597.388	138.07
1598.342	-267.43
1599.296	-466.08
1600.251	564.04
1601.207	695.11
1602.163	-476.32
1603.119	-726.18
1604.077	820.04
1605.034	838.47
1605.993	-472.23
1606.952	50
1607.911	252.75
1608.872	447.31
1609.832	-758.94
1610.794	-887.97
1611.756	678.73
1612.718	547.66
1613.681	-214.18
1614.645	-681.12
1615.609	801.61
1616.574	371.54
1617.54	-66.73
1618.506	-697.5
1619.472	789.32
1620.44	744.27
1621.408	-160.94
1622.376	-443.56
1623.345	377.68
1624.315	746.31
1625.285	-537.76
1626.256	-464.04
1627.227	490.32
1628.199	-111.78
1629.172	-439.46
1630.145	-447.65
1631.119	523.09
1632.094	1162.05
1633.069	-562.34
1634.044	-412.84
1635.02	236.37
1635.997	684.87
1636.975	-591.01
1637.953	-767.13
1638.931	981.83
1639.911	99.16
1640.89	-756.9
1641.871	-578.72
1642.852	600.91
1643.833	400.21
1644.816	-709.79
1645.798	-898.2
1646.782	957.25
1647.766	193.36
1648.75	-705.7
1649.736	-722.08
1650.721	117.59
1651.708	396.11
1652.695	-697.5
1653.682	-486.56
1654.671	518.99
1655.66	584.52
1656.649	-705.7
1657.639	-644.26
1658.63	-72.87
1659.621	207.7
1660.613	-945.31
1661.605	-812.19
1662.598	244.56
1663.592	224.08
1664.586	-1051.8
1665.581	-830.62
1666.576	338.77
1667.572	373.58
1668.569	-658.59
1669.566	-740.51
1670.564	500.56
1671.563	830.28
1672.562	-730.27
1673.562	-355.49
1674.562	404.3
1675.563	475.98
1676.564	-502.95
1677.566	-535.71
1678.569	955.21
1679.572	-349.35
1680.576	-531.62
1681.581	-683.17
1682.586	244.56
1683.592	611.15
1684.598	-574.63
1685.605	-472.23
1686.613	588.62
1687.621	342.86
1688.63	-504.99
1689.639	-418.98
1690.649	95.06
1691.66	353.1
1692.671	-529.57
1693.683	-627.87
1694.696	101.2
1695.709	488.27
1696.722	-750.75
1697.737	-533.67
1698.752	203.6
1699.767	494.41
1700.783	-615.59
1701.8	-466.08
1702.818	471.89
1703.836	-103.59
1704.854	-887.97
1705.873	-619.68
1706.893	265.04
1707.914	443.21
1708.935	-666.78
1709.956	-689.31
1710.979	256.85
1712.002	285.52
1713.025	-595.11
1714.049	-459.94
1715.074	555.85
1716.099	619.34
1717.125	-713.89
1718.152	-808.09
1719.179	117.59
1720.207	674.64
1721.235	-115.88
1722.265	-148.65
1723.294	420.69
1724.325	199.51
1725.355	-414.88
1726.387	-574.63
1727.419	371.54
1728.452	602.96
1729.485	-545.95
1730.519	-779.42
1731.554	39.76
1732.589	465.74
1733.625	-732.32
1734.662	-595.11
1735.699	13.14
1736.736	609.1
1737.775	-689.31
1738.814	-654.5
1739.853	207.7
1740.894	150.36
1741.934	-513.19
1742.976	-674.98
1744.018	607.05
1745.061	363.34
1746.104	-640.16
1747.148	-754.85
1748.193	379.73
1749.238	363.34
1750.284	-513.19
1751.33	-717.98
1752.377	533.33
1753.425	947.01
1754.473	-601.25
1755.522	-517.28
1756.572	772.94
1757.622	488.27
1758.673	-820.38
1759.724	-642.21
1760.776	756.55
1761.829	752.46
1762.882	-404.64
1763.936	-767.13
1764.991	244.56
1766.046	1067.85
1767.102	-396.45
1768.158	-816.29
1769.215	607.05
1770.273	482.13
1771.331	-502.95
1772.39	-797.85
1773.45	449.36
1774.51	547.66
1775.571	-767.13
1776.632	-62.63
1777.694	191.31
1778.757	619.34
1779.82	-445.6
1780.884	-513.19
1781.949	242.51
1783.014	455.5
1784.08	-914.59
1785.147	-603.3
1786.214	248.66
1787.282	213.84
1788.35	-398.5
1789.419	-384.16
1790.489	662.35
1791.559	342.86
1792.63	-683.17
1793.702	-367.78
1794.774	256.85
1795.847	564.04
1796.92	-300.2
1797.994	-507.04
1799.069	543.57
1800.144	1141.57
1801.22	-666.78
1802.297	-283.81
1803.374	-1.19
1804.452	518.99
1805.531	-658.59
1806.61	-292.01
1807.69	521.04
1808.77	-113.83
1809.851	-509.09
1810.933	-941.21
1812.015	736.07
1813.098	125.78
1814.182	-674.98
1815.266	-529.57
1816.351	306
1817.437	338.77
1818.523	-554.15
1819.61	-488.61
1820.697	316.24
1821.785	1080.13
1822.874	-439.46
1823.963	-697.5
1825.053	199.51
1826.144	619.34
1827.235	-556.19
1828.327	-586.91
1829.42	379.73
1830.513	-87.21
1831.607	-732.32
1832.701	-603.3
1833.796	308.05
1834.892	731.98
1835.989	-820.38
1837.086	-726.18
1838.183	404.3
1839.282	428.88
1840.381	-644.26
1841.48	-545.95
1842.581	469.84
1843.682	990.02
1844.783	-314.53
1845.885	-353.45
1846.988	643.92
1848.092	580.43
1849.196	-472.23
1850.301	-492.71
1851.406	97.11
1852.512	998.21
1853.619	-607.39
1854.726	-777.37
1855.834	86.87
1856.943	682.83
1858.052	-711.84
1859.162	-605.35
1860.273	525.13
1861.384	815.94
1862.496	-578.72
1863.608	-644.26
1864.721	496.46
1865.835	80.72
1866.95	-681.12
1868.065	-603.3
1869.181	240.47
1870.297	641.87
1871.414	-165.03
1872.532	-928.92
1873.65	281.43
1874.769	193.36
1875.889	-767.13
1877.009	-218.28
1878.13	437.07
1879.252	801.61
1880.374	-517.28
1881.497	-611.49
1882.62	398.16
1883.745	209.75
1884.87	-820.38
1885.995	-869.53
1887.121	240.47
1888.248	105.3
1889.376	-746.66
1890.504	-677.02
1891.632	486.22
1892.762	273.23
1893.892	-619.68
1895.023	-382.12
1896.154	138.07
1897.286	217.94
1898.419	-701.6
1899.552	-548
1900.686	635.72
1901.821	447.31
1902.956	-666.78
1904.092	-543.91
1905.229	871.24
1906.366	641.87
1907.504	-658.59
1908.643	-740.51
1909.782	602.96
