Data from FLMT021711__16__18-15-22-687.txt Node

Date: Tue Nov 05 18:15:22 CET 2024
User: Etudiants TP
Spectrometer: FLMT02171
Trigger mode: 0
Integration Time (sec): 1.000000E-1
Scans to average: 5
Electric dark correction enabled: true
Nonlinearity correction enabled: false
Boxcar width: 15
XAxis mode: Wavelengths
Number of Pixels in Spectrum: 3648
>>>>>Begin Spectral Data<<<<<
194.658	-75.41
194.923	-71.63
195.188	-64.89
195.453	-63.98
195.717	-56.8
195.982	-54.55
196.247	-53.65
196.512	-56.59
196.777	-54.82
197.042	-53.02
197.307	-53.37
197.572	-48.32
197.837	-49.38
198.101	-46.25
198.366	-44.29
198.631	-42.69
198.896	-35.11
199.161	-28.4
199.425	-21.08
199.69	-10.36
199.955	-10.33
200.22	-13.76
200.484	-15.14
200.749	-16.25
201.014	-15.84
201.278	-16.53
201.543	-16.08
201.807	-16.86
202.072	-15.44
202.337	-14.74
202.601	-16.04
202.866	-19.17
203.13	-19.17
203.395	-21.76
203.659	-20.89
203.924	-23.12
204.189	-21.96
204.453	-20.48
204.717	-17.51
204.982	-16.08
205.246	-14.74
205.511	-11.61
205.775	-13.19
206.04	-6.58
206.304	-6.85
206.568	-4.55
206.833	-3.9
207.097	-3.62
207.361	-0.36
207.626	5.01
207.89	5.22
208.154	5.17
208.419	7.23
208.683	7.2
208.947	10.7
209.211	10.21
209.476	11.21
209.74	11.59
210.004	10.87
210.268	11.1
210.532	13.06
210.796	14.09
211.061	15.05
211.325	16.58
211.589	16.11
211.853	15.39
212.117	14.82
212.381	13.86
212.645	13.8
212.909	13.24
213.173	11.03
213.437	10.53
213.701	9.55
213.965	10.36
214.229	4.65
214.493	4.34
214.757	2.76
215.021	2.44
215.285	6.77
215.549	9.27
215.813	4.93
216.077	3.52
216.34	7.05
216.604	5.92
216.868	8.26
217.132	7.69
217.396	6.92
217.659	7.37
217.923	3.44
218.187	3.69
218.451	3.79
218.714	2.27
218.978	2.03
219.242	4.62
219.505	4.54
219.769	5.97
220.033	7.07
220.296	9.45
220.56	9.99
220.824	8.26
221.087	10.19
221.351	9.89
221.614	9.04
221.878	11.11
222.142	10.13
222.405	11.54
222.669	15.5
222.932	11.38
223.196	9.57
223.459	6.36
223.722	6.69
223.986	6.85
224.249	7.12
224.513	6.65
224.776	7.13
225.04	5.43
225.303	5.4
225.566	7.01
225.83	8.12
226.093	12.03
226.356	10.34
226.62	7.54
226.883	9.06
227.146	11.11
227.409	10.09
227.673	8.67
227.936	7.54
228.199	7.92
228.462	3.68
228.725	3.33
228.989	1.8
229.252	1.55
229.515	6.49
229.778	5.88
230.041	5.11
230.304	2.29
230.567	3.46
230.83	0.93
231.093	4.73
231.356	4.4
231.619	10.49
231.882	8.54
232.145	10.67
232.408	8.97
232.671	6.87
232.934	6.78
233.197	5.51
233.46	4.5
233.723	4.94
233.986	2.77
234.249	0.61
234.512	2.89
234.775	6.86
235.037	5.65
235.3	4.56
235.563	3.96
235.826	4.5
236.089	6.55
236.351	5.96
236.614	10.67
236.877	10.78
237.14	14.57
237.402	14.71
237.665	8.21
237.928	8.25
238.19	5.92
238.453	10.01
238.716	9.18
238.978	7.3
239.241	5.05
239.503	7.93
239.766	2.25
240.029	1.1
240.291	3.68
240.554	5.02
240.816	4.84
241.079	5.22
241.341	4.9
241.604	4.34
241.866	0.4
242.129	1.27
242.391	3.3
242.653	2.48
242.916	3.1
243.178	2.33
243.441	3.15
243.703	3.51
243.965	1.45
244.228	1.09
244.49	0.17
244.752	-0.42
245.015	0.72
245.277	2.77
245.539	1.37
245.801	3.44
246.064	3.25
246.326	2.56
246.588	1.18
246.85	1.75
247.112	2.08
247.374	4.29
247.637	6.44
247.899	7.26
248.161	7.14
248.423	2.09
248.685	2.34
248.947	2.79
249.209	2.19
249.471	3.99
249.733	4.42
249.995	4.47
250.257	4.59
250.519	2.31
250.781	5.35
251.043	2.07
251.305	4.6
251.567	5.76
251.829	5.96
252.091	6.54
252.353	3.34
252.615	4.06
252.876	1.66
253.138	0.02
253.4	-3.45
253.662	-2.27
253.924	-0.71
254.185	0.6
254.447	0.84
254.709	0.51
254.971	2.08
255.232	4.6
255.494	3.04
255.756	-0.07
256.017	-0.18
256.279	0.68
256.541	0.85
256.802	0.23
257.064	0.57
257.326	0.85
257.587	1.93
257.849	3.26
258.11	5.31
258.372	5.65
258.633	7.15
258.895	6.09
259.156	7.16
259.418	4.51
259.679	0.18
259.941	-1.37
260.202	0.66
260.464	3.32
260.725	3.58
260.987	3.98
261.248	2.91
261.509	3.32
261.771	1.9
262.032	2.69
262.293	2.87
262.555	2.93
262.816	0.15
263.077	-1.44
263.338	-5.32
263.6	-4.49
263.861	-4.13
264.122	-5.19
264.383	-2.07
264.645	-1.97
264.906	-3.84
265.167	-1.88
265.428	-1.89
265.689	-1.66
265.95	-4.23
266.211	-1.52
266.473	-3.03
266.734	-6.42
266.995	-10.51
267.256	-11.45
267.517	-8.75
267.778	-4.91
268.039	-3.15
268.3	-4.91
268.561	-7.24
268.822	-4.32
269.083	-6.65
269.344	-7.18
269.604	-7.75
269.865	-6.83
270.126	-9.72
270.387	-8.58
270.648	-6.69
270.909	-4.98
271.17	-6.29
271.43	-7.98
271.691	-9.97
271.952	-11.63
272.213	-8.58
272.473	-11.9
272.734	-9.07
272.995	-5.69
273.256	-6.94
273.516	-4.77
273.777	-8.32
274.038	-6.36
274.298	-10.19
274.559	-9.27
274.82	-3.93
275.08	-0.86
275.341	0.86
275.601	0.03
275.862	-2.7
276.122	-2.22
276.383	-1.47
276.643	0.86
276.904	-0.89
277.164	2.75
277.425	1.02
277.685	6.01
277.946	6.31
278.206	6.88
278.467	7.75
278.727	7.17
278.987	6.11
279.248	5.6
279.508	7.93
279.768	9.87
280.029	11.7
280.289	8.27
280.549	6.29
280.81	6.72
281.07	4.44
281.33	6.62
281.59	3.73
281.851	7.82
282.111	7.2
282.371	7.22
282.631	8.64
282.891	7.31
283.151	6.19
283.412	3.13
283.672	2.53
283.932	3.97
284.192	3.99
284.452	2.09
284.712	-0.28
284.972	-2.32
285.232	-4.19
285.492	0.01
285.752	-3.73
286.012	2.27
286.272	4.56
286.532	1.1
286.792	0.45
287.052	3.35
287.312	4.22
287.571	4.07
287.831	4.14
288.091	1.44
288.351	1
288.611	5.17
288.871	3.55
289.13	4.53
289.39	-0.03
289.65	2.52
289.91	-0.46
290.17	1.47
290.429	4.94
290.689	2.23
290.949	-0.14
291.208	1.05
291.468	6.2
291.728	7.85
291.987	9.45
292.247	7.63
292.506	9.46
292.766	12.4
293.026	11.62
293.285	12.07
293.545	14.45
293.804	15.26
294.064	11.87
294.323	9.05
294.583	10.75
294.842	11.69
295.102	11.62
295.361	11.09
295.621	10.14
295.88	11.02
296.139	10.01
296.399	10.74
296.658	5.89
296.917	7.66
297.177	4.53
297.436	6.75
297.695	4.85
297.955	7.39
298.214	6.75
298.473	7.81
298.732	10.52
298.992	12.94
299.251	12.65
299.51	8.38
299.769	9.09
300.028	8.64
300.287	9.89
300.547	11.24
300.806	8.15
301.065	11.98
301.324	14.21
301.583	9.39
301.842	5.63
302.101	4.53
302.36	6.13
302.619	4.81
302.878	6.13
303.137	4.04
303.396	6.12
303.655	8.89
303.914	5.92
304.173	8.01
304.432	7.85
304.691	12.13
304.95	7.8
305.208	11.93
305.467	11.07
305.726	9.67
305.985	9.75
306.244	10.69
306.503	8.47
306.761	6.36
307.02	3.6
307.279	4.13
307.537	4.46
307.796	0.85
308.055	-2.61
308.314	-0.95
308.572	-3.7
308.831	-2.26
309.09	-2.16
309.348	-1.73
309.607	-0.55
309.865	4.28
310.124	1.91
310.382	3.26
310.641	5.54
310.9	2.86
311.158	3.47
311.417	3
311.675	2.77
311.933	3.76
312.192	4.22
312.45	4.2
312.709	3.51
312.967	4.04
313.226	4.6
313.484	4.19
313.742	2.66
314.001	1.93
314.259	0.24
314.517	1.74
314.776	3.71
315.034	6.21
315.292	3.17
315.55	2.1
315.809	0.71
316.067	2.49
316.325	-0.4
316.583	1.39
316.841	1.06
317.1	-1.4
317.358	-4.49
317.616	-6.29
317.874	-9.31
318.132	-8.32
318.39	-9.27
318.648	-11.24
318.906	-12.5
319.164	-13.25
319.422	-15.04
319.68	-16.06
319.938	-15.41
320.196	-14.64
320.454	-13.28
320.712	-13.38
320.97	-13.18
321.228	-16.8
321.486	-15.24
321.744	-12.55
322.002	-11.45
322.26	-12.77
322.517	-13.23
322.775	-15.48
323.033	-17.57
323.291	-15.29
323.549	-13.58
323.806	-10.71
324.064	-10.82
324.322	-8.5
324.58	-9.4
324.837	-7.48
325.095	-8.93
325.353	-8.79
325.61	-6.4
325.868	-6.77
326.126	-4.82
326.383	-7.06
326.641	-7.6
326.898	-5.61
327.156	-5.65
327.413	-4.47
327.671	-3.71
327.928	-1.78
328.186	-2.32
328.443	-3.5
328.701	-0.6
328.958	0.17
329.216	1.37
329.473	0.01
329.731	0.14
329.988	0.66
330.245	3.2
330.503	3.58
330.76	3.27
331.017	5.53
331.275	2.78
331.532	4.14
331.789	3.58
332.047	3.32
332.304	-0.62
332.561	-0.85
332.818	-1.83
333.076	0.77
333.333	2.5
333.59	3.43
333.847	4.58
334.104	3.15
334.361	3.43
334.618	2.52
334.876	0.76
335.133	1.28
335.39	-0.72
335.647	-0.68
335.904	-4.81
336.161	-6.96
336.418	-6.04
336.675	-10.19
336.932	-8.23
337.189	-8.42
337.446	-7.42
337.703	-7.81
337.96	-12.85
338.216	-13.03
338.473	-15.43
338.73	-14.37
338.987	-14.04
339.244	-8.51
339.501	-12.33
339.757	-12.88
340.014	-12.14
340.271	-10.78
340.528	-9.96
340.785	-6.35
341.041	-6.81
341.298	-8.8
341.555	-10.47
341.811	-9.44
342.068	-12.77
342.325	-12.53
342.581	-8.66
342.838	-6.3
343.094	-5.97
343.351	-5.36
343.608	-7.32
343.864	-4.13
344.121	-1.6
344.377	-3.13
344.634	-3.6
344.89	-5.58
345.147	-6.08
345.403	-7.08
345.66	-7.83
345.916	-5.7
346.172	-7.89
346.429	-8.2
346.685	-9.93
346.942	-10.28
347.198	-15.01
347.454	-12.64
347.711	-12.33
347.967	-15.58
348.223	-13.4
348.48	-14.29
348.736	-11.29
348.992	-12.06
349.248	-10.28
349.504	-10.57
349.761	-11.7
350.017	-9.63
350.273	-8.24
350.529	-10.87
350.785	-10.83
351.041	-12.39
351.297	-10.97
351.554	-13.53
351.81	-15.59
352.066	-18.65
352.322	-17.89
352.578	-17.73
352.834	-18.11
353.09	-16.79
353.346	-17.2
353.602	-17.96
353.858	-17.29
354.114	-18.01
354.369	-16.59
354.625	-14.04
354.881	-16.73
355.137	-14.29
355.393	-14.88
355.649	-14.47
355.905	-12.68
356.16	-14.17
356.416	-13.05
356.672	-20.57
356.928	-20.03
357.183	-21.18
357.439	-20.66
357.695	-22.57
357.951	-18.37
358.206	-20.14
358.462	-20.39
358.718	-23.65
358.973	-21.72
359.229	-21.73
359.484	-18.79
359.74	-14.86
359.996	-12.4
360.251	-9.05
360.507	-9.26
360.762	-7.94
361.018	-5.31
361.273	-5.1
361.529	-2.27
361.784	-2.49
362.04	1.07
362.295	0.34
362.55	0.96
362.806	4.91
363.061	4.7
363.316	5.25
363.572	5.26
363.827	8.43
364.082	6.43
364.338	6.48
364.593	7.75
364.848	8.69
365.104	7.78
365.359	10.07
365.614	11.25
365.869	7.92
366.124	9.07
366.38	9.04
366.635	12.76
366.89	13.4
367.145	13.85
367.4	17.13
367.655	16.69
367.91	16.79
368.165	15.05
368.42	12.79
368.675	13.28
368.93	12.08
369.185	8.94
369.44	8
369.695	9.85
369.95	7.5
370.205	6.48
370.46	4.76
370.715	3.42
370.97	4.59
371.225	4.4
371.48	5.76
371.734	3.36
371.989	5.14
372.244	4.9
372.499	5.44
372.754	4.73
373.008	1.69
373.263	-2.13
373.518	0.4
373.773	-0.49
374.027	-1.83
374.282	0.51
374.537	-0.53
374.791	0.76
375.046	-0.16
375.301	-2.76
375.555	-5.57
375.81	-4.4
376.064	-3.54
376.319	0.81
376.573	-1.88
376.828	-4.65
377.082	0.48
377.337	-1.7
377.591	-5.11
377.846	-3.61
378.1	-1.71
378.355	-1.28
378.609	-1.8
378.863	-4.73
379.118	-3.53
379.372	-4.94
379.627	-5.78
379.881	-7.64
380.135	-7.93
380.389	-7.87
380.644	-8.62
380.898	-5
381.152	-2.65
381.407	-3.98
381.661	-2.17
381.915	0.53
382.169	1.47
382.423	0.98
382.677	-4.02
382.932	-4.18
383.186	-2.56
383.44	-2.22
383.694	-0.54
383.948	-2.83
384.202	-4.27
384.456	-0.86
384.71	0.61
384.964	-1.69
385.218	1.18
385.472	2.22
385.726	0.44
385.98	1.65
386.234	0.79
386.488	-1.77
386.742	-0.89
386.996	-3.81
387.249	-1.8
387.503	0.18
387.757	1.37
388.011	3.28
388.265	3.52
388.518	5.02
388.772	6.47
389.026	5.45
389.28	3.87
389.533	2.93
389.787	3.35
390.041	-0.67
390.295	-0.37
390.548	0.06
390.802	4.49
391.055	2.48
391.309	1.53
391.563	-0.94
391.816	-0.4
392.07	-1.86
392.323	-0.81
392.577	-0.59
392.83	0.86
393.084	5.54
393.337	9.74
393.591	10.54
393.844	9.87
394.098	13.49
394.351	17.3
394.604	20.32
394.858	21.8
395.111	20.66
395.364	18.07
395.618	19.8
395.871	16.3
396.124	15.32
396.378	13.43
396.631	11.62
396.884	10.22
397.137	9.97
397.391	10.67
397.644	8.01
397.897	8.1
398.15	9.75
398.403	13.66
398.657	10.44
398.91	9.93
399.163	11.03
399.416	10.19
399.669	8.69
399.922	8.69
400.175	8.68
400.428	13.17
400.681	19.46
400.934	20.34
401.187	25.84
401.44	32.22
401.693	34.8
401.946	33.72
402.199	31.65
402.452	30.03
402.704	28.57
402.957	29.25
403.21	31.82
403.463	31.86
403.716	33.81
403.969	34.74
404.221	36.05
404.474	39.86
404.727	44.61
404.98	48.12
405.232	48.17
405.485	50.76
405.738	54.48
405.99	53.96
406.243	54.68
406.496	56.66
406.748	57.22
407.001	56.95
407.253	58.21
407.506	58.37
407.759	57.59
408.011	52.94
408.264	47.79
408.516	41.65
408.769	34.5
409.021	27.34
409.274	21
409.526	19.38
409.778	16.24
410.031	17.06
410.283	15.36
410.536	19.8
410.788	16.28
411.04	15.3
411.293	15.24
411.545	15.47
411.797	15.5
412.049	14.6
412.302	13.63
412.554	13.09
412.806	10.52
413.058	8.77
413.311	8.83
413.563	6.6
413.815	4.84
414.067	2.06
414.319	0.76
414.571	1.32
414.823	-0.5
415.075	-1.98
415.328	-1.18
415.58	3.25
415.832	4.57
416.084	6.22
416.336	3.89
416.588	7.48
416.84	6.2
417.091	10.31
417.343	6.48
417.595	9.05
417.847	8.97
418.099	12.08
418.351	10.81
418.603	13.5
418.855	14.66
419.106	16.36
419.358	15.68
419.61	15.22
419.862	16.82
420.114	14.69
420.365	14.27
420.617	14.38
420.869	12.81
421.12	11.97
421.372	13.35
421.624	14.13
421.875	14.75
422.127	11.36
422.379	11.6
422.63	14.93
422.882	13.72
423.133	14.7
423.385	14.02
423.636	15.98
423.888	17.49
424.139	19.74
424.391	16.21
424.642	14.89
424.894	11.95
425.145	11.81
425.396	9.66
425.648	13.18
425.899	10.62
426.151	12.12
426.402	12.21
426.653	11.97
426.905	9.53
427.156	7.83
427.407	7.25
427.658	5.22
427.91	3.75
428.161	2.55
428.412	4.3
428.663	6.12
428.914	5.88
429.166	6.52
429.417	6.4
429.668	5.13
429.919	3.15
430.17	3.61
430.421	3.28
430.672	7.54
430.923	7.25
431.174	8.78
431.425	16.77
431.676	29.28
431.927	44.27
432.178	65.74
432.429	87.05
432.68	102.98
432.931	119.8
433.182	130.75
433.433	133.6
433.683	139.4
433.934	140.32
434.185	139.31
434.436	138.8
434.687	140.67
434.937	142.79
435.188	142.15
435.439	142.48
435.69	143.67
435.94	142.02
436.191	142.46
436.442	142.3
436.692	140.45
436.943	138.61
437.194	138.13
437.444	140.37
437.695	145.81
437.945	145.2
438.196	141.93
438.447	138.84
438.697	138.59
438.948	134.52
439.198	122.69
439.449	104.99
439.699	88.23
439.949	67.61
440.2	45.85
440.45	30.41
440.701	15.06
440.951	5.85
441.201	1.14
441.452	-4.9
441.702	-7.34
441.952	-7.24
442.203	-6.9
442.453	-9.24
442.703	-9.12
442.953	-7.99
443.204	-7.46
443.454	-9.53
443.704	-8.18
443.954	-10.6
444.204	-11.19
444.455	-9.23
444.705	-8.37
444.955	-9.15
445.205	-9.48
445.455	-12.16
445.705	-12.45
445.955	-11.28
446.205	-10.88
446.455	-11.65
446.705	-10.7
446.955	-9.97
447.205	-8.45
447.455	-6.92
447.705	-7.92
447.955	-8.99
448.205	-8.63
448.454	-9.58
448.704	-8.61
448.954	-12.14
449.204	-11.43
449.454	-11.78
449.704	-14.32
449.953	-14.8
450.203	-12.92
450.453	-15.53
450.703	-14.24
450.952	-15.43
451.202	-12.85
451.452	-13.26
451.701	-10.79
451.951	-6.48
452.201	-6.88
452.45	-8.53
452.7	-6.83
452.949	-8.41
453.199	-10.86
453.448	-9.52
453.698	-8.35
453.947	-9.93
454.197	-9.83
454.446	-10.9
454.696	-8.21
454.945	-8.88
455.195	-10.34
455.444	-9.81
455.693	-6.58
455.943	-8.44
456.192	-6.99
456.442	-7.16
456.691	-6.43
456.94	-7.01
457.189	-8.79
457.439	-5.5
457.688	-4.11
457.937	-5.22
458.186	-2.78
458.436	-2.96
458.685	-2.09
458.934	-3.98
459.183	-5.3
459.432	-2.7
459.681	-2.46
459.93	-3.33
460.179	-3.04
460.429	-4.92
460.678	-2.04
460.927	2.38
461.176	0.95
461.425	1.17
461.674	4.07
461.923	4.16
462.172	3.43
462.42	2.7
462.669	5.71
462.918	5.96
463.167	5.97
463.416	4.08
463.665	4.22
463.914	5.75
464.162	3.77
464.411	4.47
464.66	5.85
464.909	4.85
465.158	5.68
465.406	4.9
465.655	7.39
465.904	9.58
466.152	9.42
466.401	11
466.65	12.15
466.898	11.47
467.147	5.35
467.395	3.75
467.644	5.85
467.893	5.57
468.141	5.02
468.39	3.38
468.638	1.88
468.887	0.94
469.135	0.06
469.384	0.17
469.632	0.37
469.88	1.07
470.129	2.51
470.377	-1.89
470.626	0.36
470.874	2.57
471.122	3.79
471.371	3.85
471.619	2.16
471.867	5.91
472.115	6.79
472.364	5.18
472.612	7.97
472.86	6.43
473.108	6.52
473.356	5.95
473.605	3.62
473.853	1.62
474.101	0.01
474.349	-0.11
474.597	3.16
474.845	3.42
475.093	1.64
475.341	-1.07
475.589	-0.57
475.837	2.93
476.085	2.65
476.333	1.34
476.581	3.36
476.829	2.79
477.077	3.99
477.325	4.93
477.573	7.16
477.821	5.7
478.069	8.95
478.317	8.16
478.564	10.35
478.812	8.72
479.06	7.28
479.308	5.43
479.555	4.75
479.803	4.51
480.051	6.91
480.299	7.76
480.546	8.46
480.794	7.23
481.042	7.75
481.289	8.45
481.537	12.08
481.784	12.91
482.032	17.41
482.28	18.49
482.527	20.5
482.775	23.94
483.022	27.78
483.27	31.05
483.517	35.21
483.765	38.03
484.012	40.32
484.259	39.7
484.507	44.59
484.754	48.24
485.002	49.76
485.249	49.73
485.496	54.04
485.744	54.68
485.991	56.41
486.238	54.77
486.486	59.15
486.733	61.75
486.98	67.57
487.227	66.86
487.474	68.64
487.722	71
487.969	68.84
488.216	68.97
488.463	70.17
488.71	69.07
488.957	68.15
489.204	65.7
489.451	66.81
489.699	65.31
489.946	61.29
490.193	60.48
490.44	57.95
490.687	57.04
490.934	53.37
491.18	47.38
491.427	48.45
491.674	49.96
491.921	49.4
492.168	45.95
492.415	41.32
492.662	40.1
492.909	41.46
493.155	39.67
493.402	37.38
493.649	34.21
493.896	33.49
494.142	28.35
494.389	25.89
494.636	20.95
494.883	17.46
495.129	14.55
495.376	10.47
495.623	11.28
495.869	11.71
496.116	12.84
496.362	14.31
496.609	16.87
496.855	22.43
497.102	20.32
497.348	19.2
497.595	20.32
497.841	23.93
498.088	21.98
498.334	20.46
498.581	18.48
498.827	18.18
499.074	17.05
499.32	15.96
499.566	19.25
499.813	19.34
500.059	15.01
500.305	14.39
500.552	12.37
500.798	8.98
501.044	12
501.29	10.12
501.537	7.77
501.783	10.65
502.029	14.49
502.275	11.72
502.521	10.77
502.767	11.19
503.013	14.36
503.26	12.06
503.506	8.38
503.752	7.95
503.998	4.79
504.244	3.25
504.49	-1.47
504.736	-0.83
504.982	-2.98
505.228	-0.62
505.474	-2.41
505.72	-1.4
505.966	-1.8
506.211	2.01
506.457	1.4
506.703	-2.78
506.949	-3.33
507.195	-6.48
507.441	-10
507.686	-4.77
507.932	-5.05
508.178	-4.04
508.424	-5.75
508.669	-8.88
508.915	-7.86
509.161	-5.94
509.406	-6.34
509.652	-8.16
509.898	-4.44
510.143	-2.7
510.389	-3.32
510.634	-7.31
510.88	-4.45
511.125	-1.18
511.371	-0.51
511.616	0.77
511.862	-0.96
512.107	-3.58
512.353	-1.66
512.598	-0.5
512.844	-3.29
513.089	-5.74
513.335	-4.8
513.58	-6.49
513.825	-6.32
514.071	-6.34
514.316	-6.82
514.561	-7.4
514.806	-8.69
515.052	-6.28
515.297	-8.26
515.542	-7.51
515.787	-6.46
516.033	-3.16
516.278	-3.09
516.523	-3.69
516.768	-5.68
517.013	-9.23
517.258	-9.32
517.503	-9.16
517.748	-10.75
517.993	-10.48
518.238	-10.18
518.483	-11.8
518.728	-12.07
518.973	-14.26
519.218	-15.15
519.463	-14.72
519.708	-16.45
519.953	-19.17
520.198	-20.02
520.443	-17.66
520.688	-14.83
520.933	-15.9
521.177	-15.24
521.422	-18.44
521.667	-15.61
521.912	-14.23
522.157	-17.63
522.401	-12.88
522.646	-12.16
522.891	-12.32
523.135	-11.82
523.38	-14.49
523.625	-15.6
523.869	-13.22
524.114	-11.29
524.358	-12.21
524.603	-11.17
524.848	-14.56
525.092	-15.24
525.337	-12.63
525.581	-12.21
525.826	-9.32
526.07	-8.24
526.315	-7.23
526.559	-8.5
526.803	-11.04
527.048	-7.31
527.292	-4.39
527.537	-4.04
527.781	-4.65
528.025	-8.1
528.269	-6.49
528.514	-5.48
528.758	-5.58
529.002	-4.81
529.247	-2.1
529.491	-2.92
529.735	3.11
529.979	0.95
530.223	2.6
530.467	0.96
530.712	-0.95
530.956	0.49
531.2	1.67
531.444	-1.37
531.688	-0.42
531.932	0.54
532.176	2.79
532.42	5.2
532.664	6.61
532.908	5.36
533.152	5.23
533.396	4.24
533.64	3.48
533.884	0.11
534.128	1.7
534.371	5.34
534.615	7.46
534.859	7.74
535.103	9.36
535.347	11.87
535.59	14.99
535.834	13.43
536.078	16.51
536.322	20.18
536.565	24.03
536.809	24.85
537.053	29.99
537.296	30.81
537.54	34.9
537.784	40.55
538.027	48.26
538.271	54.29
538.514	59.52
538.758	66.64
539.001	72.2
539.245	77.88
539.488	84.43
539.732	91.75
539.975	98.64
540.219	105.96
540.462	112.46
540.706	119.65
540.949	123.58
541.192	129.47
541.436	142.01
541.679	154.76
541.922	164.44
542.166	169.4
542.409	180.1
542.652	190.9
542.895	202.82
543.139	214.14
543.382	226.8
543.625	232.89
543.868	238.35
544.111	242.56
544.354	243.85
544.598	244.06
544.841	247.07
545.084	245.76
545.327	241.27
545.57	240.16
545.813	239.16
546.056	235.81
546.299	231.22
546.542	230.32
546.785	228.86
547.028	226.41
547.271	221.97
547.514	218.01
547.756	210.03
547.999	205.53
548.242	201.61
548.485	196.34
548.728	192.57
548.971	182.96
549.213	176.04
549.456	166.46
549.699	157.01
549.942	146.43
550.184	134.41
550.427	121.58
550.67	110.04
550.912	94.63
551.155	87.98
551.398	80.34
551.64	73.87
551.883	68.55
552.125	63.18
552.368	57.05
552.61	51.11
552.853	50.39
553.095	45.13
553.338	40.53
553.58	36.77
553.823	31.74
554.065	31.59
554.308	26.03
554.55	22.16
554.792	18.16
555.035	14.95
555.277	15.21
555.519	14.36
555.762	11.2
556.004	11.01
556.246	6.14
556.488	5.42
556.731	-0.34
556.973	-0.29
557.215	-2.35
557.457	-2.69
557.699	-0.48
557.941	-4.08
558.183	-5.17
558.426	-3.03
558.668	-7.54
558.91	-6.3
559.152	-6.82
559.394	-6.66
559.636	-3.87
559.878	-2.03
560.12	-2.53
560.362	-1.8
560.604	-1.34
560.845	-2.05
561.087	-2.22
561.329	0.81
561.571	-2.77
561.813	-2.69
562.055	-5.54
562.297	-6.61
562.538	-6.86
562.78	-5.53
563.022	-8.02
563.264	-6.99
563.505	-7.81
563.747	-7.03
563.989	-8.67
564.23	-9.29
564.472	-11.63
564.714	-8.73
564.955	-8.76
565.197	-13.05
565.438	-9.3
565.68	-6.47
565.921	-9.78
566.163	-9.05
566.404	-10.64
566.646	-8.41
566.887	-8.25
567.129	-7.89
567.37	-10.28
567.612	-8.1
567.853	-11.39
568.094	-10.41
568.336	-10.09
568.577	-9.79
568.818	-10.54
569.06	-11.51
569.301	-14.45
569.542	-13.71
569.783	-10.88
570.025	-10.78
570.266	-10.86
570.507	-9.21
570.748	-9.7
570.989	-8.5
571.23	-5.79
571.472	-5.83
571.713	-6.21
571.954	-3.76
572.195	-5.09
572.436	-2.31
572.677	1.62
572.918	4.05
573.159	3.11
573.4	5.97
573.641	8.14
573.882	10.35
574.123	8.11
574.364	5.82
574.604	7.03
574.845	6.91
575.086	9.16
575.327	11.8
575.568	12.3
575.809	13.61
576.049	14.63
576.29	13.87
576.531	21.01
576.771	26.62
577.012	30.97
577.253	33.05
577.494	34.51
577.734	35.01
577.975	37.25
578.215	36.85
578.456	36.7
578.697	38.13
578.937	41.03
579.178	40.99
579.418	40.66
579.659	41.07
579.899	38.43
580.14	37.89
580.38	36.69
580.62	37.48
580.861	39.91
581.101	39.4
581.342	37.94
581.582	33.99
581.822	36.69
582.063	35.11
582.303	36.3
582.543	36.15
582.783	37.29
583.024	40.14
583.264	43.36
583.504	42.81
583.744	46.99
583.984	44.88
584.224	45.94
584.465	46.25
584.705	46.45
584.945	47.19
585.185	48.01
585.425	48.2
585.665	48.65
585.905	48.73
586.145	47.64
586.385	46.55
586.625	49.61
586.865	49.15
587.105	48.86
587.345	49.34
587.585	49
587.824	48.03
588.064	47.72
588.304	45.52
588.544	45.78
588.784	45.95
589.024	50.48
589.263	50.46
589.503	50.45
589.743	54.08
589.982	52.96
590.222	53.45
590.462	50.96
590.701	47.88
590.941	49.31
591.181	46.06
591.42	43.36
591.66	44.88
591.899	46.4
592.139	44.24
592.378	44.48
592.618	42.44
592.857	40.84
593.097	40.91
593.336	40.75
593.576	40.95
593.815	41.57
594.055	40.57
594.294	41.7
594.533	40.58
594.773	40.27
595.012	42.1
595.251	42.7
595.491	45.12
595.73	47.01
595.969	48.22
596.208	48.89
596.447	52.68
596.687	53.6
596.926	53.45
597.165	48.69
597.404	50.59
597.643	47.87
597.882	45.63
598.121	46.78
598.36	47.75
598.599	48.67
598.838	48.2
599.077	43.16
599.316	42.46
599.555	40.73
599.794	41.66
600.033	44.1
600.272	45.42
600.511	43.61
600.75	44.85
600.989	45.63
601.228	45.02
601.466	45.42
601.705	44.49
601.944	46.03
602.183	47.97
602.422	45.82
602.66	44.43
602.899	41.57
603.138	41.15
603.376	40.61
603.615	40.62
603.854	38.9
604.092	37.61
604.331	39.28
604.569	40.39
604.808	41.2
605.047	44.67
605.285	45.17
605.524	46.74
605.762	46.74
606	51.63
606.239	57.25
606.477	62.86
606.716	66.83
606.954	78.25
607.193	89.41
607.431	104.26
607.669	127.03
607.908	154.42
608.146	185.02
608.384	211.8
608.622	238.31
608.861	261.46
609.099	282.97
609.337	301.82
609.575	320.03
609.813	337.61
610.052	351.63
610.29	360.8
610.528	370.62
610.766	380.08
611.004	389.44
611.242	396.7
611.48	404.15
611.718	408.9
611.956	416.83
612.194	419.19
612.432	421.04
612.67	425.39
612.908	428.93
613.146	427.83
613.384	426.68
613.621	423.45
613.859	422.57
614.097	416.92
614.335	408.82
614.573	397.72
614.811	382.1
615.048	358.24
615.286	333.47
615.524	304.01
615.761	274.81
615.999	249.1
616.237	226.69
616.474	207.69
616.712	190.17
616.95	170.2
617.187	154.58
617.425	143.17
617.662	132.74
617.9	120.6
618.137	108.3
618.375	96.77
618.612	86.25
618.85	81.16
619.087	76.46
619.325	69.82
619.562	63.38
619.799	57.62
620.037	53.55
620.274	49.01
620.511	50.17
620.749	44.57
620.986	42.75
621.223	38.51
621.461	37.52
621.698	38.94
621.935	36.47
622.172	34.24
622.409	37.67
622.647	37.26
622.884	35.96
623.121	38.92
623.358	38.66
623.595	37.79
623.832	39.29
624.069	37.72
624.306	40.19
624.543	42.21
624.78	42.95
625.017	43.88
625.254	47.44
625.491	51.08
625.728	53.99
625.965	55.07
626.202	54
626.438	52.85
626.675	51.37
626.912	53.94
627.149	56.96
627.386	58.3
627.622	58.88
627.859	58.85
628.096	60.75
628.333	62.36
628.569	65.63
628.806	68.62
629.043	67.61
629.279	69.38
629.516	70.93
629.752	66.86
629.989	66.27
630.225	63.58
630.462	62.33
630.699	60.33
630.935	59.75
631.171	54.98
631.408	54.28
631.644	50.89
631.881	45.6
632.117	42.8
632.354	43.11
632.59	40.01
632.826	37.2
633.063	35.96
633.299	36.58
633.535	33.23
633.771	31.92
634.008	34.68
634.244	33.37
634.48	29.24
634.716	27.71
634.953	23.76
635.189	21.34
635.425	21.98
635.661	21.76
635.897	17.63
636.133	14.45
636.369	12.34
636.605	7.97
636.841	6.34
637.077	7.69
637.313	7.39
637.549	8.99
637.785	7.68
638.021	8.92
638.257	7.43
638.493	9.44
638.729	7.24
638.965	10.14
639.2	12.75
639.436	11.24
639.672	9.75
639.908	7.5
640.144	12.02
640.379	14.77
640.615	12.19
640.851	14.08
641.086	15.92
641.322	12.62
641.558	12.91
641.793	14.22
642.029	12.49
642.264	11.79
642.5	11.79
642.736	8.1
642.971	9.19
643.207	6.95
643.442	4.9
643.678	6.31
643.913	7.39
644.148	6.7
644.384	7.51
644.619	6.99
644.855	8.45
645.09	8.61
645.325	8.73
645.561	9.21
645.796	7.12
646.031	11.96
646.266	11.01
646.502	10.53
646.737	14.12
646.972	15.47
647.207	16.75
647.442	12.94
647.678	10.48
647.913	15.1
648.148	16.91
648.383	15.13
648.618	15.82
648.853	17.1
649.088	20.37
649.323	24.35
649.558	27.32
649.793	28.83
650.028	30.62
650.263	26.93
650.498	29.95
650.733	31.43
650.968	29.07
651.202	31.3
651.437	30.59
651.672	28.66
651.907	28.2
652.142	29.07
652.376	31.57
652.611	33.3
652.846	36.02
653.081	36.12
653.315	33.45
653.55	32.7
653.785	31.66
654.019	32.26
654.254	29.96
654.488	31.51
654.723	29.43
654.958	26.24
655.192	23.34
655.427	18.92
655.661	19.91
655.896	22.8
656.13	24.57
656.364	19.91
656.599	16.96
656.833	18.59
657.068	19.97
657.302	19.69
657.536	18.99
657.771	21.14
658.005	21.52
658.239	22.71
658.474	20.48
658.708	21.4
658.942	21.87
659.176	20.89
659.41	16.44
659.645	14.71
659.879	13.93
660.113	10.73
660.347	10.33
660.581	9.41
660.815	9.3
661.049	7.03
661.283	3.81
661.517	2.79
661.751	1.26
661.985	0.63
662.219	3.69
662.453	2.4
662.687	5.39
662.921	1.47
663.155	-0.21
663.389	-6.97
663.622	-7.64
663.856	-6.2
664.09	-8.99
664.324	-9.79
664.558	-9.85
664.791	-11.02
665.025	-13.37
665.259	-13.26
665.492	-15.16
665.726	-12.29
665.96	-12.98
666.193	-15.42
666.427	-14.69
666.661	-14.6
666.894	-16.3
667.128	-17.63
667.361	-16.22
667.595	-16.45
667.828	-16.53
668.062	-17.28
668.295	-15.36
668.529	-15.15
668.762	-14.57
668.995	-15.7
669.229	-12.17
669.462	-12.1
669.695	-10.95
669.929	-12.45
670.162	-10.43
670.395	-11.36
670.629	-9.29
670.862	-6.82
671.095	-10.48
671.328	-10.52
671.561	-15.81
671.795	-15.23
672.028	-13.66
672.261	-12.23
672.494	-11.78
672.727	-12.51
672.96	-11.02
673.193	-11.97
673.426	-7.48
673.659	-5.89
673.892	-5.45
674.125	-5.4
674.358	-5.91
674.591	-8.01
674.824	-8.45
675.057	-9.4
675.29	-10.68
675.523	-9.45
675.755	-10.82
675.988	-8.78
676.221	-4.45
676.454	-6.4
676.687	-5.58
676.919	-6.98
677.152	-6.2
677.385	-4.97
677.617	-3.62
677.85	-3.78
678.083	-5.09
678.315	-2.26
678.548	-3.1
678.78	-1.24
679.013	-0.96
679.246	-1.46
679.478	-1.74
679.711	-3.47
679.943	-0.19
680.175	-3.24
680.408	1.07
680.64	-3.88
680.873	-3.67
681.105	-2.48
681.338	0.74
681.57	0.8
681.802	3.05
682.034	3.88
682.267	6.94
682.499	9.42
682.731	6.97
682.964	6.08
683.196	3.67
683.428	0.58
683.66	0.67
683.892	3.43
684.124	5.05
684.356	8.73
684.589	9.02
684.821	5.49
685.053	6.75
685.285	8.07
685.517	10.85
685.749	12.48
685.981	14.24
686.213	14.7
686.445	16.39
686.676	15.09
686.908	16.63
687.14	15.01
687.372	15.29
687.604	12.51
687.836	15.27
688.068	15.29
688.299	14.53
688.531	11.43
688.763	16.39
688.995	14.35
689.226	16.25
689.458	15.59
689.69	13.38
689.921	13.33
690.153	13.49
690.384	15.72
690.616	14.13
690.848	14.7
691.079	11.91
691.311	10.85
691.542	6.46
691.774	4.12
692.005	8.8
692.237	12.21
692.468	9.3
692.699	6.82
692.931	5.14
693.162	2.3
693.393	0.4
693.625	-0.8
693.856	0.12
694.087	0.85
694.319	2.12
694.55	1.45
694.781	0.41
695.012	0.08
695.243	-3.32
695.475	-3.99
695.706	-3.51
695.937	-5.95
696.168	-6.73
696.399	-9.58
696.63	-10.81
696.861	-8.92
697.092	-3.78
697.323	0.98
697.554	1.35
697.785	2.78
698.016	4.1
698.247	1.13
698.478	1.53
698.709	1.92
698.94	4.9
699.171	4.11
699.401	-1.69
699.632	0.88
699.863	-1.61
700.094	-0.55
700.325	3.1
700.555	4.1
700.786	5.54
701.017	6.11
701.247	4.79
701.478	4.3
701.709	4.5
701.939	3.48
702.17	5.11
702.401	11.42
702.631	14.14
702.862	14.81
703.092	14.08
703.323	19.64
703.553	24.87
703.784	27.32
704.014	28.24
704.244	25.72
704.475	27.04
704.705	28.78
704.936	31.02
705.166	32.6
705.396	36.72
705.627	40.27
705.857	43.31
706.087	43.87
706.317	43.85
706.548	45.34
706.778	46.67
707.008	49.06
707.238	50.16
707.468	49.49
707.698	49.25
707.928	49.67
708.158	49.69
708.389	50
708.619	49.76
708.849	51.64
709.079	56.06
709.309	55.87
709.539	53.34
709.768	53.85
709.998	57.07
710.228	55.42
710.458	52.45
710.688	47.88
710.918	45.33
711.148	42.6
711.378	40.51
711.607	36.09
711.837	34
712.067	32.12
712.297	28.46
712.526	26.07
712.756	24.89
712.986	19.44
713.215	15.78
713.445	13.97
713.674	13.97
713.904	12.1
714.134	14.24
714.363	12.89
714.593	10.33
714.822	8.86
715.052	6.91
715.281	6.94
715.511	5.18
715.74	3.36
715.969	0.53
716.199	-2.4
716.428	-3.95
716.657	-6.37
716.887	-5.87
717.116	-10.45
717.345	-8.44
717.575	-8.76
717.804	-8.83
718.033	-9.1
718.262	-10.82
718.492	-10.73
718.721	-10.27
718.95	-11.21
719.179	-13.16
719.408	-12.43
719.637	-14.95
719.866	-17.96
720.095	-14.61
720.324	-15.2
720.553	-19.35
720.782	-21.26
721.011	-22.62
721.24	-25.63
721.469	-28.25
721.698	-28.7
721.927	-28.58
722.156	-29.94
722.385	-32.31
722.613	-27.49
722.842	-26.69
723.071	-23.41
723.3	-22.71
723.529	-23.23
723.757	-22.14
723.986	-25.82
724.215	-26.95
724.443	-25.59
724.672	-23.48
724.901	-22.21
725.129	-20.22
725.358	-15.01
725.586	-17.92
725.815	-17.32
726.043	-18.2
726.272	-19.48
726.5	-20.38
726.729	-20.02
726.957	-22.49
727.186	-25.96
727.414	-24.89
727.642	-22.69
727.871	-20.71
728.099	-20.39
728.327	-21.36
728.556	-17.71
728.784	-16.01
729.012	-17.06
729.241	-13.49
729.469	-13.67
729.697	-19.01
729.925	-17.67
730.153	-20.03
730.381	-20.26
730.61	-20.23
730.838	-23.34
731.066	-21.6
731.294	-20.04
731.522	-23.95
731.75	-28.68
731.978	-29.77
732.206	-31.21
732.434	-33.69
732.662	-30.21
732.89	-32.1
733.118	-32.08
733.346	-30.98
733.573	-29.42
733.801	-28.42
734.029	-20.94
734.257	-19.21
734.485	-15.75
734.712	-14.02
734.94	-15.4
735.168	-11.96
735.396	-10.66
735.623	-12.19
735.851	-10.59
736.078	-8.52
736.306	-8.85
736.534	-7.39
736.761	-5.89
736.989	-9.31
737.216	-9.93
737.444	-12.33
737.671	-11.52
737.899	-6.31
738.126	-7.33
738.354	-8.25
738.581	-6.4
738.809	-5.48
739.036	-7.42
739.263	-6.32
739.491	-8.34
739.718	-8.61
739.945	-4.05
740.173	-1.99
740.4	-2.31
740.627	-3.59
740.854	-2.74
741.081	-6.06
741.309	-7.6
741.536	-12.17
741.763	-12.41
741.99	-12.36
742.217	-13.4
742.444	-14.19
742.671	-13.28
742.898	-13.75
743.125	-16.28
743.352	-19.19
743.579	-20.26
743.806	-20.38
744.033	-16.22
744.26	-14.91
744.487	-14.55
744.714	-15.05
744.941	-16.27
745.167	-12.69
745.394	-13.22
745.621	-15.25
745.848	-13.34
746.075	-10.35
746.301	-6.61
746.528	-1.71
746.755	-3.19
746.981	-3.65
747.208	-2.52
747.435	-0.41
747.661	-0.19
747.888	1.15
748.114	-0.97
748.341	1.66
748.567	5.13
748.794	2
749.02	1.39
749.247	-1.65
749.473	-1.27
749.7	-0.76
749.926	-1.48
750.152	3.59
750.379	4.54
750.605	4.45
750.831	3.33
751.058	1.13
751.284	-1.07
751.51	1.71
751.737	2.58
751.963	0.43
752.189	-1.71
752.415	-2.93
752.641	-2.41
752.867	-4.19
753.094	-6.96
753.32	-9.06
753.546	-11.83
753.772	-10.36
753.998	-12.75
754.224	-13.24
754.45	-14.03
754.676	-15.26
754.902	-17.49
755.128	-15.91
755.354	-15.92
755.579	-15.49
755.805	-11.52
756.031	-12.04
756.257	-12.16
756.483	-13.85
756.709	-16.62
756.934	-16.27
757.16	-20.51
757.386	-20.03
757.612	-22.49
757.837	-21.77
758.063	-18.5
758.289	-15.49
758.514	-16.17
758.74	-19.17
758.965	-19.77
759.191	-19.13
759.416	-16.82
759.642	-16.03
759.868	-15.01
760.093	-11.69
760.318	-14.09
760.544	-14.55
760.769	-15.4
760.995	-15.91
761.22	-15.78
761.445	-13.57
761.671	-10.86
761.896	-7.15
762.121	-8.53
762.347	-9.48
762.572	-12.93
762.797	-15.05
763.022	-16.16
763.248	-11.27
763.473	-9.66
763.698	-8.83
763.923	-9.02
764.148	-9.33
764.373	-10.07
764.598	-7.16
764.823	-7.12
765.048	-11.33
765.273	-14.13
765.498	-17.24
765.723	-16.44
765.948	-15
766.173	-14.53
766.398	-13.97
766.623	-15.53
766.848	-16.04
767.073	-19.8
767.298	-20.13
767.522	-19.53
767.747	-18.88
767.972	-18.86
768.197	-19.12
768.421	-22.07
768.646	-25.54
768.871	-29.69
769.095	-28.87
769.32	-27.51
769.545	-26.22
769.769	-24.13
769.994	-20.07
770.218	-22.87
770.443	-21.77
770.667	-20.29
770.892	-20.48
771.116	-19.86
771.341	-18.63
771.565	-19.39
771.79	-18.54
772.014	-19.08
772.238	-20.49
772.463	-17.14
772.687	-15.68
772.911	-16.51
773.136	-19.06
773.36	-18.5
773.584	-16.8
773.808	-18.61
774.033	-17.02
774.257	-17.44
774.481	-17.83
774.705	-17.83
774.929	-18.24
775.153	-19.13
775.377	-16.47
775.602	-16.27
775.826	-14.28
776.05	-12.65
776.274	-13.77
776.498	-14.58
776.722	-15.69
776.945	-16.02
777.169	-17.22
777.393	-19.18
777.617	-21.55
777.841	-20.4
778.065	-18.86
778.289	-19.48
778.512	-20.35
778.736	-20.02
778.96	-20.91
779.184	-17.73
779.407	-18.58
779.631	-18.59
779.855	-19.51
780.078	-19.21
780.302	-20.49
780.526	-23.16
780.749	-22.76
780.973	-20.76
781.196	-19.85
781.42	-21.63
781.643	-22.54
781.867	-21.79
782.09	-23.99
782.314	-25.38
782.537	-25.07
782.76	-26.45
782.984	-26.01
783.207	-26.79
783.431	-26.42
783.654	-27.17
783.877	-29.68
784.1	-30.15
784.324	-30.62
784.547	-30.37
784.77	-34.8
784.993	-36.62
785.216	-37.98
785.44	-37.34
785.663	-38.96
785.886	-34.2
786.109	-35.17
786.332	-34.88
786.555	-34.08
786.778	-32.37
787.001	-30.22
787.224	-27.88
787.447	-25.92
787.67	-24.02
787.893	-23.82
788.116	-23.59
788.339	-23.22
788.561	-22.35
788.784	-26.32
789.007	-27.3
789.23	-29.33
789.453	-30.37
789.675	-31.32
789.898	-33.67
790.121	-35.5
790.344	-36.4
790.566	-36.31
790.789	-35.18
791.012	-33.82
791.234	-30.63
791.457	-28.06
791.679	-24.89
791.902	-24.18
792.124	-23.82
792.347	-24.74
792.569	-24.86
792.792	-28.94
793.014	-25.69
793.237	-24.3
793.459	-25.08
793.681	-25.91
793.904	-27.65
794.126	-30.16
794.348	-30.33
794.571	-28.85
794.793	-31.53
795.015	-30.24
795.237	-29.69
795.46	-29.62
795.682	-27.18
795.904	-23.66
796.126	-24.27
796.348	-23.69
796.57	-19.78
796.792	-18.61
797.014	-13.53
797.237	-10.7
797.459	-8.54
797.681	-6.77
797.903	-9.09
798.124	-9.32
798.346	2.9
798.568	3.44
798.79	7.98
799.012	10.43
799.234	11.56
799.456	12.62
799.678	14.78
799.899	11.33
800.121	9.99
800.343	10.34
800.565	11.09
800.786	11.45
801.008	13.08
801.23	11.98
801.451	11.65
801.673	11.21
801.895	10.96
802.116	13.77
802.338	14.4
802.559	13.95
802.781	11.79
803.002	15.23
803.224	17.5
803.445	13.94
803.667	14.98
803.888	11.87
804.109	11.12
804.331	10.81
804.552	10.04
804.773	12.54
804.995	11.19
805.216	-3.81
805.437	-7.11
805.658	-11.25
805.88	-13.25
806.101	-12.06
806.322	-11.8
806.543	-12.83
806.764	-14.06
806.985	-13.6
807.207	-13.75
807.428	-13.09
807.649	-16.16
807.87	-17.76
808.091	-16.71
808.312	-15.67
808.533	-10.53
808.754	-9.27
808.975	-11.45
809.195	-9.19
809.416	-7.57
809.637	-7.99
809.858	-9.29
810.079	-10.94
810.3	-8.34
810.52	-9.71
810.741	-12.32
810.962	-13.61
811.183	-14.8
811.403	-13.31
811.624	-13.33
811.845	-13.44
812.065	-11.09
812.286	-9.65
812.506	-10.56
812.727	-10.09
812.948	-9.47
813.168	-8.12
813.389	-8.89
813.609	-8.14
813.83	-9.57
814.05	-10.68
814.27	-10.4
814.491	-6.8
814.711	-8.01
814.931	-9.49
815.152	-9.87
815.372	-12.47
815.592	-14.09
815.813	-16.15
816.033	-17.84
816.253	-17.54
816.473	-18.42
816.694	-18.41
816.914	-17.53
817.134	-19.05
817.354	-21.84
817.574	-19.86
817.794	-19.79
818.014	-20.25
818.234	-23.32
818.454	-24.09
818.674	-25.74
818.894	-28.7
819.114	-25.08
819.334	-24.03
819.554	-21.87
819.774	-19.13
819.994	-20.28
820.214	-21.53
820.433	-21.35
820.653	-20.8
820.873	-17.74
821.093	-17.99
821.312	-19.57
821.532	-15.94
821.752	-13.35
821.972	-15.06
822.191	-13.31
822.411	-13.48
822.63	-12.06
822.85	-12.28
823.07	-15.6
823.289	-14.61
823.509	-15.98
823.728	-13.59
823.948	-14.04
824.167	-13.08
824.387	-13.5
824.606	-12.03
824.825	-14.22
825.045	-12.84
825.264	-14.79
825.483	-13.32
825.703	-10.77
825.922	-13.8
826.141	-14.74
826.361	-16.77
826.58	-21.85
826.799	-24.08
827.018	-21.27
827.237	-19.44
827.456	-17.49
827.676	-18.4
827.895	-18.84
828.114	-16.84
828.333	-17.88
828.552	-19.77
828.771	-19.34
828.99	-22.82
829.209	-22.57
829.428	-20.35
829.647	-20.71
829.866	-18.27
830.084	-17.5
830.303	-15.96
830.522	-17.81
830.741	-18.06
830.96	-17.3
831.179	-16.44
831.397	-18.42
831.616	-16.97
831.835	-17.77
832.053	-15.09
832.272	-13.63
832.491	-12.66
832.709	-14.39
832.928	-13.18
833.147	-13.23
833.365	-13.23
833.584	-10.54
833.802	-8.49
834.021	-9.15
834.239	-7.73
834.458	-10.12
834.676	-12.8
834.894	-14.22
835.113	-15.27
835.331	-14.8
835.55	-15.34
835.768	-13.05
835.986	-13.33
836.204	-15.42
836.423	-14.39
836.641	-14.13
836.859	-15.33
837.077	-16.02
837.296	-15.69
837.514	-16.87
837.732	-18.32
837.95	-20.29
838.168	-17.47
838.386	-17.67
838.604	-14.8
838.822	-14.63
839.04	-16.72
839.258	-15.78
839.476	-12.64
839.694	-13.16
839.912	-13.63
840.13	-12.47
840.348	-9.23
840.566	-13.42
840.783	-11.1
841.001	-13.74
841.219	-11.74
841.437	-10.39
841.655	-8.79
841.872	-10.17
842.09	-11.26
842.308	-9.85
842.525	-10.73
842.743	-9.42
842.961	-11.04
843.178	-12.67
843.396	-9.89
843.613	-9.91
843.831	-7.82
844.048	-8.24
844.266	-6.39
844.483	-5.91
844.701	-6.82
844.918	-6.79
845.136	-7.4
845.353	-9.62
845.57	-9.8
845.788	-6.05
846.005	-8.75
846.222	-11.27
846.439	-9.5
846.657	-9.44
846.874	-8.87
847.091	-11.76
847.308	-9.14
847.526	-10.85
847.743	-11.61
847.96	-14.4
848.177	-13.67
848.394	-15.22
848.611	-14.37
848.828	-13.84
849.045	-14.87
849.262	-15.07
849.479	-15.12
849.696	-15.03
849.913	-16.55
850.13	-21.25
850.347	-17.8
850.564	-18.71
850.78	-20.59
850.997	-23.82
851.214	-24.17
851.431	-22.9
851.647	-25.69
851.864	-25.43
852.081	-24.04
852.298	-27.72
852.514	-30.03
852.731	-28.87
852.948	-25.5
853.164	-25.48
853.381	-25.34
853.597	-25.84
853.814	-27.72
854.03	-30.11
854.247	-29.19
854.463	-29.11
854.68	-27.52
854.896	-27.89
855.113	-27.43
855.329	-28.06
855.545	-26.49
855.762	-28.03
855.978	-30.31
856.194	-33.28
856.411	-30.08
856.627	-28.41
856.843	-28.33
857.059	-26.23
857.275	-29.02
857.492	-28.31
857.708	-23.16
857.924	-21.12
858.14	-17.96
858.356	-19.34
858.572	-18.2
858.788	-19.19
859.004	-15.78
859.22	-18.6
859.436	-17.7
859.652	-19.85
859.868	-21.16
860.084	-21.03
860.3	-22.48
860.516	-22.36
860.731	-22.45
860.947	-25.38
861.163	-24
861.379	-24.2
861.595	-21.59
861.81	-20.77
862.026	-18.97
862.242	-19.54
862.457	-18.19
862.673	-16.44
862.889	-15.46
863.104	-15.22
863.32	-15.08
863.535	-13.46
863.751	-18.48
863.966	-13.65
864.182	-11.51
864.397	-13.42
864.613	-15.87
864.828	-17.54
865.044	-15.61
865.259	-14.54
865.474	-14.82
865.69	-14.58
865.905	-13.55
866.12	-17.79
866.336	-18.58
866.551	-16.79
866.766	-17.93
866.981	-17.85
867.196	-17.32
867.412	-17.25
867.627	-16.47
867.842	-17.38
868.057	-17.75
868.272	-19.56
868.487	-21.01
868.702	-23.99
868.917	-23.35
869.132	-22.49
869.347	-21.86
869.562	-22.86
869.777	-24.09
869.992	-25.58
870.207	-25.08
870.422	-23.85
870.636	-27.22
870.851	-28.48
871.066	-30.21
871.281	-28.14
871.495	-29.67
871.71	-26.92
871.925	-30.87
872.14	-31.94
872.354	-34.04
872.569	-33.56
872.783	-31.01
872.998	-29.69
873.213	-31.07
873.427	-29.1
873.642	-27.92
873.856	-27.83
874.071	-27.87
874.285	-28.55
874.5	-30.71
874.714	-31.68
874.928	-32.86
875.143	-32.9
875.357	-32.36
875.571	-33.93
875.786	-34.11
876	-31.84
876.214	-30.89
876.429	-33.11
876.643	-31.07
876.857	-31.11
877.071	-31.01
877.285	-31.96
877.499	-36.01
877.714	-32.97
877.928	-31.71
878.142	-32.97
878.356	-35.43
878.57	-32.8
878.784	-31.45
878.998	-31.45
879.212	-28.86
879.426	-30.14
879.639	-29.39
879.853	-31.33
880.067	-30.54
880.281	-32.63
880.495	-31.77
880.709	-28.89
880.922	-28.67
881.136	-24.71
881.35	-22.28
881.564	-22.84
881.777	-25.19
881.991	-24.17
882.205	-21.23
882.418	-21.88
882.632	-24
882.845	-24.08
883.059	-22.56
883.273	-23.32
883.486	-24.07
883.7	-21.5
883.913	-20.74
884.126	-17.75
884.34	-22.57
884.553	-24.63
884.767	-19.66
884.98	-18.32
885.193	-20.23
885.407	-21.33
885.62	-19.59
885.833	-21.76
886.046	-20.06
886.26	-22.13
886.473	-22.12
886.686	-24.48
886.899	-21.79
887.112	-22.82
887.326	-25.43
887.539	-24.72
887.752	-25.67
887.965	-28.05
888.178	-25.66
888.391	-24.52
888.604	-23.98
888.817	-25.2
889.03	-22.22
889.243	-24.13
889.455	-25.14
889.668	-24.88
889.881	-23.74
890.094	-25.05
890.307	-28.52
890.52	-26.77
890.732	-25.2
890.945	-23.42
891.158	-22.78
891.37	-25.68
891.583	-26.37
891.796	-24.02
892.008	-24.52
892.221	-24.53
892.434	-27.28
892.646	-28.69
892.859	-28.42
893.071	-26.08
893.284	-23.91
893.496	-24.6
893.709	-24.94
893.921	-23.52
894.133	-23.78
894.346	-23.65
894.558	-22.81
894.771	-23.14
894.983	-20.49
895.195	-20.33
895.407	-21.34
895.62	-25.39
895.832	-24.96
896.044	-22.81
896.256	-23.69
896.468	-25.2
896.681	-22.54
896.893	-21.81
897.105	-22.93
897.317	-23.9
897.529	-22.69
897.741	-23.45
897.953	-20.07
898.165	-21.55
898.377	-22.63
898.589	-20.88
898.801	-22.35
899.013	-18.7
899.224	-15.98
899.436	-13.01
899.648	-13.71
899.86	-15.75
900.072	-13.55
900.283	-11.13
900.495	-10.18
900.707	-9.54
900.919	-12.93
901.13	-11.83
901.342	-13.97
901.554	-15.38
901.765	-14.34
901.977	-15.78
902.188	-15.59
902.4	-15.76
902.611	-16.91
902.823	-16.85
903.034	-19.05
903.246	-20.98
903.457	-21.73
903.669	-22.95
903.88	-23.92
904.091	-24.89
904.303	-22.36
904.514	-24.61
904.725	-23.68
904.936	-23.16
905.148	-23.91
905.359	-22.11
905.57	-22.83
905.781	-25.2
905.992	-27.82
906.204	-27.91
906.415	-26.84
906.626	-29.72
906.837	-28.38
907.048	-30.02
907.259	-31.37
907.47	-32.25
907.681	-33.99
907.892	-30.16
908.103	-31.47
908.314	-34.77
908.525	-31.83
908.735	-31.18
908.946	-31.37
909.157	-32.2
909.368	-31.27
909.579	-29.42
909.789	-31.99
910	-32.9
910.211	-30.19
910.421	-30.61
910.632	-28.56
910.843	-32.29
911.053	-29.03
911.264	-26.1
911.475	-27.88
911.685	-27.52
911.896	-28.03
912.106	-26.96
912.317	-29.06
912.527	-26.23
912.737	-25.98
912.948	-25.14
913.158	-23.99
913.369	-27.77
913.579	-25.56
913.789	-24.94
914	-20.51
914.21	-19.8
914.42	-21.14
914.63	-20.51
914.841	-18.36
915.051	-18.07
915.261	-18.25
915.471	-16.39
915.681	-16.13
915.891	-16.07
916.101	-17.12
916.311	-16.35
916.521	-15.15
916.731	-15.05
916.941	-11.17
917.151	-13.1
917.361	-10.18
917.571	-14.04
917.781	-16.39
917.991	-17.77
918.201	-19.17
918.411	-20.58
918.621	-21.57
918.83	-18.8
919.04	-20.31
919.25	-17.64
919.46	-16.56
919.669	-18.99
919.879	-18.32
920.089	-20.15
920.298	-20.21
920.508	-20.18
920.717	-19.88
920.927	-21.43
921.136	-19.71
921.346	-21.88
921.555	-25.04
921.765	-24.51
921.974	-25.81
922.184	-28.14
922.393	-28.53
922.603	-30.25
922.812	-26.82
923.021	-28.34
923.23	-30.62
923.44	-34.38
923.649	-34.45
923.858	-35.19
924.067	-35.11
924.277	-36.59
924.486	-33.73
924.695	-33.81
924.904	-31.53
925.113	-31.82
925.322	-30.31
925.531	-30.63
925.74	-33.73
925.949	-34.67
926.158	-31.75
926.367	-32.35
926.576	-31.59
926.785	-33.68
926.994	-34.36
927.203	-33.06
927.412	-33.33
927.621	-35.89
927.83	-32.91
928.038	-32.99
928.247	-33.34
928.456	-33.46
928.665	-32.26
928.873	-30.55
929.082	-26.5
929.291	-25.96
929.499	-22.76
929.708	-23.78
929.916	-22.88
930.125	-23.36
930.333	-25.28
930.542	-23.51
930.75	-19.55
930.959	-18.59
931.167	-18.45
931.376	-19.91
931.584	-18.59
931.793	-19.74
932.001	-20.75
932.209	-22.9
932.418	-24.71
932.626	-27.03
932.834	-27.74
933.042	-30.92
933.251	-29.71
933.459	-30.23
933.667	-31.18
933.875	-31.02
934.083	-29.65
934.291	-30.27
934.499	-28.59
934.707	-29.21
934.915	-29.68
935.123	-26.67
935.331	-28.22
935.539	-31.05
935.747	-33.31
935.955	-34.45
936.163	-32.8
936.371	-32.28
936.579	-30.88
936.787	-29.69
936.995	-31.97
937.202	-35.8
937.41	-36.96
937.618	-36.66
937.826	-35.93
938.033	-40.79
938.241	-42.27
938.449	-39.77
938.656	-37.72
938.864	-38.7
939.071	-38.31
939.279	-34.69
939.486	-31.35
939.694	-32.03
939.901	-34.63
940.109	-34.44
940.316	-33.11
940.524	-32.86
940.731	-32.61
940.939	-30.71
941.146	-31.74
941.353	-31.23
941.561	-31.91
941.768	-32.68
941.975	-32.16
942.182	-32.76
942.39	-33.03
942.597	-30.56
942.804	-31.6
943.011	-31.09
943.218	-30.44
943.425	-29.84
943.632	-29.08
943.839	-28.68
944.046	-30.32
944.253	-30.8
944.46	-29.28
944.667	-24.76
944.874	-26.63
945.081	-23.85
945.288	-21.6
945.495	-19.77
945.702	-21.18
945.909	-22.07
946.115	-20.63
946.322	-20.68
946.529	-22.14
946.736	-23.13
946.942	-22.38
947.149	-23.33
947.356	-25.83
947.562	-26.54
947.769	-27.06
947.976	-28.18
948.182	-27.05
948.389	-26.09
948.595	-25.43
948.802	-23.7
949.008	-24.57
949.215	-23.52
949.421	-25.56
949.628	-28.05
949.834	-27.15
950.04	-27.27
950.247	-25.22
950.453	-23.36
950.659	-23.52
950.865	-21.78
951.072	-26.94
951.278	-23.62
951.484	-26.01
951.69	-30.03
951.896	-31.21
952.103	-32.48
952.309	-30.97
952.515	-30.7
952.721	-27.58
952.927	-25.31
953.133	-26.25
953.339	-27.48
953.545	-27.46
953.751	-26.39
953.957	-23.16
954.163	-25.19
954.369	-25.64
954.574	-27.04
954.78	-27.78
954.986	-26.97
955.192	-25.53
955.398	-27.82
955.603	-29.75
955.809	-27.38
956.015	-25.31
956.22	-24.98
956.426	-24.13
956.632	-26.42
956.837	-26.84
957.043	-26.7
957.248	-25.21
957.454	-25.51
957.66	-27.52
957.865	-27.67
958.07	-24.47
958.276	-25.08
958.481	-26.15
958.687	-29.06
958.892	-29.7
959.097	-31
959.303	-32.16
959.508	-31.87
959.713	-31.28
959.919	-32.48
960.124	-32.49
960.329	-31.78
960.534	-26.96
960.739	-24.64
960.945	-23.58
961.15	-24.07
961.355	-26.19
961.56	-32.06
961.765	-33.47
961.97	-33.4
962.175	-30.99
962.38	-35.13
962.585	-35.47
962.79	-37.79
962.995	-38.33
963.2	-39.46
963.404	-39.88
963.609	-43.58
963.814	-43.23
964.019	-46.6
964.224	-48.99
964.428	-47.29
964.633	-45.8
964.838	-44.86
965.042	-44.54
965.247	-45.34
965.452	-45.37
965.656	-43.39
965.861	-42.18
966.066	-43.03
966.27	-39.49
966.475	-35.71
966.679	-40.19
966.884	-40.46
967.088	-43.38
967.292	-42.72
967.497	-40.26
967.701	-40.71
967.906	-38.51
968.11	-35.22
968.314	-31.63
968.518	-33.5
968.723	-29.9
968.927	-27.92
969.131	-26.39
969.335	-23.38
969.539	-22.9
969.744	-22.79
969.948	-19.96
970.152	-19.04
970.356	-16.72
970.56	-15.82
970.764	-17.81
970.968	-16.15
971.172	-14.71
971.376	-14.31
971.58	-12.84
971.784	-11.3
971.988	-13.34
972.192	-11.05
972.395	-12.07
972.599	-15.89
972.803	-18.68
973.007	-16.59
973.21	-16.28
973.414	-15.67
973.618	-16.65
973.822	-17.36
974.025	-16.17
974.229	-14.81
974.432	-18.09
974.636	-19.87
974.84	-19.29
975.043	-18.25
975.247	-21.16
975.45	-23.19
975.654	-23.57
975.857	-22.38
976.06	-21.6
976.264	-22.81
976.467	-20.69
976.671	-21.69
976.874	-20.94
977.077	-21.7
977.28	-22.46
977.484	-24.78
977.687	-24.14
977.89	-24.43
978.093	-25.26
978.297	-25.03
978.5	-28.52
978.703	-27
978.906	-25.68
979.109	-27.34
979.312	-24.99
979.515	-26.92
979.718	-27.21
979.921	-27.36
980.124	-29.68
980.327	-29.18
980.53	-30.39
980.733	-28.29
980.936	-25.34
981.138	-27.35
981.341	-27.86
981.544	-27.79
981.747	-26.26
981.949	-26.54
982.152	-23.86
982.355	-26.35
982.558	-23.76
982.76	-27.21
982.963	-27.41
983.165	-26.75
983.368	-25.54
983.571	-26.39
983.773	-22.36
983.976	-22.56
984.178	-20.75
984.381	-21.84
984.583	-24.54
984.785	-24.65
984.988	-22.93
985.19	-20.46
985.392	-22.22
985.595	-25.59
985.797	-24.61
985.999	-22.03
986.202	-19.7
986.404	-20.15
986.606	-17.88
986.808	-18.5
987.01	-17.71
987.212	-19.49
987.415	-19.81
987.617	-18.84
987.819	-18.36
988.021	-17.63
988.223	-21.37
988.425	-24.51
988.627	-22.91
988.829	-27.57
989.031	-26.05
989.232	-26.16
989.434	-24.39
989.636	-25.55
989.838	-26.02
990.04	-26.07
990.242	-27.4
990.443	-29.8
990.645	-27.54
990.847	-23.98
991.048	-22.9
991.25	-24.41
991.452	-26.35
991.653	-25.8
991.855	-25.47
992.057	-26.74
992.258	-26.4
992.46	-27.02
992.661	-25.47
992.863	-27.9
993.064	-25.98
993.265	-27.14
993.467	-29
993.668	-26.97
993.87	-26.82
994.071	-27.23
994.272	-27.32
994.473	-24.7
994.675	-24.86
994.876	-24.34
995.077	-22.62
995.278	-21.84
995.48	-21.67
995.681	-23.06
995.882	-21.62
996.083	-22.75
996.284	-27.96
996.485	-27.41
996.686	-27.83
996.887	-29.17
997.088	-32.26
997.289	-32.83
997.49	-34.14
997.691	-33.3
997.892	-31.88
998.092	-27.51
998.293	-27.7
998.494	-29.72
998.695	-30.73
998.896	-28.51
999.096	-28.59
999.297	-28.91
999.498	-30.27
999.698	-32.79
999.899	-36.69
1000.1	-39.13
1000.3	-37.81
1000.501	-37.82
1000.701	-37.99
1000.902	-35.83
1001.102	-35.44
1001.303	-33.2
1001.503	-35.13
1001.704	-33.73
1001.904	-36.27
1002.105	-37.05
1002.305	-35.97
1002.505	-36.58
1002.706	-36.5
1002.906	-36.09
1003.106	-36.93
1003.306	-35.67
1003.507	-33.84
1003.707	-32.4
1003.907	-30.21
1004.107	-29.92
1004.307	-32.69
1004.507	-31.41
1004.707	-30.31
1004.907	-30.76
1005.107	-31.49
1005.308	-30.59
1005.507	-32.45
1005.707	-29.84
1005.907	-29.5
1006.107	-26.36
1006.307	-24.97
1006.507	-26.71
1006.707	-25.76
1006.907	-23.26
1007.106	-25.55
1007.306	-26.61
1007.506	-27.38
1007.706	-27.2
1007.905	-29.51
1008.105	-27.51
1008.305	-28.2
1008.504	-26.86
1008.704	-20.21
1008.903	-19.79
1009.103	-18.33
1009.303	-19.54
1009.502	-18.99
1009.702	-20.61
1009.901	-21.36
1010.1	-25.79
1010.3	-22.99
1010.499	-25.22
1010.699	-25.85
1010.898	-28.55
1011.097	-28.63
1011.296	-29.08
1011.496	-30.78
1011.695	-30.55
1011.894	-30.61
1012.093	-26.46
1012.293	-27.1
1012.492	-26.29
1012.691	-27.44
1012.89	-28.89
1013.089	-32.54
1013.288	-30.64
1013.487	-30.13
1013.686	-30.66
1013.885	-31.32
1014.084	-29.5
1014.283	-31.16
1014.482	-31.23
1014.681	-32.26
1014.88	-37.07
1015.078	-36.15
1015.277	-38.65
1015.476	-38.67
1015.675	-38.92
1015.873	-38.79
1016.072	-40.15
1016.271	-36.12
1016.47	-40.91
1016.668	-38.15
1016.867	-38.76
1017.065	-39.52
1017.264	-40.88
1017.463	-40.38
1017.661	-39.44
1017.86	-39.29
1018.058	-40.56
1018.256	-42.62
1018.455	-44.97
1018.653	-45.5
1018.852	-43.66
1019.05	-44.79
1019.248	-46.74
1019.447	-48.49
1019.645	-48.15
1019.843	-48.69
1020.041	-47.23
1020.24	-48.64
1020.438	-43.97
1020.636	-44.02
1020.834	-46.69
1021.032	-43.99
1021.23	-45.79
1021.428	-43.29
1021.626	-39.26
1021.824	-38.33
1022.022	-39.22
1022.22	-36.94
1022.418	-36.76
1022.616	-37.81
1022.814	-38.73
1023.012	-38.37
1023.21	-35.02
1023.408	-34.97
1023.606	-35.99
1023.803	-30.71
1024.001	-31.32
1024.199	-32.82
1024.397	-31.94
1024.594	-30.05
1024.792	-31.23
1024.99	-30.14
1025.187	-29.09
1025.385	-23.79
1025.582	-22.37
1025.78	-23.9
1025.977	-23.73
1026.175	-23.92
1026.372	-24.02
1026.57	-26.32
1026.767	-22.9
1026.965	-21.12
1027.162	-20.67
1027.359	-20.54
1027.557	-20.59
1027.754	-24.79
1027.951	-25.85
1028.148	-24.53
1028.346	-26.57
1028.543	-29.63
1028.74	-28.85
1028.937	-30.99
1029.134	-32.56
1029.331	-34.71
1029.528	-33.4
1029.725	-34.33
1029.923	-38.47
1030.12	-34.94
1030.317	-34.52
1030.513	-33.33
1030.71	-32.13
1030.907	-29.53
1031.104	-31.08
1031.301	-33.32
1031.498	-34.6
1031.695	-36.21
1031.892	-36.07
1032.088	-35.7
1032.285	-37.55
1032.482	-37.89
1032.678	-40.91
1032.875	-43.91
1033.072	-42.98
1033.268	-44.19
1033.465	-43.94
1033.662	-46.56
1033.858	-45.42
1034.055	-46.74
1034.251	-43.59
1034.448	-43.93
1034.644	-43.06
1034.84	-40.18
1035.037	-37.24
1035.233	-36.02
1035.43	-33.94
1035.626	-35.41
1035.822	-34.93
1036.019	-34.87
1036.215	-38.83
1036.411	-37.56
1036.607	-40.28
1036.803	-42.52
1037	-43.54
1037.196	-45.16
1037.392	-45.27
1037.588	-46.4
1037.784	-43.94
1037.98	-44.43
1038.176	-44.23
1038.372	-43.36
1038.568	-41.67
1038.764	-39.13
1038.96	-37.04
1039.156	-40.11
1039.352	-40.58
1039.547	-39.05
1039.743	-37.22
1039.939	-34.69
1040.135	-34.69
1040.331	-38.1
1040.526	-36.76
1040.722	-37.38
1040.918	-38.89
1041.113	-42.96
1041.309	-43.66
1041.505	-46.77
1041.7	-45.78
1041.896	-46
1042.091	-47.88
1042.287	-47.17
1042.482	-47.4
1042.678	-46.59
1042.873	-46.07
1043.069	-47.62
1043.264	-45.96
1043.459	-43.98
1043.655	-44.27
1043.85	-46.82
1044.045	-45.37
1044.24	-46.26
1044.436	-45.11
1044.631	-46.35
1044.826	-48.27
1045.021	-51.87
1045.216	-48.93
