Data from FLMT021711__25__18-17-02-686.txt Node

Date: Tue Nov 05 18:17:02 CET 2024
User: Etudiants TP
Spectrometer: FLMT02171
Trigger mode: 0
Integration Time (sec): 1,000000E-1
Scans to average: 5
Electric dark correction enabled: true
Nonlinearity correction enabled: false
Boxcar width: 15
XAxis mode: Wavelengths
Number of Pixels in Spectrum: 3648
>>>>>Begin Spectral Data<<<<<
194,658	-69,1
194,923	-66,53
195,188	-58,55
195,453	-56,54
195,717	-48,77
195,982	-45,74
196,247	-42,25
196,512	-44,74
196,777	-42,26
197,042	-38,91
197,307	-37,13
197,572	-31,67
197,837	-29,75
198,101	-26,23
198,366	-22,09
198,631	-19,47
198,896	-11
199,161	-2,8
199,425	5,74
199,69	17,03
199,955	16,65
200,22	14,05
200,484	15,08
200,749	15,08
201,014	19,28
201,278	19,71
201,543	22,08
201,807	23,45
202,072	25,41
202,337	29,11
202,601	30,43
202,866	30,27
203,13	33,39
203,395	31,75
203,659	32,96
203,924	31,62
204,189	32,18
204,453	33,95
204,717	37,31
204,982	39,73
205,246	40,17
205,511	41,81
205,775	42,56
206,04	47,71
206,304	47,29
206,568	48,98
206,833	49,44
207,097	49,38
207,361	52,58
207,626	58,02
207,89	58,87
208,154	60,37
208,419	61,88
208,683	60,85
208,947	64,19
209,211	61,84
209,476	62,78
209,74	63,63
210,004	62,94
210,268	64,89
210,532	67,95
210,796	67,63
211,061	69,04
211,325	69,45
211,589	68,28
211,853	68,5
212,117	68,64
212,381	69,59
212,645	70,57
212,909	70,3
213,173	67,28
213,437	68,9
213,701	68,76
213,965	67,6
214,229	61,72
214,493	62,38
214,757	60,45
215,021	60,58
215,285	65,4
215,549	66,33
215,813	62,81
216,077	62,72
216,34	64,86
216,604	62,9
216,868	64,03
217,132	65,66
217,396	65,96
217,659	66,08
217,923	61,03
218,187	61,35
218,451	59,85
218,714	56,47
218,978	56,64
219,242	58,14
219,505	57,69
219,769	59,68
220,033	59,02
220,296	60,94
220,56	61,33
220,824	57,95
221,087	58,42
221,351	58,79
221,614	57,9
221,878	59,64
222,142	58,73
222,405	59,88
222,669	61,83
222,932	58,35
223,196	56,26
223,459	51,72
223,722	54,53
223,986	53,92
224,249	52,61
224,513	52,22
224,776	52,87
225,04	50,95
225,303	50
225,566	49,58
225,83	50,85
226,093	55,15
226,356	52,93
226,62	51
226,883	52,47
227,146	53,97
227,409	55,06
227,673	52,48
227,936	52,19
228,199	53,56
228,462	50,79
228,725	48,87
228,989	49
229,252	50,34
229,515	55,47
229,778	55,07
230,041	53,93
230,304	53,59
230,567	54,17
230,83	51,73
231,093	53,3
231,356	53,34
231,619	61,07
231,882	59,48
232,145	61,31
232,408	60,43
232,671	59,91
232,934	60,11
233,197	59,55
233,46	58,71
233,723	60,65
233,986	60,41
234,249	57,58
234,512	59,94
234,775	64,28
235,037	63,75
235,3	63,15
235,563	61,16
235,826	63,15
236,089	64,75
236,351	63,34
236,614	66,1
236,877	68,14
237,14	70,28
237,402	70,66
237,665	63,94
237,928	62,1
238,19	59,81
238,453	61,65
238,716	60,6
238,978	61,19
239,241	60,9
239,503	62,28
239,766	57,23
240,029	54,31
240,291	57,99
240,554	58,68
240,816	57,09
241,079	58,05
241,341	56,94
241,604	54,48
241,866	51,18
242,129	51,38
242,391	53,76
242,653	53,84
242,916	52,42
243,178	52,13
243,441	52,79
243,703	53,42
243,965	51,61
244,228	52,27
244,49	52,91
244,752	53,41
245,015	53,18
245,277	54,97
245,539	53,43
245,801	55,54
246,064	55,37
246,326	54,9
246,588	54,3
246,85	58,01
247,112	58,3
247,374	61,37
247,637	64,98
247,899	64,64
248,161	64,68
248,423	60
248,685	59,95
248,947	60,49
249,209	60,39
249,471	63,3
249,733	65,67
249,995	64,13
250,257	63,49
250,519	63,13
250,781	65,84
251,043	63,64
251,305	64,5
251,567	66,15
251,829	66,3
252,091	66,04
252,353	61,7
252,615	62,6
252,876	60,24
253,138	59,67
253,4	55,78
253,662	56,84
253,924	58,91
254,185	60,36
254,447	60,71
254,709	59,56
254,971	59,29
255,232	61,53
255,494	59,34
255,756	56,5
256,017	57,47
256,279	58,4
256,541	57,45
256,802	57,63
257,064	57,58
257,326	56,38
257,587	57,61
257,849	57,05
258,11	59,82
258,372	60,68
258,633	60,85
258,895	58,95
259,156	57,39
259,418	56,25
259,679	52,38
259,941	50,65
260,202	54,54
260,464	56,03
260,725	54,22
260,987	53,71
261,248	51,6
261,509	52,56
261,771	52,33
262,032	52,85
262,293	52,59
262,555	52,48
262,816	52,41
263,077	48,95
263,338	45,38
263,6	45,5
263,861	43,63
264,122	42,12
264,383	43,59
264,645	44,71
264,906	43,62
265,167	44,55
265,428	43,83
265,689	43,97
265,95	41,43
266,211	43,42
266,473	42
266,734	38,71
266,995	35,46
267,256	36,88
267,517	39,06
267,778	41,59
268,039	43,01
268,3	39,87
268,561	38,96
268,822	43,77
269,083	41,6
269,344	41,49
269,604	41,01
269,865	41,3
270,126	38,21
270,387	39,03
270,648	41,49
270,909	40,2
271,17	40,99
271,43	38,44
271,691	36,78
271,952	35,89
272,213	37,41
272,473	35,51
272,734	37,15
272,995	39,34
273,256	40,05
273,516	43,49
273,777	40,67
274,038	43,21
274,298	40,28
274,559	40,73
274,82	46,22
275,08	49,22
275,341	51,51
275,601	50,58
275,862	48,84
276,122	48,65
276,383	50,27
276,643	50,74
276,904	48,42
277,164	52,93
277,425	53,33
277,685	56,44
277,946	56,75
278,206	58,02
278,467	59,96
278,727	59,96
278,987	59,14
279,248	57,64
279,508	59,08
279,768	60,11
280,029	63,1
280,289	60,77
280,549	58,3
280,81	58,43
281,07	56,45
281,33	57,15
281,59	54,47
281,851	57,31
282,111	57,27
282,371	56,89
282,631	58,55
282,891	56,34
283,151	55,12
283,412	52,22
283,672	50,89
283,932	51,29
284,192	53,6
284,452	51,55
284,712	50,32
284,972	48,51
285,232	44,7
285,492	47,83
285,752	45,84
286,012	51,96
286,272	53,91
286,532	52,47
286,792	51,92
287,052	55,09
287,312	55,17
287,571	54,83
287,831	56,19
288,091	53,3
288,351	54,1
288,611	59,16
288,871	56,88
289,13	56,54
289,39	52,84
289,65	54,74
289,91	52,23
290,17	55,09
290,429	57,71
290,689	54,68
290,949	52,44
291,208	53,07
291,468	56,46
291,728	59,2
291,987	61,48
292,247	59,38
292,506	63,09
292,766	65,75
293,026	64,33
293,285	67,33
293,545	69,46
293,804	69,36
294,064	64,44
294,323	61,33
294,583	60,05
294,842	60,38
295,102	60,42
295,361	61,75
295,621	62,7
295,88	63,24
296,139	62,66
296,399	64,29
296,658	59,1
296,917	61,35
297,177	59,04
297,436	60,94
297,695	58,19
297,955	59,84
298,214	56,69
298,473	58,75
298,732	62,18
298,992	64,25
299,251	63,98
299,51	60,62
299,769	61,02
300,028	60,8
300,287	61,02
300,547	59,24
300,806	58,12
301,065	62,05
301,324	63,33
301,583	58,67
301,842	55
302,101	53,99
302,36	55,29
302,619	56,24
302,878	56,58
303,137	52,9
303,396	55,91
303,655	56,85
303,914	54,34
304,173	54,71
304,432	53,74
304,691	58,05
304,95	53,93
305,208	59,68
305,467	60,39
305,726	61,29
305,985	61,55
306,244	64,41
306,503	62,9
306,761	60,37
307,02	58,64
307,279	59,6
307,537	60,19
307,796	57,01
308,055	54,08
308,314	56,18
308,572	54,48
308,831	56,18
309,09	58,26
309,348	59,61
309,607	59,76
309,865	64,5
310,124	64,44
310,382	67,3
310,641	68,17
310,9	65,25
311,158	67,09
311,417	64,85
311,675	65,97
311,933	65,25
312,192	67,89
312,45	65,87
312,709	64,41
312,967	64,52
313,226	64,18
313,484	63,52
313,742	61,58
314,001	60,42
314,259	58,51
314,517	59,45
314,776	62,91
315,034	64,26
315,292	62,12
315,55	60,28
315,809	60,25
316,067	61,05
316,325	58,4
316,583	60,2
316,841	58,1
317,1	54,99
317,358	50,36
317,616	49,18
317,874	46,4
318,132	45,02
318,39	43,4
318,648	42,25
318,906	42,76
319,164	42,61
319,422	43,14
319,68	40,94
319,938	42,58
320,196	41,46
320,454	44,29
320,712	45,38
320,97	46,62
321,228	44,59
321,486	46,26
321,744	48,55
322,002	50,9
322,26	48,15
322,517	48,72
322,775	44,59
323,033	44,01
323,291	46,68
323,549	49,3
323,806	51,26
324,064	51,93
324,322	52,7
324,58	52,32
324,837	53,83
325,095	52,75
325,353	55,14
325,61	58,4
325,868	58,91
326,126	61,22
326,383	58,35
326,641	58,18
326,898	60,41
327,156	62,12
327,413	62,58
327,671	63,29
327,928	65,44
328,186	66,66
328,443	64,82
328,701	68,52
328,958	69,67
329,216	70,04
329,473	68,81
329,731	69,93
329,988	72,64
330,245	80,59
330,503	86,42
330,76	92,43
331,017	100,37
331,275	101,47
331,532	104,01
331,789	103,7
332,047	104,75
332,304	104,12
332,561	105,99
332,818	107,68
333,076	111,82
333,333	115,12
333,59	116,98
333,847	121,25
334,104	123,4
334,361	127,78
334,618	128,49
334,876	129,07
335,133	131,87
335,39	134,68
335,647	139,42
335,904	139,68
336,161	141,64
336,418	148,1
336,675	147,74
336,932	155,24
337,189	159,82
337,446	165,35
337,703	170,2
337,96	169,47
338,216	171,44
338,473	169,48
338,73	171,25
338,987	172,94
339,244	180,13
339,501	183,67
339,757	191,6
340,014	199,84
340,271	209,32
340,528	216,46
340,785	227,38
341,041	234,11
341,298	237,64
341,555	246,52
341,811	254,75
342,068	259,95
342,325	268,09
342,581	281,66
342,838	293,16
343,094	301,25
343,351	308,07
343,608	314,69
343,864	325,54
344,121	336,19
344,377	343,18
344,634	352,01
344,89	358,16
345,147	366,21
345,403	373,8
345,66	381,62
345,916	392,76
346,172	400,61
346,429	406,94
346,685	413,9
346,942	422,1
347,198	426,85
347,454	436,72
347,711	443,6
347,967	448,51
348,223	456,46
348,48	465,85
348,736	477,1
348,992	483,9
349,248	496,24
349,504	502,78
349,761	509,95
350,017	519,11
350,273	524,82
350,529	528,14
350,785	534,1
351,041	540,76
351,297	548,72
351,554	554,83
351,81	559,43
352,066	563,1
352,322	569,23
352,578	575,99
352,834	580,77
353,09	587,23
353,346	593,69
353,602	598,99
353,858	604,04
354,114	609,59
354,369	618,07
354,625	627,24
354,881	629,78
355,137	637,48
355,393	642,6
355,649	648,1
355,905	653,54
356,16	659,06
356,416	663,02
356,672	661,11
356,928	667,36
357,183	669,34
357,439	673,71
357,695	675,69
357,951	685,03
358,206	691,75
358,462	697,74
358,718	700,92
358,973	707,87
359,229	716,34
359,484	726
359,74	739,43
359,996	754,53
360,251	783,14
360,507	874,3
360,762	1211,17
361,018	1781,27
361,273	2550,02
361,529	3468,4
361,784	4423,17
362,04	5262,22
362,295	5950,08
362,55	6476,98
362,806	6879,99
363,061	7185,93
363,316	7384,1
363,572	7504,97
363,827	7576,05
364,082	7609,97
364,338	7630,66
364,593	7642,88
364,848	7649,53
365,104	7653,12
365,359	7658,86
365,614	7662,74
365,869	7661,01
366,124	7660,67
366,38	7659,92
366,635	7663,65
366,89	7663,49
367,145	7660,52
367,4	7658,9
367,655	7651,81
367,91	7642,85
368,165	7617,56
368,42	7525,29
368,675	7191,53
368,93	6626,56
369,185	5856,14
369,44	4940,08
369,695	3987,97
369,95	3148,44
370,205	2458,76
370,46	1930
370,715	1529,7
370,97	1224,29
371,225	1024,51
371,48	906,68
371,734	837,67
371,989	801,73
372,244	780,94
372,499	769,74
372,754	761,25
373,008	754,65
373,263	746,09
373,518	747,18
373,773	744,58
374,027	743,68
374,282	745,36
374,537	745,67
374,791	748,96
375,046	750,53
375,301	755,02
375,555	760,25
375,81	769,94
376,064	781,76
376,319	797,74
376,573	810,17
376,828	817,38
377,082	833,24
377,337	841,11
377,591	847,47
377,846	858,1
378,1	868,99
378,355	877,34
378,609	882,28
378,863	884,8
379,118	891,59
379,372	892,53
379,627	893,22
379,881	892,92
380,135	892,39
380,389	890,8
380,644	889,3
380,898	887,99
381,152	885,96
381,407	879,78
381,661	876,56
381,915	871,4
382,169	864,42
382,423	856,09
382,677	843,38
382,932	832,75
383,186	820,3
383,44	806,64
383,694	790,86
383,948	771,33
384,202	751,02
384,456	732,26
384,71	715,08
384,964	693,91
385,218	675,29
385,472	659,47
385,726	640,38
385,98	623,61
386,234	609,58
386,488	594,56
386,742	586,55
386,996	575,41
387,249	567,24
387,503	560,62
387,757	552,61
388,011	544,44
388,265	534,89
388,518	527,42
388,772	519,56
389,026	512,62
389,28	500,65
389,533	489,76
389,787	485,55
390,041	476,33
390,295	466,89
390,548	459,76
390,802	456,03
391,055	447,54
391,309	439,64
391,563	431,47
391,816	427,24
392,07	420,77
392,323	418,15
392,577	414,9
392,83	412,45
393,084	417,87
393,337	417,38
393,591	415,82
393,844	412,3
394,098	410,33
394,351	410,09
394,604	404,54
394,858	399,7
395,111	394,56
395,364	388,28
395,618	386,77
395,871	382,17
396,124	380,97
396,378	378,56
396,631	378,58
396,884	377,3
397,137	381,42
397,391	387,1
397,644	386,08
397,897	391,11
398,15	398,09
398,403	406,28
398,657	412,76
398,91	421,61
399,163	435,77
399,416	454,14
399,669	483,37
399,922	558,07
400,175	924,66
400,428	2084,95
400,681	3769,19
400,934	5647,47
401,187	7596,85
401,44	9551,73
401,693	11275,53
401,946	12550,86
402,199	13363,47
402,452	13855,7
402,704	14097,81
402,957	14216,41
403,21	14288,86
403,463	14401,75
403,716	14566
403,969	14765,34
404,221	14987,75
404,474	15231,04
404,727	15424,71
404,98	15553,23
405,232	15640,77
405,485	15702,18
405,738	15736,3
405,99	15751,09
406,243	15758,72
406,496	15763,76
406,748	15765,93
407,001	15762,42
407,253	15755,12
407,506	15735,96
407,759	15672,51
408,011	15311,4
408,264	14160,47
408,516	12487,2
408,769	10610,11
409,021	8671,22
409,274	6725,49
409,526	5013,37
409,778	3743,81
410,031	2938,25
410,283	2455,98
410,536	2227,45
410,788	2115,53
411,04	2052,57
411,293	1949,66
411,545	1795,63
411,797	1604,87
412,049	1390,23
412,302	1157,66
412,554	976,31
412,806	854,83
413,058	771,6
413,311	719,53
413,563	691,71
413,815	680,08
414,067	674
414,319	669,93
414,571	666,69
414,823	660,67
415,075	654,3
415,328	649,62
415,58	645,9
415,832	640,31
416,084	634,01
416,336	624,3
416,588	620,52
416,84	610,23
417,091	605,82
417,343	594
417,595	588,28
417,847	582,06
418,099	574,34
418,351	562,68
418,603	557,16
418,855	549,4
419,106	540,5
419,358	531,81
419,61	524,88
419,862	518,89
420,114	507,92
420,365	497,09
420,617	488,64
420,869	477,12
421,12	466,16
421,372	458,13
421,624	451,09
421,875	444,58
422,127	435,3
422,379	432,13
422,63	433,54
422,882	430,7
423,133	429,5
423,385	429,2
423,636	429,69
423,888	431,64
424,139	434,67
424,391	434,26
424,642	433,44
424,894	433,23
425,145	435,35
425,396	435,72
425,648	441,58
425,899	441,97
426,151	446,49
426,402	449,43
426,653	455,29
426,905	459,37
427,156	464,09
427,407	470,24
427,658	477,27
427,91	484,43
428,161	492,93
428,412	505,56
428,663	519,1
428,914	534,14
429,166	549,92
429,417	569,76
429,668	594,38
429,919	628,4
430,17	674,33
430,421	739,23
430,672	840,25
430,923	979,24
431,174	1280,02
431,425	2573,22
431,676	4549,91
431,927	6535,28
432,178	8523,16
432,429	10511,83
432,68	12497,88
432,931	14486,87
433,182	16474,19
433,433	18456,31
433,683	20443,29
433,934	22427,19
434,185	24395,57
434,436	26096,61
434,687	27447,86
434,937	28327,41
435,188	28528
435,439	28584,83
435,69	28632,99
435,94	28668,43
436,191	28695,43
436,442	28717,98
436,692	28733,32
436,943	28744,11
437,194	28746,5
437,444	28743,65
437,695	28732,91
437,945	28704,91
438,196	28653,57
438,447	28568,69
438,697	28441,55
438,948	28150,99
439,198	26865,46
439,449	24893,12
439,699	22913,91
439,949	20934,77
440,2	18952,36
440,45	16972,73
440,701	14990,74
440,951	13008,95
441,201	11027,55
441,452	9043,41
441,702	7059,98
441,952	5094,09
442,203	3391,28
442,453	2038,43
442,703	1160,06
442,953	956,71
443,204	897,1
443,454	843,97
443,704	803,22
443,954	765,92
444,204	736,34
444,455	711,16
444,705	687,84
444,955	667,25
445,205	646,61
445,455	625,96
445,705	608,15
445,955	591,86
446,205	578,68
446,455	565,43
446,705	553,21
446,955	543,17
447,205	536,71
447,455	528,6
447,705	517,15
447,955	508,43
448,205	501,82
448,454	495,1
448,704	490,2
448,954	482,05
449,204	477,81
449,454	472,09
449,704	464,93
449,953	460,96
450,203	460,26
450,453	455,33
450,703	454,22
450,952	450,1
451,202	448,61
451,452	446,21
451,701	446,93
451,951	447,62
452,201	446,27
452,45	442,71
452,7	441,81
452,949	440,67
453,199	437,98
453,448	438,16
453,698	439,78
453,947	435,8
454,197	433,74
454,446	431,25
454,696	434,32
454,945	431,98
455,195	429,71
455,444	430,64
455,693	434,24
455,943	430,57
456,192	430,56
456,442	429,27
456,691	429,59
456,94	427,55
457,189	426,76
457,439	426,86
457,688	428,45
457,937	425,75
458,186	425,22
458,436	422,97
458,685	421,51
458,934	420,88
459,183	420,6
459,432	423,56
459,681	423,9
459,93	422,66
460,179	423,99
460,429	423,3
460,678	429,86
460,927	438,27
461,176	441,69
461,425	446,61
461,674	455,35
461,923	460,96
462,172	464,63
462,42	465,48
462,669	473,04
462,918	479,38
463,167	486,26
463,416	491,63
463,665	505,7
463,914	517,59
464,162	528,1
464,411	537,82
464,66	547,65
464,909	553,38
465,158	560,03
465,406	562,96
465,655	569,3
465,904	573,79
466,152	577,01
466,401	580,95
466,65	585,75
466,898	587,72
467,147	586,07
467,395	590,26
467,644	596,69
467,893	600,83
468,141	606,69
468,39	607,29
468,638	608,23
468,887	610,38
469,135	613,24
469,384	615,68
469,632	621,41
469,88	628,08
470,129	636,81
470,377	637,66
470,626	644,82
470,874	650,84
471,122	655,52
471,371	651,85
471,619	649,63
471,867	651,17
472,115	651,7
472,364	653,84
472,612	661,26
472,86	667,88
473,108	677,63
473,356	686,96
473,605	698,01
473,853	708,91
474,101	722,22
474,349	737,16
474,597	757,89
474,845	777,98
475,093	798,86
475,341	820,58
475,589	850,73
475,837	885,47
476,085	924,93
476,333	968,36
476,581	1020,28
476,829	1078,66
477,077	1149,37
477,325	1228,73
477,573	1321,28
477,821	1424,35
478,069	1544,71
478,317	1686,7
478,564	1850,64
478,812	2038,19
479,06	2258,02
479,308	2511,59
479,555	2804,55
479,803	3147,66
480,051	3534,53
480,299	3962,91
480,546	4443,12
480,794	4965,53
481,042	5542,03
481,289	6180,69
481,537	6879,78
481,784	7646,68
482,032	8486,4
482,28	9386,91
482,527	10357,03
482,775	11365,26
483,022	12431,96
483,27	13508,71
483,517	14608,58
483,765	15724,06
484,012	16810,6
484,259	17885,24
484,507	18930,17
484,754	19947,85
485,002	20922,82
485,249	21830,92
485,496	22692,96
485,744	23523,17
485,991	24290,71
486,238	24995,22
486,486	25647,88
486,733	26259,1
486,98	26801,83
487,227	27282,19
487,474	27712
487,722	28110,13
487,969	28441,52
488,216	28713,54
488,463	28927,7
488,71	29060,59
488,957	29114,79
489,204	29090,38
489,451	28965,82
489,699	28747,86
489,946	28438,88
490,193	28040,53
490,44	27588,76
490,687	27050,2
490,934	26482,77
491,18	25870,49
491,427	25213,29
491,674	24574,63
491,921	23917,27
492,168	23266,76
492,415	22620,36
492,662	21992,39
492,909	21405,17
493,155	20840,72
493,402	20269,45
493,649	19729,6
493,896	19217,06
494,142	18720,51
494,389	18223,37
494,636	17741,76
494,883	17266,45
495,129	16783,79
495,376	16273,19
495,623	15770,53
495,869	15266,08
496,116	14762,17
496,362	14273,3
496,609	13787,69
496,855	13314,82
497,102	12855,19
497,348	12404,12
497,595	11965,88
497,841	11539,11
498,088	11107,08
498,334	10698,56
498,581	10289,33
498,827	9892,89
499,074	9509,83
499,32	9127,83
499,566	8762,48
499,813	8402,22
500,059	8044,51
500,305	7696,68
500,552	7356,23
500,798	7022,03
501,044	6710,12
501,29	6393,82
501,537	6087,89
501,783	5795,11
502,029	5509,18
502,275	5233,67
502,521	4969,44
502,767	4716,58
503,013	4478,81
503,26	4249,75
503,506	4025,94
503,752	3817,04
503,998	3616,36
504,244	3430,16
504,49	3246,53
504,736	3079,51
504,982	2920,86
505,228	2776,69
505,474	2642,7
505,72	2520,97
505,966	2402,09
506,211	2296,41
506,457	2191,22
506,703	2092,72
506,949	2000,61
507,195	1912,68
507,441	1829,82
507,686	1759,33
507,932	1689,93
508,178	1628,11
508,424	1566,72
508,669	1509,01
508,915	1459,46
509,161	1415,65
509,406	1370,59
509,652	1331,42
509,898	1296,97
510,143	1263,46
510,389	1229,32
510,634	1194,08
510,88	1166,89
511,125	1141,33
511,371	1115,22
511,616	1090,23
511,862	1062,58
512,107	1035,73
512,353	1013,43
512,598	990,59
512,844	966,91
513,089	941,53
513,335	921,37
513,58	898,66
513,825	877,89
514,071	856,68
514,316	839,19
514,561	821,38
514,806	801,88
515,052	788,12
515,297	770,77
515,542	757,26
515,787	742,39
516,033	731,89
516,278	717,51
516,523	703,29
516,768	690,2
517,013	675,46
517,258	660,83
517,503	649,03
517,748	637,18
517,993	625,7
518,238	616,06
518,483	604,9
518,728	596,2
518,973	586,43
519,218	580,08
519,463	574,11
519,708	569,75
519,953	562,19
520,198	558,48
520,443	554,05
520,688	551,75
520,933	545,66
521,177	542,35
521,422	537,22
521,667	539,47
521,912	538,15
522,157	536,35
522,401	542,17
522,646	545,44
522,891	551,79
523,135	558,65
523,38	568,09
523,625	575,43
523,869	591,1
524,114	606,83
524,358	620,74
524,603	638,2
524,848	653,9
525,092	669,61
525,337	689,33
525,581	710,04
525,826	732,45
526,07	754,12
526,315	778,4
526,559	800,86
526,803	823,78
527,048	853,8
527,292	882,02
527,537	915,78
527,781	949,12
528,025	983,99
528,269	1027,18
528,514	1078,61
528,758	1141,99
529,002	1223,94
529,247	1334,26
529,491	1467,93
529,735	1634,31
529,979	1811,58
530,223	1998,42
530,467	2180,14
530,712	2356,1
530,956	2521,89
531,2	2686,46
531,444	2844,07
531,688	3004,9
531,932	3167,96
532,176	3346,49
532,42	3538,1
532,664	3754,8
532,908	4000,53
533,152	4292,69
533,396	4631,84
533,64	5038,36
533,884	5513,89
534,128	6067,42
534,371	6696,86
534,615	7399,23
534,859	8149,99
535,103	8963,18
535,347	9847,81
535,59	10833,96
535,834	11922,42
536,078	13180,31
536,322	14608,59
536,565	16229,14
536,809	17967,43
537,053	19774,98
537,296	21582,09
537,54	23381,6
537,784	25176,39
538,027	26972,03
538,271	28772,6
538,514	30580,66
538,758	32392,09
539,001	34204,42
539,245	36014,57
539,488	37821,29
539,732	39611,7
539,975	41389,71
540,219	43143,42
540,462	44865,47
540,706	46539,82
540,949	48164,94
541,192	49723,87
541,436	51211,18
541,679	52622,68
541,922	53956,46
542,166	55211,43
542,409	56420,12
542,652	57560,83
542,895	58628,22
543,139	59593,03
543,382	60444,41
543,625	61119,95
543,868	61613,89
544,111	61896,93
544,354	62030,67
544,598	62073,99
544,841	62084,87
545,084	62087,45
545,327	62087,5
545,57	62087,5
545,813	62087,5
546,056	62087,5
546,299	62087,5
546,542	62087,5
546,785	62087,5
547,028	62087,5
547,271	62087,5
547,514	62087,5
547,756	62087,5
547,999	62087,5
548,242	62087,5
548,485	62087,5
548,728	62087,5
548,971	62087,5
549,213	62087,5
549,456	62087,5
549,699	62087,5
549,942	62087,5
550,184	62087,5
550,427	62087,5
550,67	62087,5
550,912	62087,5
551,155	62087,5
551,398	62087,5
551,64	62087,5
551,883	62087,5
552,125	62087,5
552,368	62087,5
552,61	62087,5
552,853	62043,62
553,095	61797,35
553,338	61452,91
553,58	61104,78
553,823	60751,02
554,065	60396,41
554,308	59920,76
554,55	59245,69
554,792	58525,55
555,035	57802,37
555,277	57074,42
555,519	56342,36
555,762	55606,64
556,004	54868,9
556,246	53887,43
556,488	52785,31
556,731	51503,76
556,973	49895,4
557,215	48047,83
557,457	46197,67
557,699	44340,68
557,941	42475,87
558,183	40609,85
558,426	38742,23
558,668	36868,29
558,91	34994,69
559,152	33117,89
559,394	31237,91
559,636	29355,82
559,878	27473,6
560,12	25581,66
560,362	23737,08
560,604	22086,23
560,845	20532,61
561,087	18976,67
561,329	17427,7
561,571	15876,08
561,813	14442,77
562,055	13205,07
562,297	12011,89
562,538	10817,66
562,78	9630,5
563,022	8442,56
563,264	7259,01
563,505	6077,05
563,747	5138,38
563,989	4319,73
564,23	3681,88
564,472	3372,3
564,714	3305,48
564,955	3240,95
565,197	3180,69
565,438	3128,48
565,68	3080,54
565,921	3029,91
566,163	2983,65
566,404	2932,14
566,646	2882,34
566,887	2833,66
567,129	2781,96
567,37	2724,41
567,612	2675,46
567,853	2619,52
568,094	2572,35
568,336	2523,46
568,577	2480,93
568,818	2437,56
569,06	2392,89
569,301	2351,77
569,542	2315,73
569,783	2281,6
570,025	2252,02
570,266	2222,97
570,507	2199,21
570,748	2176,89
570,989	2159,16
571,23	2143,94
571,472	2132,75
571,713	2124,3
571,954	2123,18
572,195	2128,49
572,436	2162,34
572,677	2299,67
572,918	2703,45
573,159	3359,61
573,4	4200,98
573,641	5184,63
573,882	6235,38
574,123	7173,48
574,364	7914,63
574,604	8584,43
574,845	9288,42
575,086	10168,56
575,327	11180,85
575,568	12276,52
575,809	13437,1
576,049	14611,49
576,29	15697,01
576,531	16707,46
576,771	17697,29
577,012	18663,08
577,253	19593,96
577,494	20449,46
577,734	21219,21
577,975	21926,23
578,215	22625,35
578,456	23325,59
578,697	24052,01
578,937	24810,67
579,178	25598,3
579,418	26414,55
579,659	27250,88
579,899	28097,26
580,14	28860,4
580,38	29367,88
580,62	29629,58
580,861	29711,46
581,101	29624,15
581,342	29465,79
581,582	29399,31
581,822	29514,05
582,063	29684,56
582,303	29806,48
582,543	29740,96
582,783	29570,8
583,024	29387,92
583,264	29278,91
583,504	29321,2
583,744	29602,1
583,984	30050,69
584,224	30538,83
584,465	31012,98
584,705	31395,18
584,945	31724,99
585,185	32012,37
585,425	32257,16
585,665	32391,31
585,905	32439,26
586,145	32376,84
586,385	32211,88
586,625	31986,11
586,865	31694,55
587,105	31359,09
587,345	30998,67
587,585	30636,19
587,824	30291,21
588,064	29964,77
588,304	29673,69
588,544	29473,02
588,784	29372,91
589,024	29401,46
589,263	29570,99
589,503	29869,52
589,743	30268,69
589,982	30703,48
590,222	31104,11
590,462	31368,07
590,701	31404,19
590,941	31185,84
591,181	30700,74
591,42	30046,33
591,66	29281,35
591,899	28478,88
592,139	27736,39
592,378	27073,93
592,618	26500,13
592,857	26011,13
593,097	25624,71
593,336	25307,08
593,576	25067,62
593,815	24890,96
594,055	24755,93
594,294	24662,19
594,533	24607,26
594,773	24579,21
595,012	24596,73
595,251	24642,93
595,491	24737,31
595,73	24859,12
595,969	24977,11
596,208	25041,2
596,447	25029,99
596,687	24867,23
596,926	24568,07
597,165	24139,55
597,404	23641,34
597,643	23086,09
597,882	22535,82
598,121	22018,3
598,36	21531,68
598,599	21112,81
598,838	20726,33
599,077	20398,7
599,316	20116,92
599,555	19872,56
599,794	19662,08
600,033	19480,57
600,272	19317,42
600,511	19162,26
600,75	19029,73
600,989	18906,25
601,228	18786,76
601,466	18665,89
601,705	18532,98
601,944	18390,45
602,183	18217,34
602,422	17994,5
602,66	17727,96
602,899	17409,89
603,138	17052,71
603,376	16662,28
603,615	16264,99
603,854	15869,17
604,092	15546,94
604,331	15306,64
604,569	15169,6
604,808	15151,74
605,047	15298,98
605,285	15607,8
605,524	16118,87
605,762	16847,64
606	17850,16
606,239	19124,57
606,477	20605,97
606,716	22179,42
606,954	23793,26
607,193	25426,9
607,431	27069,25
607,669	28713,34
607,908	30363,25
608,146	32002,64
608,384	33636,94
608,622	35271,35
608,861	36893,25
609,099	38514,27
609,337	40119,93
609,575	41715,97
609,813	43300,55
610,052	44871,63
610,29	46417,85
610,528	47939,31
610,766	49436,28
611,004	50902,31
611,242	52335,76
611,48	53724
611,718	55058,41
611,956	56338,66
612,194	57546,22
612,432	58655,87
612,67	59664,85
612,908	60530,57
613,146	61236,69
613,384	61717,81
613,621	61976,14
613,859	62059,46
614,097	62079,15
614,335	62086,51
614,573	62087,5
614,811	62087,5
615,048	62087,5
615,286	62087,5
615,524	62087,5
615,761	62087,5
615,999	62087,5
616,237	62087,5
616,474	62087,5
616,712	62087,5
616,95	62087,5
617,187	62087,5
617,425	62087,5
617,662	62087,5
617,9	62087,5
618,137	62087,5
618,375	62087,5
618,612	62087,5
618,85	62087,5
619,087	62087,5
619,325	62087,5
619,562	62087,5
619,799	62087,5
620,037	62087,5
620,274	62085,04
620,511	61890,61
620,749	61641,54
620,986	61392,59
621,223	61141,82
621,461	60891,91
621,698	60643,5
621,935	60324,73
622,172	59897,14
622,409	59421,33
622,647	58943,88
622,884	58465,8
623,121	57990,09
623,358	57508,9
623,595	57026,4
623,832	56524,9
624,069	55968,82
624,306	55255,24
624,543	54529,51
624,78	53570,45
625,017	52505,81
625,254	51325,61
625,491	50130,11
625,728	48931,57
625,965	47746,29
626,202	46574,8
626,438	45440,59
626,675	44384,01
626,912	43427,18
627,149	42593,04
627,386	41888,78
627,622	41272,2
627,859	40890,28
628,096	40560,15
628,333	40146,4
628,569	39628,51
628,806	38965,64
629,043	38166,75
629,279	37313,32
629,516	36448,37
629,752	35519,16
629,989	34499,69
630,225	33396,27
630,462	32232,42
630,699	31024,22
630,935	29784,85
631,171	28533,42
631,408	27319,26
631,644	26244,4
631,881	25172,22
632,117	24326,95
632,354	23581,74
632,59	22943,81
632,826	22316,35
633,063	21683,46
633,299	21032,31
633,535	20359,12
633,771	19646,79
634,008	18856,58
634,244	17961,6
634,48	16938,03
634,716	15781,05
634,953	14532,65
635,189	13239,82
635,425	11951,1
635,661	10740,28
635,897	9628,25
636,133	8661,65
636,369	7825,26
636,605	7109,45
636,841	6515,23
637,077	6034,49
637,313	5642,65
637,549	5333,92
637,785	5084,97
638,021	4884,31
638,257	4714,65
638,493	4579,39
638,729	4458,15
638,965	4357,28
639,2	4267,44
639,436	4181,16
639,672	4103,19
639,908	4032,7
640,144	3972,73
640,379	3917,64
640,615	3866,62
640,851	3828,22
641,086	3791,19
641,322	3751,78
641,558	3717,73
641,793	3690,83
642,029	3664,4
642,264	3643,48
642,5	3623,94
642,736	3599,44
642,971	3585,97
643,207	3572,47
643,442	3558,07
643,678	3548,97
643,913	3541,99
644,148	3535
644,384	3530,82
644,619	3525,82
644,855	3525,1
645,09	3520,84
645,325	3524,07
645,561	3533,53
645,796	3546,39
646,031	3579,1
646,266	3632,53
646,502	3722,45
646,737	3865,34
646,972	4049,19
647,207	4271,71
647,442	4518,93
647,678	4772,67
647,913	5012,71
648,148	5226,55
648,383	5413,31
648,618	5582,16
648,853	5723,56
649,088	5855,69
649,323	5974,29
649,558	6084,1
649,793	6186,91
650,028	6289,44
650,263	6375,42
650,498	6461,76
650,733	6531,5
650,968	6592,36
651,202	6647,65
651,437	6689,08
651,672	6717,99
651,907	6743,97
652,142	6763,35
652,376	6778
652,611	6782,26
652,846	6777,31
653,081	6762,42
653,315	6728,34
653,55	6672,62
653,785	6580,91
654,019	6444,65
654,254	6267,56
654,488	6059,68
654,723	5819,52
654,958	5575,06
655,192	5343,21
655,427	5128,24
655,661	4935,24
655,896	4759,41
656,13	4604,54
656,364	4446,9
656,599	4301,19
656,833	4172,93
657,068	4040,58
657,302	3906,88
657,536	3781,45
657,771	3667,75
658,005	3575,19
658,239	3507,49
658,474	3468,08
658,708	3470,65
658,942	3510,99
659,176	3574,4
659,41	3657,21
659,645	3751,15
659,879	3844,59
660,113	3925,55
660,347	3997,05
660,581	4056,48
660,815	4103,65
661,049	4134,3
661,283	4144,86
661,517	4138,02
661,751	4114,87
661,985	4083,1
662,219	4046,84
662,453	4007,86
662,687	3973,28
662,921	3937,22
663,155	3908,23
663,389	3879,33
663,622	3861,88
663,856	3851,56
664,09	3832,92
664,324	3826,65
664,558	3824,93
664,791	3822,45
665,025	3817,7
665,259	3805,89
665,492	3776,06
665,726	3725,79
665,96	3642,95
666,193	3529,88
666,427	3400,58
666,661	3253,07
666,894	3100,06
667,128	2953,54
667,361	2824,65
667,595	2705,07
667,828	2598,3
668,062	2504,33
668,295	2422,76
668,529	2358,85
668,762	2307,01
668,995	2262,75
669,229	2232,92
669,462	2204,36
669,695	2179,13
669,929	2152,78
670,162	2130,8
670,395	2106,3
670,629	2086,92
670,862	2066,2
671,095	2039,95
671,328	2016,65
671,561	1989,15
671,795	1964,35
672,028	1941,02
672,261	1916,49
672,494	1893,52
672,727	1868,02
672,96	1846,57
673,193	1824
673,426	1805,18
673,659	1785,28
673,892	1763,7
674,125	1743,59
674,358	1722,87
674,591	1702,1
674,824	1684,75
675,057	1668,43
675,29	1652,89
675,523	1641,59
675,755	1627,43
675,988	1617,08
676,221	1612,05
676,454	1602,71
676,687	1600,35
676,919	1599,11
677,152	1600,77
677,385	1606,76
677,617	1614,79
677,85	1621,74
678,083	1628,16
678,315	1638,37
678,548	1643,44
678,78	1651,82
679,013	1658,08
679,246	1665,45
679,478	1671,32
679,711	1673,44
679,943	1681,47
680,175	1684,27
680,408	1692,36
680,64	1692,68
680,873	1696,93
681,105	1704,57
681,338	1715,66
681,57	1722,56
681,802	1730,74
682,034	1739,7
682,267	1753,24
682,499	1766,52
682,731	1781,99
682,964	1804,05
683,196	1835,51
683,428	1877,74
683,66	1937,16
683,892	2019,49
684,124	2115,95
684,356	2229,94
684,589	2353,25
684,821	2475,2
685,053	2598,44
685,285	2717,73
685,517	2825,77
685,749	2918,4
685,981	2996,31
686,213	3057,99
686,445	3109,14
686,676	3145,68
686,908	3174,71
687,14	3192
687,372	3205,21
687,604	3211,13
687,836	3218,24
688,068	3218,31
688,299	3210,66
688,531	3197,44
688,763	3189,35
688,995	3172,25
689,226	3161,03
689,458	3148,85
689,69	3146,87
689,921	3154,54
690,153	3178,92
690,384	3210,43
690,616	3237,66
690,848	3252,83
691,079	3237,02
691,311	3196,19
691,542	3122,09
691,774	3024,29
692,005	2917,5
692,237	2803,07
692,468	2679,21
692,699	2560,71
692,931	2454,1
693,162	2354,93
693,393	2271,18
693,625	2196,03
693,856	2134,43
694,087	2082,09
694,319	2035,1
694,55	1991,36
694,781	1951,25
695,012	1914,03
695,243	1880,04
695,475	1854,43
695,706	1830,56
695,937	1807,07
696,168	1787,09
696,399	1760,76
696,63	1731,79
696,861	1689,99
697,092	1640,71
697,323	1567,38
697,554	1475,07
697,785	1371,63
698,016	1265,64
698,247	1164,04
698,478	1076,15
698,709	1005,68
698,94	947,93
699,171	900,35
699,401	860,46
699,632	839,09
699,863	824,75
700,094	821,27
700,325	829,91
700,555	847,62
700,786	871,28
701,017	903,8
701,247	942,2
701,478	992,22
701,709	1053,75
701,939	1126,37
702,17	1219,31
702,401	1333,19
702,631	1473,64
702,862	1647,51
703,092	1859,83
703,323	2120,27
703,553	2422,12
703,784	2754,17
704,014	3111,84
704,244	3464,51
704,475	3812,07
704,705	4149,89
704,936	4480,12
705,166	4822,39
705,396	5196,93
705,627	5601,49
705,857	6025,79
706,087	6454,42
706,317	6866,82
706,548	7232,38
706,778	7544,55
707,008	7805,42
707,238	8020,5
707,468	8197,94
707,698	8347,93
707,928	8480,69
708,158	8613,22
708,389	8765,21
708,619	8941,47
708,849	9148,97
709,079	9385
709,309	9621,49
709,539	9839,24
709,768	10008,69
709,998	10119,65
710,228	10148,57
710,458	10094,31
710,688	9960,38
710,918	9762,01
711,148	9510,17
711,378	9231,28
711,607	8935,92
711,837	8637,65
712,067	8333,63
712,297	8006,12
712,526	7641,38
712,756	7240,42
712,986	6809,54
713,215	6372,71
713,445	5949,32
713,674	5571,08
713,904	5241,15
714,134	4961,93
714,363	4720,43
714,593	4510
714,822	4318,77
715,052	4141,59
715,281	3958,36
715,511	3749,35
715,74	3510,93
715,969	3228,64
716,199	2911,62
716,428	2574,38
716,657	2234,56
716,887	1919,19
717,116	1625,32
717,345	1374,42
717,575	1161,56
717,804	986,19
718,033	843,19
718,262	729,27
718,492	641,43
718,721	576,35
718,95	524,07
719,179	484,11
719,408	455,97
719,637	430,75
719,866	410,46
720,095	399,71
720,324	386,98
720,553	371,69
720,782	361,45
721,011	353,27
721,24	344,88
721,469	338,56
721,698	333,76
721,927	329,68
722,156	322,32
722,385	316,74
722,613	316,85
722,842	312,27
723,071	311,76
723,3	308,17
723,529	304,58
723,757	301,83
723,986	296,62
724,215	294,38
724,443	295,32
724,672	296,26
724,901	294,97
725,129	295,75
725,358	297,9
725,586	293,07
725,815	290,39
726,043	287,72
726,272	285,17
726,5	282,94
726,729	282,81
726,957	277,69
727,186	273,81
727,414	274,24
727,642	275,31
727,871	274,08
728,099	272,57
728,327	269,03
728,556	268,13
728,784	267,05
729,012	261,97
729,241	264
729,469	261,56
729,697	256,3
729,925	255,1
730,153	251,89
730,381	247,71
730,61	243,63
730,838	237,24
731,066	233,8
731,294	229,48
731,522	220,61
731,75	211,49
731,978	207,18
732,206	201,34
732,434	193,85
732,662	191,84
732,89	185,72
733,118	181,08
733,346	177,52
733,573	174,29
733,801	170,22
734,029	175,04
734,257	173,13
734,485	175,84
734,712	179,3
734,94	182,18
735,168	191,68
735,396	200,08
735,623	208,21
735,851	215,81
736,078	224,76
736,306	228,74
736,534	229,01
736,761	230,95
736,989	230,6
737,216	231,06
737,444	230,83
737,671	233,22
737,899	241,31
738,126	242,66
738,354	246,61
738,581	252,29
738,809	258,56
739,036	262,1
739,263	269,55
739,491	277,38
739,718	286,84
739,945	302,26
740,173	314,43
740,4	322,96
740,627	329,24
740,854	335,89
741,081	337,15
741,309	337,92
741,536	333,94
741,763	330,71
741,99	327,41
742,217	319,22
742,444	308,92
742,671	300,89
742,898	292,03
743,125	283,29
743,352	275,89
743,579	276,09
743,806	274,84
744,033	277,33
744,26	278,21
744,487	277,99
744,714	276,84
744,941	273,1
745,167	274,32
745,394	269,64
745,621	264,34
745,848	258,98
746,075	254,49
746,301	249,66
746,528	245,95
746,755	236,87
746,981	234,47
747,208	235,67
747,435	242,4
747,661	248,83
747,888	259,7
748,114	267,01
748,341	281,29
748,567	294,8
748,794	302,99
749,02	309,76
749,247	311,96
749,473	316,26
749,7	318,36
749,926	319,07
750,152	324,86
750,379	325,3
750,605	323,53
750,831	320,04
751,058	313,83
751,284	308,57
751,51	308,39
751,737	306,97
751,963	303,14
752,189	298,77
752,415	295,93
752,641	292,92
752,867	291,12
753,094	287,67
753,32	283,69
753,546	278
753,772	275,98
753,998	263,72
754,224	250,9
754,45	235,42
754,676	219,34
754,902	199,95
755,128	183,57
755,354	165,62
755,579	149,15
755,805	135,96
756,031	121,84
756,257	112,61
756,483	102,92
756,709	93,44
756,934	88,66
757,16	79,97
757,386	76,22
757,612	70,98
757,837	66,83
758,063	67,33
758,289	68,37
758,514	64,34
758,74	60,41
758,965	56,16
759,191	57,54
759,416	60,66
759,642	68,75
759,868	81,57
760,093	104,97
760,318	129,74
760,544	158,16
760,769	185,99
760,995	211,04
761,22	228,1
761,445	243,51
761,671	256,09
761,896	268,06
762,121	277,37
762,347	282,61
762,572	284,3
762,797	289,18
763,022	293,32
763,248	299,01
763,473	302,05
763,698	301,39
763,923	302,18
764,148	303,63
764,373	303,43
764,598	305,28
764,823	308,21
765,048	304,66
765,273	300,97
765,498	300,57
765,723	301,02
765,948	304,09
766,173	302,26
766,398	300,83
766,623	291,92
766,848	277,37
767,073	254,19
767,298	227,94
767,522	198,36
767,747	170,69
767,972	145,26
768,197	127,72
768,421	112,54
768,646	101,6
768,871	95,72
769,095	95,37
769,32	101,96
769,545	109,23
769,769	117,46
769,994	124,85
770,218	127,42
770,443	132,03
770,667	138,21
770,892	141,21
771,116	141,49
771,341	146,27
771,565	148,72
771,79	149,35
772,014	148,83
772,238	148,52
772,463	152,13
772,687	152,59
772,911	150,98
773,136	149,37
773,36	149,9
773,584	151,67
773,808	149,56
774,033	149,64
774,257	149,22
774,481	148,02
774,705	145,39
774,929	145,2
775,153	143,14
775,377	142,88
775,602	138,25
775,826	132,98
776,05	126,97
776,274	114,71
776,498	102,6
776,722	88,43
776,945	79,49
777,169	70,97
777,393	64,85
777,617	59,04
777,841	55,78
778,065	53,73
778,289	48,63
778,512	43,71
778,736	42,06
778,96	42,26
779,184	43,92
779,407	41,62
779,631	40,5
779,855	39,12
780,078	40,18
780,302	36,71
780,526	33,81
780,749	34,42
780,973	34,67
781,196	35,38
781,42	33,33
781,643	34,46
781,867	34,37
782,09	32,82
782,314	32,91
782,537	33,57
782,76	31,59
782,984	32,08
783,207	30,67
783,431	30,72
783,654	30,75
783,877	27,92
784,1	26,89
784,324	25,38
784,547	25,05
784,77	20,6
784,993	19,25
785,216	19,14
785,44	20,92
785,663	19,68
785,886	22,18
786,109	20,54
786,332	19,84
786,555	21,35
786,778	24,78
787,001	24,77
787,224	27,89
787,447	27,97
787,67	30,76
787,893	31,18
788,116	31,49
788,339	33,46
788,561	32,43
788,784	29,14
789,007	27,67
789,23	24,87
789,453	25,22
789,675	24,22
789,898	20,46
790,121	18,32
790,344	17,69
790,566	17,97
790,789	20,16
791,012	23,09
791,234	31,73
791,457	40,14
791,679	48,65
791,902	57,46
792,124	63,18
792,347	67,3
792,569	70,6
792,792	68,62
793,014	74,96
793,237	78,06
793,459	79,6
793,681	80,07
793,904	79,97
794,126	78,75
794,348	80,4
794,571	81,75
794,793	80,07
795,015	81,04
795,237	80,91
795,46	81,85
795,682	82,83
795,904	86,34
796,126	85,95
796,348	85,61
796,57	90,33
796,792	92,87
797,014	100,35
797,237	105,92
797,459	113,34
797,681	120,1
797,903	125,31
798,124	128,99
798,346	145,75
798,568	149,66
798,79	153,57
799,012	156,43
799,234	157,18
799,456	159,71
799,678	163,68
799,899	160,62
800,121	160,01
800,343	159,85
800,565	160,83
800,786	161,57
801,008	163,81
801,23	164,06
801,451	164,63
801,673	164,06
801,895	163,51
802,116	166,55
802,338	168,71
802,559	170,03
802,781	168,39
803,002	172,02
803,224	174,33
803,445	170,51
803,667	171,13
803,888	166,69
804,109	163,28
804,331	157,84
804,552	151,63
804,773	144,92
804,995	133,03
805,216	108,06
805,437	96,86
805,658	85,52
805,88	75,49
806,101	72,12
806,322	67,78
806,543	65,74
806,764	65,39
806,985	70
807,207	77,16
807,428	86,24
807,649	95,38
807,87	111,81
808,091	135,08
808,312	159,85
808,533	191,53
808,754	217,16
808,975	234,97
809,195	251,1
809,416	262,69
809,637	273,6
809,858	279,1
810,079	283,12
810,3	290,44
810,52	293,94
810,741	295,97
810,962	297,5
811,183	297,82
811,403	299,11
811,624	300,07
811,845	302,05
812,065	305,03
812,286	305,53
812,506	304,97
812,727	306,09
812,948	305,92
813,168	307,69
813,389	303,39
813,609	301,2
813,83	293,92
814,05	283,69
814,27	273,02
814,491	263,92
814,711	242,88
814,931	216,54
815,152	190,93
815,372	160,31
815,592	134,5
815,813	112,27
816,033	95,06
816,253	84,43
816,473	71,55
816,694	64,09
816,914	58,65
817,134	53,91
817,354	46,57
817,574	43,09
817,794	40,68
818,014	38,63
818,234	36,22
818,454	33,78
818,674	31,04
818,894	26,72
819,114	29,73
819,334	30,79
819,554	33,57
819,774	35,69
819,994	32,87
820,214	33,74
820,433	33,6
820,653	32,42
820,873	34,21
821,093	34,66
821,312	31,88
821,532	34,59
821,752	37,69
821,972	35,11
822,191	38,38
822,411	36,86
822,63	38,67
822,85	40,13
823,07	38,35
823,289	43,07
823,509	43,4
823,728	47,68
823,948	46,05
824,167	47,66
824,387	49
824,606	50,64
824,825	49,56
825,045	50,91
825,264	51
825,483	52,84
825,703	55,57
825,922	52,75
826,141	50,99
826,361	49,7
826,58	44,56
826,799	42,75
827,018	44,41
827,237	44,56
827,456	47,43
827,676	48,29
827,895	48,09
828,114	49,89
828,333	50,39
828,552	48,94
828,771	50,74
828,99	47,24
829,209	47,62
829,428	49,03
829,647	47,1
829,866	46,18
830,084	42,93
830,303	41,73
830,522	38,27
830,741	36,92
830,96	36,62
831,179	34,34
831,397	32,5
831,616	31,96
831,835	29,84
832,053	30,03
832,272	30,87
832,491	30,88
832,709	31,21
832,928	31,04
833,147	31,27
833,365	33,46
833,584	36,18
833,802	37,84
834,021	37,78
834,239	37,13
834,458	36,13
834,676	31,36
834,894	29,93
835,113	28,86
835,331	29,21
835,55	27,42
835,768	27,93
835,986	28,26
836,204	25,54
836,423	26,62
836,641	27,14
836,859	26,84
837,077	30,53
837,296	32,7
837,514	37,52
837,732	39,37
837,95	43,61
838,168	50,61
838,386	54,95
838,604	63,26
838,822	69,54
839,04	75,77
839,258	84,76
839,476	93,39
839,694	102,2
839,912	106,51
840,13	110,91
840,348	118,35
840,566	118,22
840,783	122,56
841,001	124,53
841,219	126,66
841,437	130,95
841,655	133,73
841,872	133,99
842,09	134,65
842,308	136,61
842,525	136,11
842,743	137,88
842,961	136,69
843,178	134,16
843,396	137,17
843,613	137,21
843,831	135,19
844,048	131,98
844,266	126,75
844,483	123,44
844,701	118,1
844,918	112,29
845,136	106,63
845,353	99,4
845,57	93,85
845,788	88,73
846,005	78,21
846,222	68,97
846,439	63,9
846,657	57,48
846,874	52,61
847,091	46,52
847,308	45
847,526	40,51
847,743	36,95
847,96	34,15
848,177	32,87
848,394	31,73
848,611	32,08
848,828	31,54
849,045	31,74
849,262	33,9
849,479	34,97
849,696	36,23
849,913	33,72
850,13	29,14
850,347	33,11
850,564	33,47
850,78	32,56
850,997	31,4
851,214	30,9
851,431	32,88
851,647	29,94
851,864	31,62
852,081	33,76
852,298	29,89
852,514	28,45
852,731	30,2
852,948	32,04
853,164	29,73
853,381	29,59
853,597	28,27
853,814	25,27
854,03	21,63
854,247	23,44
854,463	24,39
854,68	22,95
854,896	24,32
855,113	23,74
855,329	22,79
855,545	22,43
855,762	20,22
855,978	15,43
856,194	11,9
856,411	15,61
856,627	18,5
856,843	19,5
857,059	21,38
857,275	17,41
857,492	18,45
857,708	23,15
857,924	23,98
858,14	25,78
858,356	24,68
858,572	24,76
858,788	22,5
859,004	25,86
859,22	23,83
859,436	23,98
859,652	22,05
859,868	22,33
860,084	23,31
860,3	24
860,516	24,14
860,731	25,04
860,947	22,37
861,163	23,18
861,379	24,9
861,595	25,67
861,81	27,18
862,026	28,32
862,242	29,66
862,457	29,75
862,673	32,17
862,889	31,84
863,104	28,96
863,32	29,91
863,535	31,01
863,751	25,24
863,966	30,21
864,182	32,58
864,397	29,7
864,613	29,05
864,828	27,44
865,044	31,22
865,259	32,97
865,474	33,66
865,69	33,5
865,905	34,66
866,12	32,4
866,336	32,58
866,551	33,74
866,766	31,88
866,981	30,09
867,196	30,27
867,412	30,98
867,627	31,11
867,842	30,42
868,057	28,27
868,272	27
868,487	24,98
868,702	21,97
868,917	19,88
869,132	22,1
869,347	23,73
869,562	23,29
869,777	23,54
869,992	21,99
870,207	20,57
870,422	19,84
870,636	17,76
870,851	15,41
871,066	13,59
871,281	14,18
871,495	12,36
871,71	13,72
871,925	10,63
872,14	8,43
872,354	6,63
872,569	5,88
872,783	9,6
872,998	9,25
873,213	8,25
873,427	11,9
873,642	14,41
873,856	13,99
874,071	13,83
874,285	13,86
874,5	11,17
874,714	11,7
874,928	9,96
875,143	8,07
875,357	8,63
875,571	8,08
875,786	6,36
876	8,26
876,214	9,62
876,429	6,67
876,643	9,62
876,857	11,69
877,071	13,63
877,285	11,5
877,499	8,5
877,714	12,51
877,928	15,71
878,142	15,77
878,356	12,41
878,57	13,84
878,784	16,11
878,998	16,59
879,212	19,23
879,426	14,65
879,639	16,08
879,853	14,62
880,067	13,65
880,281	12,59
880,495	14,39
880,709	17,99
880,922	18,99
881,136	21,51
881,35	23,31
881,564	23,71
881,777	21,9
881,991	22,66
882,205	26,23
882,418	26,79
882,632	23,58
882,845	22,75
883,059	24,27
883,273	22,64
883,486	19,37
883,7	21,21
883,913	20,55
884,126	21,97
884,34	16,74
884,553	13,1
884,767	15,78
884,98	17,17
885,193	16,6
885,407	15,05
885,62	16,23
885,833	15,12
886,046	17,13
886,26	16,44
886,473	15,48
886,686	15,35
886,899	17,37
887,112	16,18
887,326	12
887,539	11,73
887,752	13,06
887,965	10,49
888,178	11,93
888,391	14,36
888,604	15,83
888,817	13,5
889,03	14,34
889,243	13,73
889,455	12,21
889,668	12,77
889,881	14,65
890,094	15,51
890,307	13,57
890,52	16,81
890,732	18,58
890,945	19,88
891,158	21,3
891,37	20,21
891,583	19,62
891,796	21,21
892,008	19,65
892,221	18,59
892,434	15,75
892,646	14,91
892,859	13,99
893,071	16,78
893,284	17
893,496	14,84
893,709	15,78
893,921	16,86
894,133	16,59
894,346	16,04
894,558	16,31
894,771	15,92
894,983	17,71
895,195	17,12
895,407	17,25
895,62	14,17
895,832	14,61
896,044	17,09
896,256	15,36
896,468	13,92
896,681	14,94
896,893	15,25
897,105	14,31
897,317	12,76
897,529	14,54
897,741	13,21
897,953	15,11
898,165	14,23
898,377	11,6
898,589	14,15
898,801	13,28
899,013	16,63
899,224	19,66
899,436	21,35
899,648	20,26
899,86	19,58
900,072	22,01
900,283	22,4
900,495	24,29
900,707	25,42
900,919	21,72
901,13	23,23
901,342	20,87
901,554	19,71
901,765	20,03
901,977	18,44
902,188	18,63
902,4	16,96
902,611	16,05
902,823	16,12
903,034	14,55
903,246	14,09
903,457	13,72
903,669	11,84
903,88	12,73
904,091	12,47
904,303	13,84
904,514	11,87
904,725	14,87
904,936	17,55
905,148	17,18
905,359	20,2
905,57	18,79
905,781	17,28
905,992	17
906,204	17,12
906,415	18,05
906,626	16,17
906,837	18,65
907,048	18,66
907,259	17,06
907,47	16,82
907,681	15,34
907,892	19,11
908,103	17,79
908,314	15,3
908,525	17,84
908,735	17,95
908,946	17,44
909,157	15,48
909,368	19,37
909,579	21,37
909,789	20,52
910	20,16
910,211	24,57
910,421	24,7
910,632	27,06
910,843	24,79
911,053	28,38
911,264	28,91
911,475	27,89
911,685	28,49
911,896	29,42
912,106	29,94
912,317	26,64
912,527	28,74
912,737	27,86
912,948	27,6
913,158	28,53
913,369	24,81
913,579	26,24
913,789	27,59
914	32,79
914,21	33,42
914,42	31,47
914,63	31,61
914,841	32,58
915,051	33,4
915,261	34,02
915,471	37,91
915,681	38,73
915,891	35,96
916,101	32,86
916,311	32,7
916,521	32,47
916,731	31,74
916,941	33,47
917,151	30,71
917,361	34,72
917,571	29,25
917,781	27,46
917,991	23,33
918,201	22,07
918,411	18,05
918,621	17,52
918,83	19,13
919,04	16,33
919,25	18,05
919,46	19,99
919,669	17,51
919,879	17,35
920,089	15,36
920,298	13,86
920,508	12,5
920,717	13,06
920,927	11,9
921,136	11,72
921,346	10,52
921,555	7,79
921,765	8,98
921,974	5,83
922,184	3,12
922,393	4,13
922,603	4,26
922,812	6,83
923,021	5,96
923,23	3,99
923,44	0,89
923,649	-0,06
923,858	-3,22
924,067	-2,51
924,277	-5,2
924,486	-0,9
924,695	-0,87
924,904	0,62
925,113	0,22
925,322	0,74
925,531	0,41
925,74	-1,21
925,949	-3,06
926,158	-1,61
926,367	-2,19
926,576	-1,17
926,785	-0,89
926,994	-2,53
927,203	-0,59
927,412	-0,38
927,621	-0,93
927,83	0,89
928,038	1,15
928,247	0,86
928,456	2,35
928,665	5,53
928,873	6,48
929,082	7,64
929,291	8,23
929,499	9,28
929,708	8,14
929,916	9,35
930,125	10,69
930,333	11,68
930,542	15,19
930,75	18,37
930,959	18,75
931,167	18,73
931,376	18,99
931,584	20,87
931,793	22,28
932,001	22,69
932,209	21,35
932,418	18,23
932,626	16,74
932,834	15,54
933,042	11,1
933,251	9,54
933,459	9,83
933,667	7,79
933,875	7,42
934,083	10,21
934,291	11,05
934,499	12,71
934,707	12,95
934,915	11,92
935,123	13,47
935,331	11,74
935,539	11,85
935,747	9,23
935,955	9,11
936,163	8,93
936,371	8,69
936,579	10,9
936,787	10,54
936,995	7,13
937,202	3,85
937,41	2,38
937,618	0,98
937,826	0,32
938,033	-4,67
938,241	-7,04
938,449	-4,23
938,656	-1,38
938,864	-0,02
939,071	-0,22
939,279	2,97
939,486	6,44
939,694	6,62
939,901	4,2
940,109	5,05
940,316	5,9
940,524	4,37
940,731	2,52
940,939	3,68
941,146	2,83
941,353	3,13
941,561	2,18
941,768	1,76
941,975	1,26
942,182	0,73
942,39	0,82
942,597	5,06
942,804	4,63
943,011	1,59
943,218	2,01
943,425	3,91
943,632	6,3
943,839	5,59
944,046	6,69
944,253	6,44
944,46	7,53
944,667	10,79
944,874	9,76
945,081	11,44
945,288	12,25
945,495	15,46
945,702	15,35
945,909	13,49
946,115	15,58
946,322	14,84
946,529	12,89
946,736	13,4
946,942	14,93
947,149	13,45
947,356	10,58
947,562	8,42
947,769	8,35
947,976	7,65
948,182	9,37
948,389	7,91
948,595	9,4
948,802	10,43
949,008	7,33
949,215	8,11
949,421	8,43
949,628	6,77
949,834	5,54
950,04	3,63
950,247	7,96
950,453	8,97
950,659	8,5
950,865	10,11
951,072	6,33
951,278	8,12
951,484	5,62
951,69	2,35
951,896	0,58
952,103	-0,39
952,309	0,19
952,515	-0,17
952,721	2,88
952,927	3,98
953,133	2,56
953,339	1,65
953,545	2,2
953,751	2,86
953,957	5,96
954,163	2,64
954,369	3,12
954,574	1,37
954,78	2,8
954,986	3,75
955,192	5,31
955,398	5,23
955,603	3,12
955,809	3,94
956,015	5,33
956,22	5,75
956,426	7,81
956,632	4,04
956,837	2,98
957,043	3,24
957,248	5,81
957,454	6,19
957,66	2,21
957,865	1,28
958,07	3,59
958,276	1,86
958,481	0,38
958,687	-1,07
958,892	-1,48
959,097	-1,12
959,303	0,1
959,508	-1,22
959,713	-2,76
959,919	-2,97
960,124	-3,16
960,329	-3,65
960,534	1,65
960,739	1,67
960,945	2,63
961,15	1,66
961,355	-0,8
961,56	-5,65
961,765	-7,37
961,97	-6,4
962,175	-4,46
962,38	-8,37
962,585	-8,1
962,79	-10,53
962,995	-10,31
963,2	-11,76
963,404	-11,34
963,609	-15,04
963,814	-15,58
964,019	-16,41
964,224	-18,77
964,428	-17,52
964,633	-15,61
964,838	-13,33
965,042	-12,37
965,247	-13,81
965,452	-14,85
965,656	-13,47
965,861	-11,31
966,066	-12,62
966,27	-9,68
966,475	-6
966,679	-9,22
966,884	-10,31
967,088	-11,76
967,292	-12,03
967,497	-10,31
967,701	-9,41
967,906	-6,53
968,11	-3,41
968,314	-0,07
968,518	-0,74
968,723	3
968,927	5,28
969,131	7,48
969,335	9,08
969,539	9,52
969,744	11,26
969,948	14,55
970,152	16,26
970,356	16,53
970,56	18,16
970,764	17,55
970,968	20,56
971,172	21,15
971,376	22,93
971,58	24,93
971,784	25,52
971,988	23,22
972,192	25,08
972,395	26,05
972,599	23,54
972,803	21,08
973,007	22,88
973,21	24,12
973,414	24
973,618	23,71
973,822	22,87
974,025	22,49
974,229	21,05
974,432	17,32
974,636	14,8
974,84	14,76
975,043	13,73
975,247	10,69
975,45	8,35
975,654	9,28
975,857	12,05
976,06	11,02
976,264	8,65
976,467	9,35
976,671	10,11
976,874	11,08
977,077	10,37
977,28	8,23
977,484	4,37
977,687	2,89
977,89	4,76
978,093	4,18
978,297	3,08
978,5	1,91
978,703	2,55
978,906	3,95
979,109	3,05
979,312	3,94
979,515	2,08
979,718	1,11
979,921	0,98
980,124	0,29
980,327	0,26
980,53	0,55
980,733	2,9
980,936	5,31
981,138	3,73
981,341	5,13
981,544	6,2
981,747	6,84
981,949	5,02
982,152	5,33
982,355	4,93
982,558	8,82
982,76	6,06
982,963	5,55
983,165	5,75
983,368	5,61
983,571	4,43
983,773	8,16
983,976	8,92
984,178	8,66
984,381	9,31
984,583	8,33
984,785	8,07
984,988	11,3
985,19	12,85
985,392	11,66
985,595	8,48
985,797	9,52
985,999	13,66
986,202	16,74
986,404	15,64
986,606	18,68
986,808	18,3
987,01	20,28
987,212	18,04
987,415	16,11
987,617	16,31
987,819	15,01
988,021	14,68
988,223	12,57
988,425	9,47
988,627	8,63
988,829	2,89
989,031	4,78
989,232	3,74
989,434	5,55
989,636	6,22
989,838	7,08
990,04	8,46
990,242	7,9
990,443	5,06
990,645	6,36
990,847	9,45
991,048	10,19
991,25	7,88
991,452	7,38
991,653	7,96
991,855	9,42
992,057	8,23
992,258	7,97
992,46	6,23
992,661	6,73
992,863	4,25
993,064	4,09
993,265	2,52
993,467	0,69
993,668	2,81
993,87	3,66
994,071	2,94
994,272	4,13
994,473	7,14
994,675	9,9
994,876	10,19
995,077	11,4
995,278	11,65
995,48	13,03
995,681	10,66
995,882	12,08
996,083	10,67
996,284	6,25
996,485	5,2
996,686	4,72
996,887	3,4
997,088	-0,3
997,289	-2,86
997,49	-3,42
997,691	-4,5
997,892	-4,84
998,092	-0,44
998,293	-0,69
998,494	-1,42
998,695	-2,5
998,896	1
999,096	0,55
999,297	2,66
999,498	0,77
999,698	-0,06
999,899	-1,79
1000,1	-6,03
1000,3	-4
1000,501	-4,54
1000,701	-5,47
1000,902	-6,35
1001,102	-5,7
1001,303	-2,94
1001,503	-4,43
1001,704	-5,02
1001,904	-5,41
1002,105	-6,91
1002,305	-6,73
1002,505	-7,12
1002,706	-7,63
1002,906	-8,12
1003,106	-8,46
1003,306	-8,22
1003,507	-6,06
1003,707	-6,35
1003,907	-3,64
1004,107	-2,71
1004,307	-5,61
1004,507	-3,54
1004,707	-4,88
1004,907	-6,12
1005,107	-8,52
1005,308	-7,73
1005,507	-10
1005,707	-8,48
1005,907	-7,78
1006,107	-6,06
1006,307	-3,49
1006,507	-5,28
1006,707	-5,1
1006,907	-3,92
1007,106	-4,79
1007,306	-7,61
1007,506	-8,1
1007,706	-7,92
1007,905	-8,68
1008,105	-8,66
1008,305	-9,24
1008,504	-8,1
1008,704	-2,44
1008,903	-0,91
1009,103	1,29
1009,303	-0,59
1009,502	0,16
1009,702	-0,86
1009,901	0,04
1010,1	-4,01
1010,3	-1,47
1010,499	-2,62
1010,699	-5,1
1010,898	-6,25
1011,097	-5,73
1011,296	-4,61
1011,496	-4,53
1011,695	-5,15
1011,894	-5,69
1012,093	-2,33
1012,293	-1,93
1012,492	-2,01
1012,691	-2,2
1012,89	-1,76
1013,089	-5,88
1013,288	-5,09
1013,487	-2,3
1013,686	-2,56
1013,885	-3,85
1014,084	-3,07
1014,283	-3,77
1014,482	-4,85
1014,681	-5,81
1014,88	-10,76
1015,078	-8,98
1015,277	-11,71
1015,476	-12,09
1015,675	-10,64
1015,873	-10,52
1016,072	-13,38
1016,271	-8,81
1016,47	-13,79
1016,668	-13,63
1016,867	-13,45
1017,065	-15,12
1017,264	-15,94
1017,463	-17,08
1017,661	-18,31
1017,86	-17,6
1018,058	-16,19
1018,256	-18,29
1018,455	-18,82
1018,653	-17,77
1018,852	-16,76
1019,05	-18,51
1019,248	-18,36
1019,447	-19,24
1019,645	-19,81
1019,843	-21,88
1020,041	-19,78
1020,24	-19,51
1020,438	-14,3
1020,636	-13,8
1020,834	-15,42
1021,032	-13,14
1021,23	-15,18
1021,428	-12,21
1021,626	-8,05
1021,824	-8,58
1022,022	-10,29
1022,22	-6,5
1022,418	-6,77
1022,616	-6,99
1022,814	-5,74
1023,012	-5,83
1023,21	-2,79
1023,408	-3,03
1023,606	-3,1
1023,803	2,1
1024,001	2,98
1024,199	0,08
1024,397	1,59
1024,594	0,32
1024,792	-1,62
1024,99	0,58
1025,187	1,75
1025,385	6,45
1025,582	6,66
1025,78	5,29
1025,977	6,77
1026,175	6,01
1026,372	5,23
1026,57	1,76
1026,767	5,3
1026,965	6,61
1027,162	7,03
1027,359	6,4
1027,557	6,92
1027,754	2,92
1027,951	0,14
1028,148	3,04
1028,346	0,9
1028,543	-2,02
1028,74	-2,16
1028,937	-5,35
1029,134	-6,52
1029,331	-7,32
1029,528	-6,29
1029,725	-7,06
1029,923	-10,69
1030,12	-7,66
1030,317	-6,13
1030,513	-5,01
1030,71	-3,83
1030,907	-1,23
1031,104	-2,95
1031,301	-3,84
1031,498	-6,42
1031,695	-6,7
1031,892	-5,78
1032,088	-5,66
1032,285	-7,56
1032,482	-7,79
1032,678	-11,05
1032,875	-14,15
1033,072	-14,08
1033,268	-14,66
1033,465	-15,31
1033,662	-18,08
1033,858	-16,87
1034,055	-14,49
1034,251	-11,92
1034,448	-12,36
1034,644	-12,15
1034,84	-9,05
1035,037	-5,83
1035,233	-5,3
1035,43	-4,43
1035,626	-4,53
1035,822	-3,47
1036,019	-4,68
1036,215	-9,37
1036,411	-10,89
1036,607	-13,5
1036,803	-16,11
1037	-16,42
1037,196	-18,51
1037,392	-20,34
1037,588	-22,11
1037,784	-20,53
1037,98	-21,19
1038,176	-21,1
1038,372	-19,94
1038,568	-17,62
1038,764	-14,82
1038,96	-13,83
1039,156	-14,82
1039,352	-16,21
1039,547	-13,83
1039,743	-12,89
1039,939	-9,69
1040,135	-10,38
1040,331	-12,98
1040,526	-11,06
1040,722	-12,37
1040,918	-13,78
1041,113	-16,64
1041,309	-16,55
1041,505	-19,43
1041,7	-19,59
1041,896	-20,15
1042,091	-20,35
1042,287	-19,27
1042,482	-17,98
1042,678	-18,27
1042,873	-16,16
1043,069	-18,4
1043,264	-17,05
1043,459	-14,51
1043,655	-12,09
1043,85	-13,85
1044,045	-12,27
1044,24	-13,37
1044,436	-11,92
1044,631	-14,28
1044,826	-15,42
1045,021	-16,8
1045,216	-15,55
