Data from FLMT021711__11__18-14-53-187.txt Node

Date: Tue Nov 05 18:14:53 CET 2024
User: Etudiants TP
Spectrometer: FLMT02171
Trigger mode: 0
Integration Time (sec): 1,000000E-1
Scans to average: 5
Electric dark correction enabled: true
Nonlinearity correction enabled: false
Boxcar width: 15
XAxis mode: Wavelengths
Number of Pixels in Spectrum: 3648
>>>>>Begin Spectral Data<<<<<
194,658	-66,63
194,923	-63,35
195,188	-53,42
195,453	-52,31
195,717	-46,06
195,982	-45,41
196,247	-43,03
196,512	-46,24
196,777	-44,63
197,042	-42,64
197,307	-41,24
197,572	-36,61
197,837	-36,82
198,101	-34,12
198,366	-30,49
198,631	-28,07
198,896	-22,14
199,161	-15,95
199,425	-8,21
199,69	1,34
199,955	3,17
200,22	-0,57
200,484	-1,23
200,749	-1,85
201,014	-1,43
201,278	-1,43
201,543	-0,71
201,807	-1,62
202,072	0,55
202,337	0,83
202,601	1,35
202,866	-0,57
203,13	0,58
203,395	-3,42
203,659	-4,31
203,924	-6,08
204,189	-4,71
204,453	-4,6
204,717	-1,29
204,982	0,08
205,246	0,42
205,511	1,77
205,775	0,33
206,04	5,68
206,304	5,48
206,568	7,03
206,833	6,8
207,097	7,71
207,361	9,58
207,626	12,74
207,89	14,06
208,154	13,91
208,419	17,86
208,683	18,56
208,947	21,42
209,211	20,61
209,476	20,9
209,74	21,86
210,004	22,44
210,268	23,05
210,532	26,49
210,796	27,13
211,061	27,89
211,325	28,48
211,589	26,74
211,853	27,82
212,117	27,8
212,381	27,83
212,645	29,63
212,909	29,22
213,173	27,39
213,437	28,43
213,701	27,66
213,965	28,65
214,229	23,75
214,493	24,91
214,757	22,53
215,021	21,5
215,285	26,16
215,549	29,47
215,813	26,74
216,077	25,93
216,34	26,98
216,604	24,88
216,868	24,84
217,132	25,41
217,396	25,77
217,659	25,46
217,923	22,94
218,187	23,41
218,451	20,5
218,714	17,38
218,978	17,77
219,242	20,63
219,505	21,72
219,769	23,82
220,033	25,15
220,296	26,96
220,56	27,34
220,824	24,87
221,087	25,64
221,351	24,6
221,614	24,96
221,878	26,96
222,142	24,84
222,405	26,27
222,669	27,67
222,932	25,21
223,196	23,69
223,459	19,62
223,722	20,99
223,986	20,61
224,249	19,17
224,513	19,62
224,776	19,8
225,04	19,54
225,303	20,1
225,566	18,83
225,83	21,14
226,093	23,67
226,356	21,14
226,62	19,5
226,883	21,72
227,146	23,03
227,409	21,35
227,673	16,99
227,936	16,21
228,199	15,26
228,462	12,61
228,725	12,27
228,989	11,15
229,252	12,11
229,515	17,36
229,778	14,84
230,041	13,14
230,304	11,14
230,567	10,75
230,83	8,17
231,093	9,9
231,356	10,09
231,619	16,09
231,882	13,28
232,145	14,82
232,408	13,02
232,671	12,41
232,934	12,59
233,197	10,9
233,46	9,32
233,723	11,64
233,986	8,94
234,249	5,66
234,512	8,3
234,775	13,31
235,037	12,51
235,3	10,43
235,563	11,01
235,826	13,72
236,089	16,33
236,351	15,94
236,614	18,63
236,877	19,47
237,14	23,29
237,402	22,17
237,665	15,77
237,928	14,93
238,19	13,16
238,453	17,2
238,716	17,47
238,978	18,13
239,241	16,66
239,503	19,16
239,766	14,15
240,029	12,2
240,291	15,28
240,554	17,3
240,816	15,84
241,079	15,25
241,341	14,94
241,604	13,22
241,866	9,84
242,129	11,93
242,391	14,84
242,653	14,33
242,916	13,73
243,178	12,7
243,441	15,39
243,703	14,58
243,965	12,89
244,228	12,43
244,49	12,72
244,752	13,45
245,015	13,1
245,277	14,06
245,539	13,39
245,801	16,06
246,064	16,41
246,326	16,09
246,588	14,66
246,85	15,44
247,112	15,66
247,374	18,37
247,637	20,63
247,899	21,65
248,161	22,32
248,423	17,56
248,685	17,13
248,947	17,23
249,209	17,53
249,471	18,9
249,733	20,57
249,995	18,68
250,257	17,94
250,519	15,91
250,781	18,88
251,043	16,31
251,305	18,97
251,567	20,13
251,829	21,22
252,091	20,76
252,353	17,08
252,615	17,55
252,876	14,36
253,138	12,19
253,4	7,63
253,662	9,24
253,924	10,46
254,185	11,66
254,447	12,2
254,709	11,72
254,971	12,88
255,232	14,36
255,494	12,51
255,756	10,15
256,017	9,83
256,279	10,86
256,541	9,78
256,802	9,75
257,064	11,06
257,326	10,21
257,587	11,92
257,849	12,17
258,11	16,2
258,372	17,12
258,633	19,13
258,895	17,62
259,156	16,37
259,418	13,45
259,679	7,45
259,941	5,4
260,202	7,73
260,464	10,32
260,725	9,66
260,987	9,53
261,248	10,88
261,509	12,63
261,771	10,69
262,032	12,3
262,293	12,47
262,555	11,39
262,816	10,47
263,077	8,3
263,338	5,61
263,6	5,97
263,861	5,82
264,122	5,27
264,383	6,5
264,645	8,59
264,906	7,83
265,167	9,09
265,428	9,26
265,689	10,46
265,95	7,83
266,211	10,86
266,473	9,63
266,734	4,89
266,995	0,28
267,256	1,75
267,517	4,34
267,778	10,79
268,039	10,88
268,3	10,29
268,561	7,85
268,822	11,39
269,083	9,21
269,344	7,44
269,604	4,85
269,865	5,31
270,126	1,59
270,387	2,79
270,648	5,16
270,909	4,49
271,17	4,1
271,43	1,87
271,691	-1,69
271,952	-4,05
272,213	-0,72
272,473	-2,22
272,734	-0,58
272,995	0,57
273,256	0,84
273,516	3,24
273,777	-0,2
274,038	2,46
274,298	-2,18
274,559	-2,1
274,82	4,1
275,08	8,59
275,341	10,27
275,601	9,8
275,862	5,89
276,122	7,78
276,383	7,11
276,643	10,06
276,904	7,48
277,164	11,34
277,425	11,44
277,685	17,28
277,946	18,18
278,206	19,58
278,467	20,72
278,727	20,83
278,987	21,93
279,248	21,67
279,508	23,41
279,768	27,75
280,029	30,53
280,289	25,93
280,549	23,86
280,81	22,62
281,07	21,07
281,33	22,01
281,59	19,13
281,851	22,03
282,111	22,31
282,371	21,34
282,631	23,62
282,891	21,63
283,151	19,75
283,412	17,89
283,672	16,26
283,932	14,96
284,192	15,58
284,452	13,76
284,712	10,92
284,972	10,06
285,232	6,83
285,492	9,97
285,752	5,82
286,012	13,05
286,272	14,93
286,532	12,88
286,792	12
287,052	12,31
287,312	12,86
287,571	11,61
287,831	10,74
288,091	7,64
288,351	7,28
288,611	11,87
288,871	11,77
289,13	13,03
289,39	8,57
289,65	10,26
289,91	6,76
290,17	8,69
290,429	13,2
290,689	8,93
290,949	6,2
291,208	6,47
291,468	9,74
291,728	11,78
291,987	15,74
292,247	14,2
292,506	17,5
292,766	20,23
293,026	19,5
293,285	22,12
293,545	23,65
293,804	24,62
294,064	19,28
294,323	15,65
294,583	15,62
294,842	17,62
295,102	18,37
295,361	19,09
295,621	19,61
295,88	19,92
296,139	19,39
296,399	21,15
296,658	15,97
296,917	17,41
297,177	14,8
297,436	16,8
297,695	15,61
297,955	18,06
298,214	15,69
298,473	15,53
298,732	18,44
298,992	20,12
299,251	21,04
299,51	17,11
299,769	18,27
300,028	17,56
300,287	18,48
300,547	17,86
300,806	15,92
301,065	19,13
301,324	21,24
301,583	17,86
301,842	14,93
302,101	12,8
302,36	14,19
302,619	14,1
302,878	13,17
303,137	10,71
303,396	11,12
303,655	12,67
303,914	9,97
304,173	10,78
304,432	10,53
304,691	13,53
304,95	10,35
305,208	15,55
305,467	15,83
305,726	14,96
305,985	15,55
306,244	17,46
306,503	16,73
306,761	14,98
307,02	12,61
307,279	11,86
307,537	12,02
307,796	7,78
308,055	5,24
308,314	6,32
308,572	4,94
308,831	5,61
309,09	5,7
309,348	4,6
309,607	3,42
309,865	6,76
310,124	7,59
310,382	9,7
310,641	10,92
310,9	9,59
311,158	11,67
311,417	11,62
311,675	11,65
311,933	12,37
312,192	14,54
312,45	13,14
312,709	12,36
312,967	11,69
313,226	10,52
313,484	10,03
313,742	8,35
314,001	5,72
314,259	3,38
314,517	5,13
314,776	7,52
315,034	9,66
315,292	7,59
315,55	6,99
315,809	6,04
316,067	6,84
316,325	5,54
316,583	7,02
316,841	5,58
317,1	3,7
317,358	0,76
317,616	1,8
317,874	0,76
318,132	-0,75
318,39	-2,33
318,648	-3,54
318,906	-4,15
319,164	-5,32
319,422	-7,33
319,68	-9,04
319,938	-8,61
320,196	-8,5
320,454	-5,97
320,712	-5,9
320,97	-4,07
321,228	-6,53
321,486	-4,35
321,744	-2,68
322,002	0,81
322,26	0,28
322,517	-0,97
322,775	-4,35
323,033	-4,48
323,291	-1,07
323,549	0,36
323,806	3,57
324,064	3,29
324,322	3
324,58	0,88
324,837	3,29
325,095	2,02
325,353	3,21
325,61	3,34
325,868	2,6
326,126	6,11
326,383	6,14
326,641	5,83
326,898	8,86
327,156	9,33
327,413	10,62
327,671	11,59
327,928	14,33
328,186	13,56
328,443	12,42
328,701	17,55
328,958	17,16
329,216	17,69
329,473	15,32
329,731	16,8
329,988	15,65
330,245	18,44
330,503	17,82
330,76	18,61
331,017	20,29
331,275	17,5
331,532	17,63
331,789	14,89
332,047	14,94
332,304	12,48
332,561	13,13
332,818	12,64
333,076	14,83
333,333	17,86
333,59	19,05
333,847	21,24
334,104	18,76
334,361	17,7
334,618	17,01
334,876	13,57
335,133	13,81
335,39	11,83
335,647	12,98
335,904	8,72
336,161	6,39
336,418	5,91
336,675	0,11
336,932	1,7
337,189	2,12
337,446	3,01
337,703	0,72
337,96	-2,78
338,216	-3,49
338,473	-5,79
338,73	-4,95
338,987	-5,28
339,244	-2,2
339,501	-3,71
339,757	-2,68
340,014	-1,44
340,271	0,04
340,528	1,05
340,785	4,5
341,041	4,99
341,298	1,46
341,555	-0,46
341,811	-1,04
342,068	-4,16
342,325	-4,97
342,581	-2,72
342,838	-0,65
343,094	-1,08
343,351	-0,06
343,608	-2,64
343,864	0,89
344,121	3,4
344,377	3,23
344,634	4,04
344,89	2,88
345,147	1,51
345,403	0,17
345,66	1,07
345,916	2,24
346,172	-0,15
346,429	0,1
346,685	-2,13
346,942	-1,17
347,198	-5,82
347,454	-5,11
347,711	-4,14
347,967	-6,67
348,223	-5,04
348,48	-5,53
348,736	-2,86
348,992	-3,12
349,248	-2
349,504	-1
349,761	-1,23
350,017	-0,18
350,273	1,41
350,529	1,22
350,785	-0,44
351,041	-1,5
351,297	-1,05
351,554	-2,08
351,81	-4,79
352,066	-7,34
352,322	-6,33
352,578	-6,77
352,834	-7,44
353,09	-6,22
353,346	-5,21
353,602	-7,03
353,858	-6,82
354,114	-6,81
354,369	-5,65
354,625	-1,34
354,881	-3,88
355,137	-0,12
355,393	-0,52
355,649	-0,86
355,905	-1,92
356,16	-1,14
356,416	-0,86
356,672	-7,03
356,928	-7,47
357,183	-6,31
357,439	-7,44
357,695	-9,17
357,951	-4,08
358,206	-4,91
358,462	-6,63
358,718	-7,59
358,973	-5,35
359,229	-4,33
359,484	-3,64
359,74	-0,33
359,996	1,74
360,251	4,04
360,507	4,03
360,762	4,51
361,018	5,87
361,273	3,78
361,529	6,75
361,784	8,11
362,04	11,74
362,295	12,39
362,55	12,37
362,806	15,74
363,061	16,04
363,316	18,28
363,572	18,97
363,827	23,32
364,082	18,88
364,338	19,27
364,593	19,1
364,848	19,01
365,104	16,73
365,359	19,76
365,614	20,43
365,869	17,88
366,124	19
366,38	17,45
366,635	19,94
366,89	21,54
367,145	21,11
367,4	25,34
367,655	23,95
367,91	23,15
368,165	20,69
368,42	17,82
368,675	18,14
368,93	18,93
369,185	17,52
369,44	17,1
369,695	19,56
369,95	16,12
370,205	14,87
370,46	13,93
370,715	11,75
370,97	12,67
371,225	11,23
371,48	13,46
371,734	12,09
371,989	13,72
372,244	13,91
372,499	14,93
372,754	13,45
373,008	10,41
373,263	7
373,518	10,21
373,773	7,77
374,027	5,75
374,282	9,83
374,537	10,55
374,791	11,23
375,046	9,9
375,301	8,13
375,555	7,14
375,81	9,33
376,064	10,44
376,319	15,43
376,573	14,44
376,828	10,23
377,082	14,28
377,337	11,86
377,591	8,14
377,846	10,36
378,1	12,63
378,355	11,99
378,609	12,02
378,863	8,6
379,118	9,88
379,372	7,87
379,627	6,78
379,881	4,79
380,135	4,63
380,389	5,11
380,644	6,23
380,898	7,64
381,152	8,9
381,407	6,97
381,661	10,63
381,915	13,66
382,169	13,03
382,423	12,94
382,677	9,42
382,932	10,38
383,186	11,57
383,44	12,9
383,694	15,36
383,948	14,07
384,202	12,9
384,456	15,72
384,71	17,46
384,964	16,25
385,218	19,51
385,472	20,43
385,726	19,45
385,98	19,48
386,234	18,38
386,488	15,65
386,742	17,09
386,996	14,5
387,249	14,79
387,503	17,36
387,757	19,69
388,011	19,79
388,265	20,21
388,518	22,55
388,772	25,35
389,026	26,17
389,28	24,75
389,533	22,95
389,787	23,62
390,041	21,97
390,295	20,88
390,548	20,7
390,802	23,61
391,055	23,14
391,309	22,34
391,563	19,15
391,816	19,31
392,07	18,01
392,323	17,66
392,577	19,85
392,83	20,97
393,084	25,9
393,337	29,01
393,591	29,89
393,844	29,09
394,098	34,13
394,351	39,33
394,604	41,69
394,858	43,46
395,111	44,66
395,364	41,09
395,618	43,03
395,871	41,39
396,124	39,89
396,378	36,37
396,631	34,75
396,884	30,85
397,137	30,59
397,391	31,57
397,644	28,38
397,897	27,87
398,15	28,53
398,403	31,81
398,657	30,26
398,91	27,44
399,163	26,83
399,416	25,88
399,669	25,77
399,922	23,45
400,175	22,2
400,428	22,14
400,681	25,39
400,934	23,61
401,187	25,74
401,44	29,33
401,693	31,31
401,946	29,22
402,199	24,62
402,452	23,45
402,704	22,11
402,957	20,85
403,21	23,71
403,463	21,08
403,716	22,27
403,969	23,49
404,221	24,92
404,474	27,96
404,727	33,01
404,98	35,98
405,232	35,79
405,485	38,56
405,738	41,6
405,99	42,89
406,243	42,31
406,496	44,32
406,748	45,15
407,001	43,96
407,253	46,03
407,506	44,95
407,759	46,47
408,011	43,79
408,264	42,74
408,516	40,09
408,769	34,29
409,021	31,48
409,274	26,97
409,526	25,62
409,778	23,04
410,031	24,58
410,283	23,56
410,536	27,74
410,788	25,77
411,04	24,96
411,293	28,1
411,545	28,31
411,797	26,98
412,049	25,12
412,302	25,68
412,554	27,1
412,806	24,38
413,058	22,4
413,311	22,15
413,563	19,95
413,815	18,74
414,067	15,9
414,319	15,2
414,571	16,8
414,823	16,38
415,075	13,66
415,328	14,59
415,58	17,54
415,832	20,72
416,084	21,64
416,336	19,13
416,588	23,28
416,84	21,24
417,091	24,29
417,343	20,63
417,595	21,84
417,847	22,5
418,099	24,22
418,351	22,03
418,603	25,88
418,855	26,9
419,106	27,07
419,358	26,87
419,61	28,23
419,862	30,81
420,114	28,91
420,365	27,33
420,617	27,92
420,869	26,23
421,12	25,24
421,372	26,4
421,624	24,92
421,875	26,9
422,127	22,74
422,379	22,59
422,63	25,16
422,882	24,23
423,133	24,42
423,385	24,07
423,636	23,65
423,888	26,57
424,139	29,65
424,391	27,18
424,642	24,92
424,894	21,86
425,145	22,44
425,396	20,57
425,648	23,7
425,899	21,11
426,151	22,17
426,402	19,76
426,653	19,31
426,905	17,69
427,156	15,49
427,407	14,89
427,658	14,29
427,91	13,25
428,161	12,53
428,412	14,91
428,663	17,19
428,914	17,8
429,166	19,28
429,417	20,27
429,668	18,45
429,919	16,96
430,17	15,56
430,421	14,63
430,672	17,41
430,923	17,42
431,174	17,33
431,425	19
431,676	21,48
431,927	25,07
432,178	35,06
432,429	45,14
432,68	55,26
432,931	66,95
433,182	75,01
433,433	76,41
433,683	80,16
433,934	80,71
434,185	81,12
434,436	79,56
434,687	80,74
434,937	83,97
435,188	80,77
435,439	78,87
435,69	79,24
435,94	78,78
436,191	79,25
436,442	78,65
436,692	76,41
436,943	73,21
437,194	72,15
437,444	75,01
437,695	78,73
437,945	80,18
438,196	80,02
438,447	79,11
438,697	78,22
438,948	76,51
439,198	71,6
439,449	62,11
439,699	55,86
439,949	47,25
440,2	35,74
440,45	26,54
440,701	16,61
440,951	10,81
441,201	6,13
441,452	1,83
441,702	-2
441,952	-2,13
442,203	-1,47
442,453	-4,46
442,703	-4,75
442,953	-1,7
443,204	0,29
443,454	-2,13
443,704	-1,26
443,954	-5,51
444,204	-5,49
444,455	-3,47
444,705	-1,95
444,955	-3,06
445,205	-4,77
445,455	-7,86
445,705	-9,05
445,955	-9,62
446,205	-10,08
446,455	-8,53
446,705	-7,43
446,955	-6,17
447,205	-4,17
447,455	-2,84
447,705	-6,15
447,955	-5,37
448,205	-5,4
448,454	-6,83
448,704	-5,91
448,954	-8,03
449,204	-6,67
449,454	-4,58
449,704	-6,26
449,953	-5,58
450,203	-2,95
450,453	-5,47
450,703	-4,77
450,952	-5,82
451,202	-3,19
451,452	-4,59
451,701	-0,71
451,951	2,82
452,201	2,94
452,45	2,63
452,7	6,52
452,949	6,06
453,199	6,37
453,448	7,94
453,698	9,26
453,947	8,12
454,197	5,65
454,446	2,87
454,696	5,76
454,945	5,06
455,195	3,57
455,444	5,47
455,693	9,59
455,943	6,53
456,192	8,34
456,442	7,71
456,691	9,57
456,94	8,8
457,189	6,83
457,439	9,31
457,688	9,6
457,937	8,76
458,186	10,57
458,436	9,45
458,685	9,69
458,934	8,06
459,183	7,74
459,432	8,05
459,681	6,92
459,93	4,8
460,179	4,18
460,429	1,01
460,678	4,38
460,927	8,18
461,176	7,85
461,425	7,66
461,674	10,56
461,923	11,42
462,172	11,81
462,42	9,57
462,669	12,82
462,918	12,68
463,167	12,09
463,416	8,72
463,665	11,38
463,914	12,2
464,162	10,36
464,411	10,47
464,66	11,55
464,909	11,05
465,158	10,78
465,406	10,56
465,655	12,51
465,904	12,69
466,152	13,67
466,401	13,46
466,65	14,86
466,898	13,53
467,147	10,45
467,395	10,56
467,644	14,14
467,893	13,19
468,141	12,85
468,39	8,81
468,638	6,48
468,887	4,92
469,135	3,58
469,384	3,21
469,632	4,12
469,88	4,47
470,129	7,21
470,377	3,44
470,626	6,23
470,874	8,88
471,122	10,89
471,371	9,78
471,619	6,36
471,867	10,43
472,115	9,81
472,364	9,03
472,612	12,12
472,86	9,97
473,108	11,56
473,356	11,53
473,605	11,96
473,853	9,74
474,101	10,3
474,349	9,4
474,597	12,57
474,845	12,25
475,093	10,61
475,341	7,95
475,589	9,57
475,837	10,49
476,085	13,76
476,333	12,36
476,581	14,18
476,829	14,63
477,077	17,58
477,325	18,7
477,573	20,94
477,821	19,3
478,069	21,08
478,317	20,7
478,564	23,97
478,812	22,62
479,06	22,46
479,308	23,63
479,555	24,47
479,803	24,92
480,051	27,72
480,299	27,87
480,546	30,58
480,794	29,42
481,042	31,12
481,289	31,95
481,537	36,38
481,784	37,82
482,032	43,71
482,28	46,33
482,527	49,38
482,775	55,06
483,022	60,67
483,27	64,67
483,517	73,34
483,765	75,13
484,012	79,41
484,259	80,48
484,507	86,77
484,754	91,14
485,002	92,42
485,249	94,98
485,496	100,92
485,744	103,73
485,991	105,53
486,238	104,88
486,486	111,07
486,733	114,33
486,98	120,55
487,227	119,45
487,474	123,09
487,722	127,72
487,969	127,48
488,216	128,6
488,463	129,14
488,71	128,33
488,957	128,25
489,204	127,23
489,451	127,72
489,699	125,57
489,946	120,93
490,193	119,26
490,44	116,68
490,687	114,35
490,934	111,76
491,18	105,67
491,427	105,59
491,674	106,6
491,921	105,44
492,168	102,99
492,415	97,1
492,662	97,2
492,909	97,2
493,155	94,45
493,402	90,26
493,649	86,67
493,896	85,07
494,142	78,23
494,389	75,97
494,636	71,34
494,883	68,49
495,129	64
495,376	59,56
495,623	59,6
495,869	60,59
496,116	59,78
496,362	58,41
496,609	59,02
496,855	63,01
497,102	61,82
497,348	61,52
497,595	62,52
497,841	64,99
498,088	61,49
498,334	58,56
498,581	54,65
498,827	53,43
499,074	53,13
499,32	51,64
499,566	53,32
499,813	51,29
500,059	49,52
500,305	47,98
500,552	43,76
500,798	41,1
501,044	45,12
501,29	43,14
501,537	39,22
501,783	41,42
502,029	42,71
502,275	40,34
502,521	37,48
502,767	38,65
503,013	40,2
503,26	36,5
503,506	31,35
503,752	31,09
503,998	28,85
504,244	27,85
504,49	23,17
504,736	22,6
504,982	19,75
505,228	20,88
505,474	19,66
505,72	19,57
505,966	19,82
506,211	23,46
506,457	23,24
506,703	18,81
506,949	16,65
507,195	14,33
507,441	9,72
507,686	10,37
507,932	9,66
508,178	12,51
508,424	10
508,669	7,17
508,915	7,23
509,161	9,5
509,406	9,71
509,652	8,78
509,898	10,61
510,143	12,17
510,389	12,33
510,634	7,01
510,88	10,9
511,125	14,34
511,371	15,7
511,616	16,85
511,862	14,31
512,107	11,7
512,353	12,76
512,598	12,39
512,844	10,37
513,089	7,16
513,335	8,81
513,58	7,66
513,825	6,5
514,071	4,5
514,316	3,43
514,561	3,48
514,806	1,16
515,052	4,92
515,297	3,52
515,542	4,03
515,787	4,94
516,033	7,44
516,278	7,1
516,523	6,85
516,768	4,61
517,013	0,85
517,258	1,43
517,503	2,38
517,748	2,84
517,993	1,39
518,238	2,14
518,483	0,12
518,728	-2,35
518,973	-5,2
519,218	-5,78
519,463	-4,82
519,708	-5,03
519,953	-6,47
520,198	-5,31
520,443	-3,86
520,688	-0,01
520,933	-0,35
521,177	-0,87
521,422	-2,56
521,667	0,96
521,912	1,97
522,157	0,36
522,401	3,84
522,646	2,29
522,891	3,81
523,135	4,59
523,38	3,34
523,625	0,66
523,869	2,67
524,114	4,65
524,358	4,33
524,603	5,44
524,848	2,37
525,092	0,32
525,337	2,31
525,581	3,89
525,826	5,57
526,07	5,93
526,315	7,79
526,559	7,79
526,803	6,87
527,048	11,52
527,292	13,47
527,537	14,2
527,781	13,76
528,025	12,48
528,269	13,4
528,514	12,8
528,758	12,72
529,002	13,43
529,247	15,62
529,491	15,15
529,735	21,54
529,979	22,6
530,223	26,13
530,467	24,52
530,712	23,48
530,956	23,69
531,2	26,47
531,444	25,29
531,688	28,61
531,932	30,93
532,176	33,5
532,42	36,9
532,664	39,89
532,908	39,89
533,152	40,84
533,396	44,04
533,64	46,51
533,884	47,48
534,128	51,92
534,371	58,39
534,615	63,95
534,859	67,14
535,103	71,43
535,347	78,32
535,59	87,39
535,834	92,3
536,078	104,85
536,322	119,45
536,565	135,49
536,809	149,43
537,053	168,93
537,296	187,4
537,54	214,93
537,784	246,48
538,027	284,93
538,271	324,68
538,514	365,7
538,758	409,18
539,001	450,43
539,245	491,59
539,488	532,24
539,732	574,4
539,975	612,87
540,219	651,23
540,462	687,08
540,706	724,54
540,949	755,94
541,192	789,62
541,436	829,14
541,679	867,67
541,922	910,66
542,166	956,44
542,409	1016,71
542,652	1081,69
542,895	1150,02
543,139	1212,83
543,382	1271,59
543,625	1316,13
543,868	1354,88
544,111	1387,35
544,354	1411,69
544,598	1429,69
544,841	1440,32
545,084	1438,69
545,327	1430,16
545,57	1416,26
545,813	1398,23
546,056	1373,9
546,299	1349,29
546,542	1324,42
546,785	1298,62
547,028	1271,4
547,271	1242,63
547,514	1215,24
547,756	1185,39
547,999	1158,56
548,242	1130,38
548,485	1102,27
548,728	1074,79
548,971	1040,09
549,213	1009,02
549,456	966,98
549,699	917,95
549,942	859,18
550,184	793,94
550,427	724,31
550,67	657,47
550,912	593,6
551,155	543,04
551,398	493,36
551,64	447,8
551,883	409,39
552,125	374,8
552,368	343,75
552,61	315,15
552,853	293,31
553,095	271,22
553,338	250,81
553,58	233,34
553,823	213,45
554,065	200,91
554,308	183,04
554,55	168,44
554,792	153,43
555,035	140,05
555,277	129,37
555,519	120,12
555,762	109,51
556,004	101,69
556,246	90,45
556,488	85,81
556,731	75,58
556,973	70,69
557,215	63,56
557,457	58,15
557,699	55,02
557,941	47,82
558,183	44,29
558,426	43,83
558,668	36,17
558,91	35,02
559,152	33,1
559,394	29,18
559,636	29,07
559,878	28,94
560,12	27,07
560,362	26,93
560,604	25,19
560,845	22,78
561,087	20,45
561,329	21,8
561,571	17,49
561,813	17,42
562,055	15,3
562,297	15,87
562,538	16,95
562,78	19,42
563,022	16
563,264	16,16
563,505	16,43
563,747	17,77
563,989	13,62
564,23	11,41
564,472	8,89
564,714	11,77
564,955	12,85
565,197	10
565,438	10,98
565,68	13,15
565,921	10,41
566,163	11,43
566,404	8,76
566,646	10,81
566,887	12,73
567,129	12,19
567,37	9,72
567,612	11,12
567,853	6,84
568,094	7,94
568,336	9,23
568,577	11,26
568,818	11,49
569,06	8,77
569,301	5,84
569,542	8,03
569,783	9,46
570,025	7,56
570,266	5,96
570,507	6,28
570,748	6,47
570,989	7,43
571,23	8,47
571,472	9,59
571,713	9,66
571,954	12,65
572,195	10,28
572,436	11,32
572,677	14,91
572,918	18,72
573,159	19,9
573,4	22,4
573,641	27,82
573,882	34,56
574,123	36,2
574,364	36
574,604	40,71
574,845	42,17
575,086	47,66
575,327	54,55
575,568	58,27
575,809	63,73
576,049	66,71
576,29	70,32
576,531	81,38
576,771	90,67
577,012	96,15
577,253	101,23
577,494	106,16
577,734	110,25
577,975	115,71
578,215	117,71
578,456	118,34
578,697	122,82
578,937	127,76
579,178	131,06
579,418	132,82
579,659	136,46
579,899	136,74
580,14	138,55
580,38	139,83
580,62	140,05
580,861	144,6
581,101	143,53
581,342	143,2
581,582	139,1
581,822	141,06
582,063	140,01
582,303	142,05
582,543	140,1
582,783	138,61
583,024	140,79
583,264	140,62
583,504	139,53
583,744	141,12
583,984	138,9
584,224	138,8
584,465	138,71
584,705	139,14
584,945	140,98
585,185	141,83
585,425	143,23
585,665	143,57
585,905	143,09
586,145	142,07
586,385	139,92
586,625	141,67
586,865	139,05
587,105	137,03
587,345	136,85
587,585	135,95
587,824	132,07
588,064	130,33
588,304	126,21
588,544	124,02
588,784	119,45
589,024	121,61
589,263	120,79
589,503	119,57
589,743	122,97
589,982	124,24
590,222	126,07
590,462	123,61
590,701	121,06
590,941	123,1
591,181	119,98
591,42	115,8
591,66	116,29
591,899	116,63
592,139	111,56
592,378	108,22
592,618	104,76
592,857	99,99
593,097	99,25
593,336	97,27
593,576	95,52
593,815	94,09
594,055	92,34
594,294	91,41
594,533	90,26
594,773	88,71
595,012	88,47
595,251	89,95
595,491	93,18
595,73	93,71
595,969	95,27
596,208	96,78
596,447	99,55
596,687	100,18
596,926	98,34
597,165	92,07
597,404	92,3
597,643	88,02
597,882	84,25
598,121	83,07
598,36	81,8
598,599	81,19
598,838	79,54
599,077	73,4
599,316	71,79
599,555	70,83
599,794	69,97
600,033	71,29
600,272	71,36
600,511	68,16
600,75	70,95
600,989	71,58
601,228	71,43
601,466	70,89
601,705	71,68
601,944	72,59
602,183	75,19
602,422	73,07
602,66	70,95
602,899	68,15
603,138	67,98
603,376	65,27
603,615	65,16
603,854	63,27
604,092	62,47
604,331	64,21
604,569	64,28
604,808	61,27
605,047	64,04
605,285	65,88
605,524	66,51
605,762	64,78
606	68,6
606,239	73,37
606,477	78,19
606,716	78,93
606,954	86,92
607,193	98,43
607,431	112,32
607,669	135,14
607,908	162,84
608,146	194,06
608,384	224,2
608,622	256,9
608,861	286,88
609,099	313,94
609,337	337,63
609,575	359,81
609,813	383
610,052	401,77
610,29	413,32
610,528	425,27
610,766	439,12
611,004	449,82
611,242	458,3
611,48	466,76
611,718	472,99
611,956	481,68
612,194	488,14
612,432	492,22
612,67	494,87
612,908	499,55
613,146	500,24
613,384	499,23
613,621	498,7
613,859	496,43
614,097	493,89
614,335	488,82
614,573	479,33
614,811	465,38
615,048	444,5
615,286	419,22
615,524	389,33
615,761	355,58
615,999	324,7
616,237	296,23
616,474	271,22
616,712	248,88
616,95	224,61
617,187	203,79
617,425	187,79
617,662	176,04
617,9	162,2
618,137	146,02
618,375	133,91
618,612	122,52
618,85	116
619,087	109,58
619,325	101,03
619,562	92,26
619,799	84,24
620,037	79,65
620,274	74,63
620,511	73,58
620,749	69,14
620,986	65,2
621,223	62,27
621,461	61,89
621,698	61,72
621,935	60,48
622,172	58,15
622,409	60,48
622,647	60,33
622,884	57,27
623,121	61,86
623,358	60,32
623,595	60,03
623,832	62,08
624,069	61,33
624,306	62,65
624,543	65,31
624,78	65,39
625,017	64,46
625,254	67,7
625,491	71,57
625,728	73,9
625,965	75,38
626,202	73,56
626,438	73,65
626,675	74,96
626,912	79,79
627,149	82,59
627,386	83,62
627,622	84,4
627,859	85,9
628,096	88,36
628,333	90,42
628,569	92,94
628,806	95,67
629,043	95,09
629,279	96,36
629,516	98,27
629,752	94,54
629,989	94,89
630,225	93,59
630,462	91,88
630,699	91,37
630,935	90,3
631,171	84,57
631,408	82,5
631,644	78,58
631,881	73,07
632,117	69,72
632,354	68,4
632,59	64,29
632,826	62,28
633,063	60,92
633,299	60,24
633,535	56,61
633,771	54,19
634,008	54,91
634,244	51,12
634,48	47,4
634,716	46,83
634,953	43,2
635,189	40,39
635,425	37,99
635,661	37,43
635,897	34,4
636,133	29,86
636,369	26,7
636,605	21,17
636,841	18,82
637,077	18,14
637,313	16,23
637,549	16,51
637,785	13,89
638,021	14,16
638,257	11,5
638,493	14,93
638,729	12,47
638,965	16,95
639,2	18,7
639,436	18,15
639,672	17,64
639,908	14,82
640,144	19,39
640,379	20,13
640,615	16,56
640,851	19,54
641,086	18,54
641,322	16,76
641,558	17,32
641,793	19,31
642,029	16,69
642,264	15,72
642,5	14,22
642,736	11,08
642,971	11,04
643,207	8,65
643,442	6,02
643,678	8,37
643,913	10,8
644,148	10,36
644,384	12,61
644,619	12,35
644,855	13,72
645,09	15,46
645,325	14,53
645,561	15,22
645,796	11,69
646,031	15,49
646,266	13,47
646,502	12,73
646,737	16,32
646,972	16,17
647,207	18,82
647,442	15,32
647,678	14,16
647,913	18,14
648,148	19,3
648,383	20,18
648,618	19,65
648,853	21,13
649,088	23,32
649,323	26,59
649,558	28,92
649,793	31,28
650,028	32,77
650,263	29,37
650,498	32,25
650,733	34,97
650,968	32,11
651,202	33,56
651,437	30,85
651,672	27,35
651,907	26,05
652,142	26,3
652,376	25,81
652,611	27,53
652,846	28,75
653,081	29,91
653,315	29,72
653,55	29,37
653,785	27,39
654,019	27,26
654,254	26,74
654,488	26,99
654,723	23,92
654,958	21,09
655,192	18,57
655,427	14,8
655,661	15,47
655,896	17,96
656,13	19,85
656,364	15,83
656,599	13,28
656,833	15,3
657,068	16,51
657,302	16,69
657,536	16,24
657,771	17,11
658,005	16,39
658,239	18,23
658,474	15,32
658,708	17,42
658,942	17,75
659,176	17,97
659,41	15,13
659,645	14,78
659,879	14,49
660,113	12,31
660,347	12,69
660,581	9,54
660,815	9,01
661,049	9,88
661,283	6,74
661,517	4,27
661,751	2,78
661,985	2,98
662,219	4
662,453	2,53
662,687	4,01
662,921	1,02
663,155	0,16
663,389	-6,82
663,622	-8,11
663,856	-6,51
664,09	-9,66
664,324	-9,76
664,558	-9,33
664,791	-9,99
665,025	-11,14
665,259	-10,54
665,492	-11,22
665,726	-8,19
665,96	-8,36
666,193	-10,6
666,427	-9,74
666,661	-9,48
666,894	-10,71
667,128	-11,91
667,361	-9,37
667,595	-11,39
667,828	-10,77
668,062	-11,94
668,295	-13,37
668,529	-11,47
668,762	-10,52
668,995	-10,76
669,229	-7,62
669,462	-6,57
669,695	-4,72
669,929	-6,04
670,162	-5,08
670,395	-7,39
670,629	-5,29
670,862	-1,67
671,095	-5,25
671,328	-5,02
671,561	-9,02
671,795	-8,78
672,028	-7,72
672,261	-7,43
672,494	-6,53
672,727	-8,09
672,96	-7,19
673,193	-8,57
673,426	-3,82
673,659	-2,38
673,892	-2,04
674,125	-0,76
674,358	-0,87
674,591	-2,24
674,824	-2,15
675,057	-2,74
675,29	-3,17
675,523	-0,69
675,755	-1,45
675,988	-0,02
676,221	3,3
676,454	1,51
676,687	2,48
676,919	0,56
677,152	1,09
677,385	0,5
677,617	1,55
677,85	2,64
678,083	0,07
678,315	3,12
678,548	2,34
678,78	3,29
679,013	2,86
679,246	4,13
679,478	5,76
679,711	4,28
679,943	6,47
680,175	4,29
680,408	8,92
680,64	5,66
680,873	5,08
681,105	5,19
681,338	7,98
681,57	6,62
681,802	8,29
682,034	8,71
682,267	11,12
682,499	13,38
682,731	10,9
682,964	9,12
683,196	6,08
683,428	4,54
683,66	3,69
683,892	6,9
684,124	9,96
684,356	12,99
684,589	14,8
684,821	14,02
685,053	14,2
685,285	15,95
685,517	18,1
685,749	19,1
685,981	20,29
686,213	21,24
686,445	21,34
686,676	18,78
686,908	20,45
687,14	18,73
687,372	19,44
687,604	17,26
687,836	19,14
688,068	18,73
688,299	19,92
688,531	17,53
688,763	22,69
688,995	21,06
689,226	23,65
689,458	22,28
689,69	20,08
689,921	19,4
690,153	20,17
690,384	24,51
690,616	23,6
690,848	25,19
691,079	21,4
691,311	19,5
691,542	16,31
691,774	13,28
692,005	15,79
692,237	18,61
692,468	15,14
692,699	13,32
692,931	13,16
693,162	10,5
693,393	9,96
693,625	8,43
693,856	10,22
694,087	9,15
694,319	10,07
694,55	9,43
694,781	6,32
695,012	5,24
695,243	2,88
695,475	1,92
695,706	1,23
695,937	-0,05
696,168	-0,83
696,399	-3,36
696,63	-3,89
696,861	-2,2
697,092	3,37
697,323	6,79
697,554	6,02
697,785	5,63
698,016	5,82
698,247	4,65
698,478	6,09
698,709	6,8
698,94	10,82
699,171	10,83
699,401	6,02
699,632	9,59
699,863	6,42
700,094	6,36
700,325	10,03
700,555	10,69
700,786	12,9
701,017	12,38
701,247	13,24
701,478	13,13
701,709	12,31
701,939	13,42
702,17	16,38
702,401	20,22
702,631	20,62
702,862	20,72
703,092	17,26
703,323	19,96
703,553	23,04
703,784	24,69
704,014	24,58
704,244	20,6
704,475	19,85
704,705	22,25
704,936	24,48
705,166	25,31
705,396	28,15
705,627	30,46
705,857	32,58
706,087	33,48
706,317	31,24
706,548	31,4
706,778	32,58
707,008	35
707,238	36,78
707,468	36,1
707,698	35,11
707,928	35,2
708,158	34,46
708,389	33,14
708,619	33,04
708,849	33,34
709,079	35,11
709,309	32,65
709,539	30,77
709,768	32,19
709,998	35,51
710,228	37,55
710,458	36,99
710,688	33,83
710,918	34,32
711,148	34,76
711,378	34,29
711,607	31,97
711,837	31,09
712,067	29,32
712,297	28,43
712,526	27,07
712,756	25,54
712,986	20,89
713,215	17,13
713,445	17,92
713,674	18,85
713,904	16,09
714,134	17,67
714,363	15,46
714,593	12,29
714,822	12,05
715,052	9,85
715,281	9,74
715,511	7,64
715,74	7,57
715,969	6,05
716,199	3,83
716,428	3,7
716,657	2,73
716,887	3,74
717,116	-1,15
717,345	-0,11
717,575	-1,22
717,804	-0,1
718,033	-2,07
718,262	-4,22
718,492	-3,17
718,721	-3,2
718,95	-4,89
719,179	-5,75
719,408	-6,86
719,637	-10,1
719,866	-12,59
720,095	-11,03
720,324	-12,16
720,553	-16,3
720,782	-18,12
721,011	-18,36
721,24	-21,13
721,469	-22,7
721,698	-21,67
721,927	-22,34
722,156	-23,51
722,385	-23,96
722,613	-19,87
722,842	-19,37
723,071	-16,83
723,3	-14,59
723,529	-15,21
723,757	-13,72
723,986	-17,02
724,215	-16,89
724,443	-16,23
724,672	-13,92
724,901	-14,53
725,129	-12,81
725,358	-9,31
725,586	-13,24
725,815	-12,96
726,043	-13,92
726,272	-15,31
726,5	-15
726,729	-13,66
726,957	-16,79
727,186	-17,58
727,414	-15,26
727,642	-13
727,871	-12,09
728,099	-12,41
728,327	-11,06
728,556	-7,98
728,784	-6,58
729,012	-8,78
729,241	-4,37
729,469	-3,54
729,697	-6,48
729,925	-6,77
730,153	-7,86
730,381	-8,22
730,61	-8,67
730,838	-11,29
731,066	-9,99
731,294	-9,34
731,522	-13,15
731,75	-17,13
731,978	-16,55
732,206	-17,86
732,434	-20,09
732,662	-17,01
732,89	-18,26
733,118	-17
733,346	-15,93
733,573	-14,34
733,801	-13,64
734,029	-5,51
734,257	-4,68
734,485	-0,99
734,712	0,53
734,94	-0,87
735,168	1,69
735,396	0,79
735,623	-0,5
735,851	0,68
736,078	3,46
736,306	3,72
736,534	1,59
736,761	2,34
736,989	-0,49
737,216	-1
737,444	-3,54
737,671	-2,82
737,899	1,45
738,126	0,93
738,354	1,53
738,581	3,18
738,809	3,87
739,036	1,68
739,263	1,98
739,491	0,99
739,718	0,32
739,945	4,87
740,173	5,01
740,4	4,92
740,627	2,51
740,854	2,29
741,081	-0,93
741,309	-2,15
741,536	-7,32
741,763	-9,14
741,99	-6,7
742,217	-6,58
742,444	-6,35
742,671	-3,92
742,898	-5,11
743,125	-7,19
743,352	-11,2
743,579	-10,68
743,806	-11,19
744,033	-7,01
744,26	-6,66
744,487	-7,85
744,714	-7,32
744,941	-7,76
745,167	-4,86
745,394	-5,26
745,621	-6,49
745,848	-5,71
746,075	-2,71
746,301	1,41
746,528	6,59
746,755	4,89
746,981	4,67
747,208	5,1
747,435	8,21
747,661	8,71
747,888	10,2
748,114	7,78
748,341	9,78
748,567	11,01
748,794	9,44
749,02	8,52
749,247	6,54
749,473	5,44
749,7	3,63
749,926	4,12
750,152	7,46
750,379	8,59
750,605	10,76
750,831	10,26
751,058	8,83
751,284	7,48
751,51	11,93
751,737	13,12
751,963	10,38
752,189	9,54
752,415	8,31
752,641	8,9
752,867	8,2
753,094	6,22
753,32	3,6
753,546	0,83
753,772	3,56
753,998	0,8
754,224	0,48
754,45	-1,98
754,676	-2,71
754,902	-3,81
755,128	-2,96
755,354	-3,32
755,579	-1,99
755,805	0,84
756,031	-0,11
756,257	-1,36
756,483	-2,02
756,709	-4,29
756,934	-4,78
757,16	-5,99
757,386	-6,51
757,612	-10,29
757,837	-11,72
758,063	-9,48
758,289	-5,14
758,514	-7,03
758,74	-9,82
758,965	-11,23
759,191	-9,77
759,416	-8,71
759,642	-7,75
759,868	-8,07
760,093	-5,56
760,318	-5,98
760,544	-6,76
760,769	-7,09
760,995	-6,05
761,22	-5,65
761,445	-2,6
761,671	-0,57
761,896	2,3
762,121	3,33
762,347	2,73
762,572	0,16
762,797	-0,07
763,022	0,04
763,248	4,42
763,473	5,7
763,698	5,11
763,923	5,02
764,148	5,06
764,373	3,91
764,598	5,92
764,823	7,94
765,048	4,27
765,273	-0,37
765,498	-2,07
765,723	-1,13
765,948	-0,17
766,173	-2,79
766,398	-2,53
766,623	-5,1
766,848	-3,82
767,073	-6,52
767,298	-6,57
767,522	-6,01
767,747	-4,93
767,972	-6,23
768,197	-5,94
768,421	-9,51
768,646	-12,41
768,871	-16,88
769,095	-17,02
769,32	-15,87
769,545	-14,76
769,769	-13,45
769,994	-13,36
770,218	-16,14
770,443	-15,73
770,667	-13,96
770,892	-13,02
771,116	-14,08
771,341	-10,42
771,565	-10,17
771,79	-10,22
772,014	-9,45
772,238	-10,37
772,463	-6,43
772,687	-6,67
772,911	-6,66
773,136	-9,11
773,36	-7,53
773,584	-5,32
773,808	-8,5
774,033	-8,36
774,257	-9,42
774,481	-11,24
774,705	-13,2
774,929	-13,18
775,153	-13,27
775,377	-11,34
775,602	-10,81
775,826	-8,02
776,05	-6
776,274	-8,35
776,498	-8,97
776,722	-10,18
776,945	-7,85
777,169	-7,59
777,393	-8,53
777,617	-10,19
777,841	-9,51
778,065	-8,28
778,289	-10,85
778,512	-12,5
778,736	-11,68
778,96	-12,69
779,184	-9,51
779,407	-12
779,631	-11,68
779,855	-14,1
780,078	-10,72
780,302	-12,95
780,526	-16,04
780,749	-14,56
780,973	-13
781,196	-12,61
781,42	-14,33
781,643	-13,87
781,867	-13,29
782,09	-15,85
782,314	-15,71
782,537	-16,88
782,76	-17,43
782,984	-17,77
783,207	-16,8
783,431	-16,37
783,654	-18,23
783,877	-22,62
784,1	-24,13
784,324	-24,58
784,547	-23,57
784,77	-28,02
784,993	-29,75
785,216	-30,22
785,44	-30,05
785,663	-31,99
785,886	-29,42
786,109	-30,93
786,332	-30,01
786,555	-30,09
786,778	-26,66
787,001	-27,73
787,224	-25,63
787,447	-24,07
787,67	-22,61
787,893	-23,09
788,116	-22,01
788,339	-19,54
788,561	-20,84
788,784	-23,96
789,007	-24,76
789,23	-26,81
789,453	-26,17
789,675	-28,97
789,898	-31,11
790,121	-32,65
790,344	-33,33
790,566	-32,55
790,789	-30,58
791,012	-30,42
791,234	-26,72
791,457	-23,96
791,679	-21,76
791,902	-20,35
792,124	-19,06
792,347	-19,75
792,569	-18,36
792,792	-22,42
793,014	-18,58
793,237	-17,39
793,459	-16,76
793,681	-16,23
793,904	-17,75
794,126	-19,15
794,348	-18,32
794,571	-16,32
794,793	-16,59
795,015	-16,2
795,237	-16,49
795,46	-14,66
795,682	-13,53
795,904	-11,49
796,126	-11,65
796,348	-10,63
796,57	-6,04
796,792	-4,39
797,014	0,84
797,237	4,27
797,459	6,33
797,681	7,45
797,903	6,36
798,124	5,85
798,346	17,76
798,568	18,21
798,79	21,29
799,012	21,91
799,234	24,83
799,456	24,98
799,678	29,27
799,899	26,02
800,121	23,27
800,343	23,18
800,565	22,62
800,786	24,07
801,008	25,13
801,23	24,41
801,451	23,91
801,673	21,49
801,895	21,15
802,116	21,89
802,338	23,65
802,559	24,7
802,781	22,57
803,002	24,23
803,224	25,6
803,445	22,77
803,667	24,09
803,888	21,37
804,109	19,87
804,331	19,95
804,552	20,87
804,773	23,63
804,995	20,21
805,216	5,73
805,437	3,07
805,658	-0,31
805,88	-1,31
806,101	-1,84
806,322	-1,36
806,543	-2,47
806,764	-4,78
806,985	-2,8
807,207	-0,88
807,428	0,49
807,649	-3,65
807,87	-6,29
808,091	-5,09
808,312	-5,8
808,533	-0,05
808,754	1,76
808,975	0,04
809,195	0,72
809,416	0,83
809,637	1,35
809,858	-0,13
810,079	-1,88
810,3	0,53
810,52	-0,98
810,741	-2,77
810,962	-4,69
811,183	-5,68
811,403	-6,26
811,624	-8,33
811,845	-6,22
812,065	-5,09
812,286	-1,91
812,506	-2,1
812,727	-2,59
812,948	-2,76
813,168	-0,73
813,389	-2,46
813,609	-0,2
813,83	-1,64
814,05	-4,96
814,27	-5,1
814,491	-0,01
814,711	0,57
814,931	-3,2
815,152	-2,17
815,372	-4,66
815,592	-6,8
815,813	-7,21
816,033	-8,25
816,253	-8,07
816,473	-9,24
816,694	-7,84
816,914	-7,52
817,134	-7,95
817,354	-9,76
817,574	-8,48
817,794	-8,39
818,014	-8,78
818,234	-8,87
818,454	-10,12
818,674	-11,71
818,894	-14,09
819,114	-13,6
819,334	-12,7
819,554	-10,56
819,774	-7,63
819,994	-10,77
820,214	-11,75
820,433	-11,73
820,653	-11,55
820,873	-7,93
821,093	-8,48
821,312	-10,81
821,532	-8,68
821,752	-3,5
821,972	-6,77
822,191	-4,65
822,411	-5,29
822,63	-5,31
822,85	-6,04
823,07	-8,52
823,289	-6,17
823,509	-7,42
823,728	-4,37
823,948	-6,38
824,167	-6,37
824,387	-7,47
824,606	-5,61
824,825	-8,25
825,045	-8,91
825,264	-8,22
825,483	-6,26
825,703	-4,4
825,922	-6,81
826,141	-8,82
826,361	-10,27
826,58	-13,92
826,799	-15,22
827,018	-13,03
827,237	-12,38
827,456	-10,22
827,676	-12,12
827,895	-11,9
828,114	-10,94
828,333	-11,39
828,552	-13,99
828,771	-11,68
828,99	-14,73
829,209	-13,95
829,428	-11,46
829,647	-11,92
829,866	-9,68
830,084	-9,34
830,303	-10,6
830,522	-11,67
830,741	-11,78
830,96	-10,8
831,179	-11,35
831,397	-14,39
831,616	-11,93
831,835	-12,81
832,053	-11,23
832,272	-12,07
832,491	-11,14
832,709	-12,08
832,928	-10,4
833,147	-10,13
833,365	-8,75
833,584	-5,48
833,802	-3,12
834,021	-3,33
834,239	-2,47
834,458	-3,49
834,676	-6,4
834,894	-7,19
835,113	-8,91
835,331	-8,58
835,55	-9,31
835,768	-8,63
835,986	-8,2
836,204	-9,1
836,423	-8,06
836,641	-9,23
836,859	-11,69
837,077	-10,23
837,296	-11,12
837,514	-10,74
837,732	-11,81
837,95	-12,17
838,168	-8,29
838,386	-9,16
838,604	-5,51
838,822	-5,4
839,04	-7,11
839,258	-6,76
839,476	-3,62
839,694	-4,27
839,912	-4,39
840,13	-5,47
840,348	-2,15
840,566	-5,68
840,783	-3,88
841,001	-7,29
841,219	-5,26
841,437	-4,93
841,655	-4,14
841,872	-3,38
842,09	-4,45
842,308	-3,31
842,525	-4,5
842,743	-3,25
842,961	-5
843,178	-7,13
843,396	-3,86
843,613	-1,74
843,831	0
844,048	0,41
844,266	0,67
844,483	-0,61
844,701	-0,66
844,918	0,42
845,136	-0,82
845,353	-3,04
845,57	-1,74
845,788	1,97
846,005	-0,9
846,222	-2,87
846,439	-0,7
846,657	-1,25
846,874	-1,18
847,091	-6,42
847,308	-4,5
847,526	-5,26
847,743	-4,02
847,96	-5,7
848,177	-4,46
848,394	-4,87
848,611	-4,88
848,828	-5,53
849,045	-8,5
849,262	-6,91
849,479	-8,1
849,696	-8,33
849,913	-9,39
850,13	-12,79
850,347	-10,63
850,564	-12,26
850,78	-14,77
850,997	-18,04
851,214	-16,84
851,431	-16,11
851,647	-21,7
851,864	-19,49
852,081	-18,46
852,298	-23,47
852,514	-24,47
852,731	-22,14
852,948	-20,96
853,164	-20,97
853,381	-21,12
853,597	-20,92
853,814	-20,02
854,03	-23,57
854,247	-21,88
854,463	-21,72
854,68	-22,71
854,896	-21,72
855,113	-20,93
855,329	-20,42
855,545	-17,42
855,762	-16,7
855,978	-19,82
856,194	-21,32
856,411	-18,26
856,627	-16,28
856,843	-15,55
857,059	-13,96
857,275	-15,67
857,492	-14,43
857,708	-8,92
857,924	-7,37
858,14	-4,85
858,356	-4,65
858,572	-4,22
858,788	-5,7
859,004	-2,12
859,22	-5,3
859,436	-5,35
859,652	-5,44
859,868	-6,52
860,084	-5,99
860,3	-6,07
860,516	-7,38
860,731	-6,69
860,947	-10,72
861,163	-9,67
861,379	-9,32
861,595	-8,45
861,81	-7,63
862,026	-7,5
862,242	-7,85
862,457	-6,99
862,673	-5,77
862,889	-4,97
863,104	-5,91
863,32	-5
863,535	-3,91
863,751	-8,1
863,966	-3,88
864,182	-1,17
864,397	-3,66
864,613	-5,78
864,828	-8,5
865,044	-4,92
865,259	-5,48
865,474	-7
865,69	-6,11
865,905	-5,03
866,12	-7,79
866,336	-8,96
866,551	-8,09
866,766	-8,82
866,981	-9,88
867,196	-9,61
867,412	-8,05
867,627	-6,86
867,842	-8,87
868,057	-7,43
868,272	-8,09
868,487	-8,87
868,702	-11,51
868,917	-12,2
869,132	-11,19
869,347	-10,35
869,562	-11,93
869,777	-11,78
869,992	-13,24
870,207	-14,32
870,422	-15,41
870,636	-18,18
870,851	-20,71
871,066	-23,4
871,281	-21,93
871,495	-22,99
871,71	-20,62
871,925	-22,17
872,14	-21,41
872,354	-23,55
872,569	-24,29
872,783	-22,01
872,998	-21,46
873,213	-22,7
873,427	-20,97
873,642	-21,01
873,856	-20,04
874,071	-20,52
874,285	-21,14
874,5	-21,29
874,714	-23,04
874,928	-23,89
875,143	-25,08
875,357	-22,86
875,571	-23,44
875,786	-23,19
876	-19,87
876,214	-18,35
876,429	-20,12
876,643	-18,69
876,857	-17,35
877,071	-15,88
877,285	-16,76
877,499	-19,98
877,714	-15,9
877,928	-14,42
878,142	-15,98
878,356	-19,58
878,57	-17,94
878,784	-17,57
878,998	-17,48
879,212	-13,52
879,426	-16,13
879,639	-13,96
879,853	-14,82
880,067	-15,48
880,281	-15,55
880,495	-14,86
880,709	-12,93
880,922	-12,66
881,136	-10,92
881,35	-9,66
881,564	-10,01
881,777	-10,97
881,991	-10,94
882,205	-9,67
882,418	-10,35
882,632	-13,5
882,845	-13,87
883,059	-14
883,273	-16,31
883,486	-17,75
883,7	-14,44
883,913	-14,98
884,126	-12,74
884,34	-15,77
884,553	-18,82
884,767	-12,98
884,98	-12,78
885,193	-13,99
885,407	-14,1
885,62	-12,34
885,833	-12,34
886,046	-9,23
886,26	-12
886,473	-13,06
886,686	-12,33
886,899	-10,05
887,112	-10,83
887,326	-13,71
887,539	-13,73
887,752	-13,37
887,965	-15,1
888,178	-14,3
888,391	-14,48
888,604	-14,85
888,817	-14,48
889,03	-13,44
889,243	-13,97
889,455	-16,39
889,668	-15,46
889,881	-11,2
890,094	-11,45
890,307	-15,02
890,52	-12,27
890,732	-11,72
890,945	-12,48
891,158	-10,98
891,37	-13,61
891,583	-13,7
891,796	-12,94
892,008	-14,38
892,221	-16,04
892,434	-20,4
892,646	-20,68
892,859	-20,69
893,071	-18,52
893,284	-17,45
893,496	-18,99
893,709	-19,04
893,921	-18,09
894,133	-17,37
894,346	-17,89
894,558	-18,35
894,771	-18,1
894,983	-16,06
895,195	-14,77
895,407	-15,98
895,62	-19,07
895,832	-18,38
896,044	-14,57
896,256	-15,64
896,468	-17,49
896,681	-15,28
896,893	-14,14
897,105	-15,43
897,317	-15,25
897,529	-12,85
897,741	-12,95
897,953	-11,15
898,165	-12,57
898,377	-13,2
898,589	-10,44
898,801	-11,76
899,013	-8,5
899,224	-6,96
899,436	-4,22
899,648	-5,26
899,86	-7,23
900,072	-4,16
900,283	-2,5
900,495	-0,67
900,707	-0,38
900,919	-4,2
901,13	-2,51
901,342	-3,53
901,554	-4,86
901,765	-5,62
901,977	-7,08
902,188	-6,64
902,4	-8,53
902,611	-11,14
902,823	-12,31
903,034	-15,89
903,246	-17,92
903,457	-18,75
903,669	-20,29
903,88	-20,23
904,091	-20,54
904,303	-19,46
904,514	-20,41
904,725	-17,53
904,936	-17,14
905,148	-17,01
905,359	-13,29
905,57	-14,55
905,781	-15,89
905,992	-18,4
906,204	-16,05
906,415	-16,94
906,626	-19,97
906,837	-18,64
907,048	-19,39
907,259	-21,45
907,47	-20,52
907,681	-21,67
907,892	-19,37
908,103	-19,58
908,314	-21,27
908,525	-19,4
908,735	-18,18
908,946	-18,47
909,157	-19,22
909,368	-16,64
909,579	-13,89
909,789	-15,42
910	-18,46
910,211	-15,79
910,421	-17,83
910,632	-15,85
910,843	-18,96
911,053	-16,72
911,264	-15,24
911,475	-16,13
911,685	-16,12
911,896	-16,36
912,106	-15,03
912,317	-18,11
912,527	-14,65
912,737	-16,04
912,948	-13,92
913,158	-14,07
913,369	-17,2
913,579	-14,18
913,789	-12,72
914	-8,36
914,21	-8,1
914,42	-7,72
914,63	-6,94
914,841	-6,03
915,051	-3,75
915,261	-3,39
915,471	-0,66
915,681	1,8
915,891	1,65
916,101	0,76
916,311	1,05
916,521	4,53
916,731	5,55
916,941	8,71
917,151	6,66
917,361	10,55
917,571	6,87
917,781	4,98
917,991	2,65
918,201	1,95
918,411	-0,92
918,621	-2,36
918,83	0,69
919,04	-1,88
919,25	-0,18
919,46	0,41
919,669	-1,78
919,879	-1,5
920,089	-4,67
920,298	-5,74
920,508	-6,67
920,717	-4,83
920,927	-7,39
921,136	-6,72
921,346	-8,25
921,555	-11,81
921,765	-12,66
921,974	-13,76
922,184	-18,06
922,393	-18,7
922,603	-21,41
922,812	-20,32
923,021	-21,66
923,23	-23,35
923,44	-23,78
923,649	-23,01
923,858	-25,25
924,067	-23,89
924,277	-25,86
924,486	-21,88
924,695	-23,05
924,904	-21,35
925,113	-19,91
925,322	-19,56
925,531	-18,92
925,74	-21,98
925,949	-22,96
926,158	-20,6
926,367	-19,48
926,576	-17,87
926,785	-18,55
926,994	-20,69
927,203	-20,03
927,412	-19,43
927,621	-20,53
927,83	-18,14
928,038	-17,97
928,247	-17,49
928,456	-16,82
928,665	-13,47
928,873	-10,96
929,082	-6,34
929,291	-4,65
929,499	-2,73
929,708	-4,83
929,916	-6,31
930,125	-7,79
930,333	-7,03
930,542	-5,54
930,75	-2,74
930,959	-3
931,167	-3,67
931,376	-4,48
931,584	-3,14
931,793	-2,19
932,001	-2,43
932,209	-4,19
932,418	-6,15
932,626	-6,08
932,834	-8,57
933,042	-12,96
933,251	-12,88
933,459	-12,35
933,667	-14,67
933,875	-14,83
934,083	-13,44
934,291	-12,45
934,499	-10,99
934,707	-11,45
934,915	-12,37
935,123	-10,57
935,331	-12,23
935,539	-15,8
935,747	-17,49
935,955	-19,09
936,163	-17,39
936,371	-16,54
936,579	-14,34
936,787	-15,81
936,995	-17,79
937,202	-20,95
937,41	-21,97
937,618	-21,25
937,826	-20,79
938,033	-26,53
938,241	-29,34
938,449	-28,11
938,656	-25,24
938,864	-24,04
939,071	-25,38
939,279	-23,02
939,486	-18,75
939,694	-19,27
939,901	-19,64
940,109	-18,1
940,316	-17,6
940,524	-18,71
940,731	-20,55
940,939	-19,65
941,146	-20,53
941,353	-21,15
941,561	-22,9
941,768	-24,65
941,975	-22,45
942,182	-23,09
942,39	-21,44
942,597	-18,71
942,804	-19,98
943,011	-20,79
943,218	-20,17
943,425	-20,23
943,632	-18,82
943,839	-18,81
944,046	-20,04
944,253	-19,47
944,46	-18,28
944,667	-14,15
944,874	-14,81
945,081	-12,41
945,288	-11,88
945,495	-8,35
945,702	-8,75
945,909	-11,58
946,115	-9,52
946,322	-11,3
946,529	-13,21
946,736	-13,03
946,942	-12,11
947,149	-12,64
947,356	-16,04
947,562	-17,65
947,769	-18,87
947,976	-19,44
948,182	-17,32
948,389	-18,06
948,595	-17,84
948,802	-18,51
949,008	-21,54
949,215	-19,3
949,421	-20,92
949,628	-22,04
949,834	-21,65
950,04	-22,58
950,247	-19,21
950,453	-16,73
950,659	-18,9
950,865	-16,81
951,072	-22,11
951,278	-20,53
951,484	-22,75
951,69	-25,74
951,896	-28,18
952,103	-28,98
952,309	-26,96
952,515	-26,86
952,721	-23,94
952,927	-21,67
953,133	-23,83
953,339	-24,8
953,545	-24,59
953,751	-23,01
953,957	-19,75
954,163	-20,73
954,369	-19,22
954,574	-20,61
954,78	-21,12
954,986	-19,82
955,192	-17,89
955,398	-18,45
955,603	-21,03
955,809	-18,97
956,015	-17,28
956,22	-17,95
956,426	-15,89
956,632	-19
956,837	-19,22
957,043	-17,87
957,248	-16,87
957,454	-15,27
957,66	-16,36
957,865	-17,7
958,07	-16,19
958,276	-16,79
958,481	-17,7
958,687	-19,73
958,892	-19,82
959,097	-20,71
959,303	-22,27
959,508	-23,57
959,713	-22,16
959,919	-22,54
960,124	-23,14
960,329	-22,49
960,534	-18,48
960,739	-19,6
960,945	-17,23
961,15	-16,48
961,355	-18
961,56	-22,22
961,765	-22,38
961,97	-21,83
962,175	-20,01
962,38	-22,84
962,585	-21,54
962,79	-23,68
962,995	-25,03
963,2	-26,56
963,404	-25,96
963,609	-29,97
963,814	-32,35
964,019	-35,85
964,224	-36,82
964,428	-35,19
964,633	-34,2
964,838	-32,9
965,042	-32,04
965,247	-33,76
965,452	-34,28
965,656	-31,68
965,861	-28,95
966,066	-31,31
966,27	-28,05
966,475	-23,57
966,679	-27,76
966,884	-28,26
967,088	-29,2
967,292	-31,1
967,497	-29,58
967,701	-31,1
967,906	-28,84
968,11	-25,6
968,314	-21,71
968,518	-24,04
968,723	-22,41
968,927	-20,5
969,131	-18,25
969,335	-14,95
969,539	-15,36
969,744	-14,73
969,948	-11,12
970,152	-8,06
970,356	-6,29
970,56	-5,41
970,764	-6,66
970,968	-2,71
971,172	-1,07
971,376	-1,16
971,58	0,25
971,784	2,29
971,988	-0,22
972,192	2,39
972,395	2,14
972,599	-1,41
972,803	-3,83
973,007	-2,04
973,21	-0,8
973,414	-1,24
973,618	-0,46
973,822	-1,49
974,025	0,63
974,229	1,2
974,432	-2,21
974,636	-5,38
974,84	-3,9
975,043	-2,09
975,247	-4,55
975,45	-5,69
975,654	-5,57
975,857	-3,49
976,06	-4,67
976,264	-6,13
976,467	-4,82
976,671	-5,29
976,874	-4,93
977,077	-6,01
977,28	-9,62
977,484	-13,52
977,687	-13,86
977,89	-12,31
978,093	-13,56
978,297	-11,74
978,5	-14,86
978,703	-12,51
978,906	-11,19
979,109	-11,69
979,312	-9,84
979,515	-11,35
979,718	-11,76
979,921	-12,41
980,124	-13,83
980,327	-14,53
980,53	-16,21
980,733	-13,91
980,936	-11,67
981,138	-12,35
981,341	-13,02
981,544	-12,57
981,747	-13,71
981,949	-15,59
982,152	-13,91
982,355	-14,05
982,558	-10,46
982,76	-13,71
982,963	-13,52
983,165	-12,55
983,368	-11,45
983,571	-11,14
983,773	-7,59
983,976	-7,46
984,178	-7,97
984,381	-8,05
984,583	-10,72
984,785	-9,73
984,988	-7,72
985,19	-6,69
985,392	-8,28
985,595	-11,08
985,797	-10,25
985,999	-6,63
986,202	-4,69
986,404	-5,47
986,606	-1,17
986,808	-1,3
987,01	0,07
987,212	0,36
987,415	-2,05
987,617	-1,87
987,819	-2,25
988,021	-1,14
988,223	-1,94
988,425	-4,8
988,627	-4,19
988,829	-8,84
989,031	-5,75
989,232	-7,55
989,434	-5,56
989,636	-5,6
989,838	-6,52
990,04	-5,22
990,242	-6,48
990,443	-7,84
990,645	-5,04
990,847	-2,04
991,048	-2,29
991,25	-4,87
991,452	-5,39
991,653	-5,83
991,855	-5
992,057	-6,34
992,258	-5,8
992,46	-7,46
992,661	-5,62
992,863	-8,74
993,064	-7,59
993,265	-10,21
993,467	-12,05
993,668	-10,5
993,87	-10,19
994,071	-10,96
994,272	-11,02
994,473	-9,28
994,675	-8,61
994,876	-9,17
995,077	-7,88
995,278	-8,72
995,48	-6,77
995,681	-9,09
995,882	-7,9
996,083	-8,37
996,284	-12,24
996,485	-11,07
996,686	-12,94
996,887	-15,35
997,088	-19,01
997,289	-21,57
997,49	-22,15
997,691	-23,04
997,892	-22,21
998,092	-19,59
998,293	-20,69
998,494	-22,25
998,695	-22,52
998,896	-21,12
999,096	-21,1
999,297	-20,81
999,498	-21,3
999,698	-23,9
999,899	-26,44
1000,1	-27,87
1000,3	-27,57
1000,501	-28,15
1000,701	-28,36
1000,902	-27,66
1001,102	-27,12
1001,303	-25,45
1001,503	-27,91
1001,704	-28,15
1001,904	-29,55
1002,105	-29,22
1002,305	-28,09
1002,505	-28,65
1002,706	-29,4
1002,906	-28,07
1003,106	-28,51
1003,306	-27,43
1003,507	-24,45
1003,707	-25,36
1003,907	-21,98
1004,107	-20,55
1004,307	-21,61
1004,507	-18,91
1004,707	-19,08
1004,907	-19,77
1005,107	-19,89
1005,308	-19,81
1005,507	-21,7
1005,707	-19,55
1005,907	-19,58
1006,107	-15,77
1006,307	-15,33
1006,507	-15,39
1006,707	-13,87
1006,907	-12,46
1007,106	-13,58
1007,306	-14,1
1007,506	-14,68
1007,706	-13,27
1007,905	-14,74
1008,105	-14,6
1008,305	-16,73
1008,504	-15,48
1008,704	-9,35
1008,903	-8,07
1009,103	-6,37
1009,303	-7,99
1009,502	-7,9
1009,702	-9,24
1009,901	-8,11
1010,1	-11,91
1010,3	-10,66
1010,499	-12,57
1010,699	-13,69
1010,898	-14,22
1011,097	-13,72
1011,296	-15,04
1011,496	-16,21
1011,695	-15,2
1011,894	-17,43
1012,093	-14,56
1012,293	-14,78
1012,492	-14,84
1012,691	-15,39
1012,89	-17,14
1013,089	-21,44
1013,288	-19,32
1013,487	-18,95
1013,686	-19,06
1013,885	-21,76
1014,084	-20,55
1014,283	-20,24
1014,482	-20,69
1014,681	-21,98
1014,88	-27,68
1015,078	-28,05
1015,277	-29,99
1015,476	-30,17
1015,675	-30,33
1015,873	-28,84
1016,072	-29,46
1016,271	-25,75
1016,47	-30,85
1016,668	-28,64
1016,867	-29,48
1017,065	-31,55
1017,264	-33,04
1017,463	-30,93
1017,661	-30,5
1017,86	-30,28
1018,058	-28,41
1018,256	-30,62
1018,455	-33,14
1018,653	-32,57
1018,852	-32,04
1019,05	-33,63
1019,248	-35,31
1019,447	-37,56
1019,645	-38,02
1019,843	-39,79
1020,041	-36,65
1020,24	-37,77
1020,438	-32,29
1020,636	-32,63
1020,834	-34,7
1021,032	-31,28
1021,23	-30,94
1021,428	-30,01
1021,626	-26,31
1021,824	-25,4
1022,022	-27,17
1022,22	-25,06
1022,418	-25
1022,616	-24,09
1022,814	-25,58
1023,012	-26,23
1023,21	-23,69
1023,408	-23,5
1023,606	-25,37
1023,803	-19,78
1024,001	-20,8
1024,199	-24,38
1024,397	-22,25
1024,594	-21,78
1024,792	-22,71
1024,99	-21,68
1025,187	-20,26
1025,385	-14,34
1025,582	-14,18
1025,78	-13,97
1025,977	-13,14
1026,175	-13,83
1026,372	-12,58
1026,57	-16,99
1026,767	-13,57
1026,965	-11,34
1027,162	-11,46
1027,359	-11,97
1027,557	-11,48
1027,754	-15,53
1027,951	-16,71
1028,148	-14,5
1028,346	-18,86
1028,543	-23,02
1028,74	-23,02
1028,937	-24,54
1029,134	-24,89
1029,331	-26,44
1029,528	-24,83
1029,725	-26,48
1029,923	-30,77
1030,12	-26,78
1030,317	-24,69
1030,513	-23,28
1030,71	-22,13
1030,907	-20,49
1031,104	-21,54
1031,301	-22,69
1031,498	-22,24
1031,695	-22,11
1031,892	-22,07
1032,088	-21,55
1032,285	-22,76
1032,482	-24
1032,678	-25,92
1032,875	-28,04
1033,072	-27,51
1033,268	-28,54
1033,465	-29,01
1033,662	-31,85
1033,858	-30,6
1034,055	-30,93
1034,251	-28,8
1034,448	-27,16
1034,644	-25,83
1034,84	-23,77
1035,037	-21,65
1035,233	-21,98
1035,43	-20,26
1035,626	-21,03
1035,822	-19,03
1036,019	-19,55
1036,215	-24,82
1036,411	-25,23
1036,607	-26,97
1036,803	-29,75
1037	-30,83
1037,196	-30,68
1037,392	-31,01
1037,588	-33,63
1037,784	-33,03
1037,98	-33,98
1038,176	-34,2
1038,372	-34,13
1038,568	-32,2
1038,764	-30,76
1038,96	-28,6
1039,156	-30,77
1039,352	-33,35
1039,547	-30,99
1039,743	-28,65
1039,939	-25,02
1040,135	-24,43
1040,331	-27,08
1040,526	-24,46
1040,722	-24,94
1040,918	-25,35
1041,113	-29,02
1041,309	-28,55
1041,505	-31,64
1041,7	-31,54
1041,896	-32,68
1042,091	-33,81
1042,287	-32,14
1042,482	-31,61
1042,678	-32,21
1042,873	-30,31
1043,069	-30,74
1043,264	-31,15
1043,459	-29,49
1043,655	-29,29
1043,85	-29,8
1044,045	-28,71
1044,24	-29,14
1044,436	-27,18
1044,631	-28,2
1044,826	-28,5
1045,021	-32,26
1045,216	-31,46
