Data from FLMT021711__8__18-14-35-688.txt Node

Date: Tue Nov 05 18:14:35 CET 2024
User: Etudiants TP
Spectrometer: FLMT02171
Trigger mode: 0
Integration Time (sec): 1.000000E-1
Scans to average: 5
Electric dark correction enabled: true
Nonlinearity correction enabled: false
Boxcar width: 15
XAxis mode: Wavelengths
Number of Pixels in Spectrum: 3648
>>>>>Begin Spectral Data<<<<<
194.658	-70.68
194.923	-67.37
195.188	-60.54
195.453	-58.65
195.717	-50.75
195.982	-47.88
196.247	-45.79
196.512	-48.57
196.777	-47.42
197.042	-44.84
197.307	-45.12
197.572	-41.39
197.837	-41.92
198.101	-39.21
198.366	-36.3
198.631	-34.52
198.896	-27.34
199.161	-19.12
199.425	-10.84
199.69	0.95
199.955	-0.6
200.22	-3.2
200.484	-3.28
200.749	-3.98
201.014	-2.46
201.278	-0.76
201.543	1.13
201.807	1.67
202.072	2.52
202.337	1.4
202.601	0.67
202.866	-1.66
203.13	-0.94
203.395	-2.51
203.659	-2.69
203.924	-5.76
204.189	-5.56
204.453	-4.38
204.717	-1.37
204.982	-0.18
205.246	0.79
205.511	4.19
205.775	4.34
206.04	9.25
206.304	10.16
206.568	11.53
206.833	11.6
207.097	12.75
207.361	13.44
207.626	17.66
207.89	18.72
208.154	20.05
208.419	21.45
208.683	21.88
208.947	25.54
209.211	25.15
209.476	24.7
209.74	23.81
210.004	24.87
210.268	26.1
210.532	30.14
210.796	31.5
211.061	32.26
211.325	33.68
211.589	31.81
211.853	32.55
212.117	32.9
212.381	33.02
212.645	33.24
212.909	33.05
213.173	30.18
213.437	30.69
213.701	29.66
213.965	30.94
214.229	27.53
214.493	26.05
214.757	24.7
215.021	24.36
215.285	27.51
215.549	30.43
215.813	27.76
216.077	25.66
216.34	27.54
216.604	27.54
216.868	28.29
217.132	28.34
217.396	28.23
217.659	29.01
217.923	25.74
218.187	24.47
218.451	22.82
218.714	19.79
218.978	20.13
219.242	22.77
219.505	22.63
219.769	24.47
220.033	23.86
220.296	24.61
220.56	25
220.824	23.4
221.087	24.29
221.351	25.48
221.614	24.6
221.878	25.36
222.142	23.23
222.405	21.58
222.669	23.08
222.932	19.47
223.196	18.25
223.459	15.23
223.722	14.96
223.986	11.75
224.249	12.07
224.513	12.49
224.776	12.4
225.04	10.87
225.303	8.97
225.566	9.19
225.83	10.51
226.093	14.22
226.356	13.1
226.62	10.97
226.883	12.43
227.146	11.71
227.409	10.28
227.673	8.24
227.936	7.05
228.199	8.61
228.462	6.51
228.725	4.46
228.989	3.08
229.252	4.53
229.515	10.06
229.778	8.84
230.041	8.57
230.304	6.77
230.567	9.08
230.83	8.15
231.093	11.49
231.356	10.82
231.619	16.97
231.882	16.05
232.145	18.92
232.408	17.38
232.671	15.29
232.934	14.07
233.197	13.23
233.46	13.51
233.723	12.76
233.986	9.65
234.249	6.64
234.512	9.11
234.775	13.88
235.037	14.09
235.3	14.43
235.563	16.03
235.826	17.64
236.089	20.85
236.351	19.88
236.614	21.9
236.877	24.04
237.14	27.25
237.402	25.96
237.665	19.02
237.928	18.42
238.19	16.11
238.453	19.56
238.716	18.86
238.978	18.16
239.241	16.8
239.503	20.54
239.766	15.12
240.029	14.52
240.291	18.43
240.554	18.38
240.816	18.81
241.079	19.76
241.341	20.44
241.604	19.24
241.866	18.2
242.129	21.23
242.391	23.9
242.653	22.11
242.916	21.06
243.178	19.38
243.441	20.12
243.703	18.06
243.965	16.57
244.228	15.84
244.49	15.24
244.752	17.32
245.015	19.01
245.277	20.44
245.539	19.9
245.801	21.82
246.064	21.68
246.326	21.25
246.588	20.31
246.85	21.76
247.112	23.88
247.374	26.07
247.637	27.31
247.899	27.68
248.161	26.66
248.423	22.45
248.685	23.5
248.947	23.41
249.209	22.56
249.471	21.67
249.733	23
249.995	21.09
250.257	19.47
250.519	17.48
250.781	20.89
251.043	19.16
251.305	20.16
251.567	21.77
251.829	21.61
252.091	20.4
252.353	16.94
252.615	16.89
252.876	14.35
253.138	10.69
253.4	6.89
253.662	6.81
253.924	9.28
254.185	11.14
254.447	12.39
254.709	12.1
254.971	13.44
255.232	14.6
255.494	11.93
255.756	9.71
256.017	9.78
256.279	9.98
256.541	9.66
256.802	9.44
257.064	10.26
257.326	10.52
257.587	13.43
257.849	13.48
258.11	16.69
258.372	18.03
258.633	18.82
258.895	18.69
259.156	17.99
259.418	18.33
259.679	14
259.941	12.64
260.202	15.17
260.464	17.1
260.725	16.91
260.987	16.01
261.248	15.42
261.509	15.93
261.771	15.43
262.032	16.57
262.293	15.55
262.555	14.73
262.816	11.71
263.077	9.28
263.338	5.56
263.6	6.86
263.861	5.63
264.122	5.46
264.383	8.49
264.645	8.48
264.906	5.99
265.167	5.26
265.428	4.49
265.689	4.65
265.95	3.18
266.211	4.87
266.473	3.75
266.734	0.84
266.995	-4.61
267.256	-4.48
267.517	-2.95
267.778	0.31
268.039	1.16
268.3	0
268.561	-2.29
268.822	1.59
269.083	-0.19
269.344	-1.64
269.604	-3.04
269.865	-2.93
270.126	-8.08
270.387	-5.88
270.648	-4.85
270.909	-3.47
271.17	-3.69
271.43	-6.15
271.691	-8.76
271.952	-9.33
272.213	-8.03
272.473	-9.99
272.734	-7.53
272.995	-4.06
273.256	-2.39
273.516	0.04
273.777	-1.88
274.038	0.42
274.298	-3.08
274.559	-2.78
274.82	3.14
275.08	8.04
275.341	9.61
275.601	8.17
275.862	6.21
276.122	6.46
276.383	6.11
276.643	8.48
276.904	6.75
277.164	9.86
277.425	11.71
277.685	17.51
277.946	17.15
278.206	19.54
278.467	20.29
278.727	20.56
278.987	19.17
279.248	18.73
279.508	21.49
279.768	23.9
280.029	25.43
280.289	21.88
280.549	20.07
280.81	19.94
281.07	19.16
281.33	20.11
281.59	18.59
281.851	19.64
282.111	18.38
282.371	18.01
282.631	18.66
282.891	16.1
283.151	11.52
283.412	9.99
283.672	10.69
283.932	11
284.192	12.18
284.452	10.83
284.712	8.7
284.972	6.18
285.232	4.73
285.492	6.43
285.752	3.24
286.012	10.02
286.272	11.84
286.532	9.52
286.792	9.36
287.052	11.98
287.312	11.87
287.571	9.92
287.831	10.13
288.091	7.77
288.351	8.48
288.611	13.05
288.871	11.43
289.13	11.45
289.39	7.65
289.65	9.6
289.91	7.34
290.17	9.21
290.429	12.46
290.689	10.25
290.949	6.64
291.208	10.29
291.468	13.53
291.728	14.02
291.987	16.84
292.247	15.69
292.506	18.31
292.766	20.99
293.026	21.05
293.285	21.95
293.545	24.98
293.804	23.99
294.064	20.53
294.323	18.31
294.583	17.96
294.842	18.82
295.102	18.43
295.361	18.94
295.621	19.79
295.88	20.68
296.139	19.61
296.399	19.79
296.658	14.45
296.917	14.87
297.177	11.95
297.436	13.08
297.695	10.9
297.955	12.98
298.214	11.78
298.473	12.28
298.732	14.45
298.992	17.22
299.251	16.26
299.51	12.27
299.769	12.22
300.028	11.38
300.287	10.85
300.547	11.24
300.806	8.7
301.065	11.42
301.324	13.17
301.583	8.39
301.842	5.6
302.101	2.56
302.36	2.37
302.619	2.98
302.878	2.34
303.137	0.87
303.396	2.62
303.655	5.35
303.914	2.3
304.173	4.57
304.432	5.07
304.691	7.98
304.95	5.52
305.208	9.56
305.467	11.27
305.726	10.58
305.985	11.37
306.244	13.14
306.503	12.16
306.761	11.36
307.02	8.68
307.279	9.42
307.537	10.95
307.796	8.62
308.055	5.34
308.314	8.17
308.572	5.74
308.831	7.13
309.09	8.28
309.348	9.21
309.607	8.53
309.865	13.91
310.124	14.02
310.382	15.84
310.641	16.88
310.9	16.1
311.158	16.89
311.417	16.24
311.675	16.39
311.933	17.57
312.192	18.31
312.45	18.16
312.709	17.29
312.967	16.62
313.226	15.86
313.484	14.99
313.742	13.56
314.001	10.84
314.259	8.02
314.517	8.65
314.776	10.52
315.034	13.18
315.292	10.34
315.55	7.39
315.809	6.01
316.067	6.56
316.325	3.72
316.583	4.78
316.841	4.31
317.1	1.98
317.358	-2.02
317.616	-2.03
317.874	-3.88
318.132	-3.68
318.39	-3.29
318.648	-5.28
318.906	-5.76
319.164	-7.16
319.422	-9.02
319.68	-10.38
319.938	-10.34
320.196	-10.38
320.454	-9.09
320.712	-9.23
320.97	-7.31
321.228	-8.52
321.486	-7.69
321.744	-5.9
322.002	-4.3
322.26	-4.35
322.517	-3.92
322.775	-7.9
323.033	-9.38
323.291	-7.48
323.549	-5.47
323.806	-2.56
324.064	-1.93
324.322	0.61
324.58	0.34
324.837	2.47
325.095	0.57
325.353	2.16
325.61	4.63
325.868	2.91
326.126	5.64
326.383	3.49
326.641	2.9
326.898	4.11
327.156	5.3
327.413	7.33
327.671	6.82
327.928	7.34
328.186	7.66
328.443	6.99
328.701	11.79
328.958	11.93
329.216	12.18
329.473	10.42
329.731	12.65
329.988	14.24
330.245	15.66
330.503	16.67
330.76	17.54
331.017	20.47
331.275	18.46
331.532	18.41
331.789	16.35
332.047	16.89
332.304	13.36
332.561	13.27
332.818	10.55
333.076	12.95
333.333	13.99
333.59	13.86
333.847	15.6
334.104	13.75
334.361	13.88
334.618	13.7
334.876	11.93
335.133	12.44
335.39	9.51
335.647	11.57
335.904	9.2
336.161	7.03
336.418	7.27
336.675	1.62
336.932	4.66
337.189	3.95
337.446	5.5
337.703	2.76
337.96	-2.42
338.216	-2.19
338.473	-6.07
338.73	-5.01
338.987	-4.6
339.244	-0.85
339.501	-2.18
339.757	-1.77
340.014	-1.31
340.271	-0.13
340.528	0.51
340.785	5
341.041	4.61
341.298	1.16
341.555	1.59
341.811	1.1
342.068	-1.22
342.325	-2.19
342.581	0.42
342.838	2.34
343.094	1.73
343.351	2.97
343.608	0.13
343.864	2.38
344.121	4.09
344.377	3.57
344.634	3.45
344.89	1.09
345.147	1.09
345.403	-0.36
345.66	-0.33
345.916	2.46
346.172	1.77
346.429	1
346.685	-1.37
346.942	-2.45
347.198	-5.72
347.454	-4.55
347.711	-3.6
347.967	-7.15
348.223	-5.16
348.48	-5.35
348.736	-1.75
348.992	-3.13
349.248	-0.04
349.504	-1.21
349.761	-1.34
350.017	-0.16
350.273	0.69
350.529	-0.78
350.785	-0.98
351.041	-1.12
351.297	0.78
351.554	-1.28
351.81	-3.53
352.066	-5.24
352.322	-6.11
352.578	-4.26
352.834	-5.56
353.09	-5.35
353.346	-4.29
353.602	-4.09
353.858	-5.18
354.114	-6.96
354.369	-5.06
354.625	-1.44
354.881	-2.88
355.137	0.16
355.393	0.14
355.649	-0.11
355.905	1.9
356.16	1.79
356.416	2.57
356.672	-5.47
356.928	-4.59
357.183	-5.02
357.439	-5.58
357.695	-6.92
357.951	-1.91
358.206	-1.64
358.462	-1.39
358.718	-3.9
358.973	-2.53
359.229	-3.46
359.484	-1.82
359.74	1.56
359.996	1.82
360.251	6.49
360.507	4.8
360.762	5.29
361.018	8.52
361.273	5.87
361.529	6.88
361.784	7.33
362.04	9.81
362.295	10.23
362.55	10.3
362.806	12.53
363.061	12.5
363.316	12.56
363.572	13.12
363.827	14.46
364.082	10.69
364.338	10.07
364.593	11.03
364.848	12.26
365.104	10.68
365.359	14.82
365.614	16.76
365.869	13.49
366.124	14.21
366.38	12.18
366.635	15.71
366.89	14.79
367.145	15.42
367.4	19.56
367.655	19.53
367.91	21.32
368.165	17.9
368.42	15.21
368.675	14.77
368.93	15
369.185	13.1
369.44	12.66
369.695	14.13
369.95	13.27
370.205	12.14
370.46	9.66
370.715	9.21
370.97	9.74
371.225	10.91
371.48	12.61
371.734	13.44
371.989	15.11
372.244	15.37
372.499	17.84
372.754	16.85
373.008	14.81
373.263	9.49
373.518	11.37
373.773	9.2
374.027	6.18
374.282	9.99
374.537	9.85
374.791	12.52
375.046	11.23
375.301	8.84
375.555	7.07
375.81	6.9
376.064	8.23
376.319	12.35
376.573	11.5
376.828	7.47
377.082	11.59
377.337	8.88
377.591	7.41
377.846	8.47
378.1	10.49
378.355	11.32
378.609	9.99
378.863	7.81
379.118	8.99
379.372	6.2
379.627	4.72
379.881	3.12
380.135	2.73
380.389	1.79
380.644	3.25
380.898	5.4
381.152	6.96
381.407	6.88
381.661	9.55
381.915	13.15
382.169	11.79
382.423	11.3
382.677	7.25
382.932	8.36
383.186	9.29
383.44	9.35
383.694	12.04
383.948	10.31
384.202	9.11
384.456	12.75
384.71	14.17
384.964	14.04
385.218	17.05
385.472	15.98
385.726	15.36
385.98	15.36
386.234	15.47
386.488	14.53
386.742	14.61
386.996	11.12
387.249	13.12
387.503	14.43
387.757	15.37
388.011	17.26
388.265	18.32
388.518	17.8
388.772	20.16
389.026	22.28
389.28	19.54
389.533	17.36
389.787	18.41
390.041	16.96
390.295	15.17
390.548	15.73
390.802	19.06
391.055	17.81
391.309	17.97
391.563	16.43
391.816	17.75
392.07	17.41
392.323	16.79
392.577	17.58
392.83	17.37
393.084	22.59
393.337	27.91
393.591	28.29
393.844	28.76
394.098	31.47
394.351	35.25
394.604	37.2
394.858	40.1
395.111	41.55
395.364	38.67
395.618	41.66
395.871	38.01
396.124	36.31
396.378	35.65
396.631	34.82
396.884	30.78
397.137	29.62
397.391	30.79
397.644	27.62
397.897	27.63
398.15	30.4
398.403	32.13
398.657	29.42
398.91	28.84
399.163	30.22
399.416	28.45
399.669	27.65
399.922	27.01
400.175	28.4
400.428	35.18
400.681	47.53
400.934	58.29
401.187	74.9
401.44	90.98
401.693	102.95
401.946	109.92
402.199	110.81
402.452	113.68
402.704	113.22
402.957	111.83
403.21	115.78
403.463	115.97
403.716	118.76
403.969	121.78
404.221	123.26
404.474	125.79
404.727	130.83
404.98	133.85
405.232	135.06
405.485	137.74
405.738	140.41
405.99	140.18
406.243	141.82
406.496	144.08
406.748	144.34
407.001	142.72
407.253	143.52
407.506	142.82
407.759	143.37
408.011	137.47
408.264	130.59
408.516	118.35
408.769	100.16
409.021	82.88
409.274	67.16
409.526	56.28
409.778	46.75
410.031	44.63
410.283	40.53
410.536	42.52
410.788	41.08
411.04	39.36
411.293	39.69
411.545	39.38
411.797	37.77
412.049	35.73
412.302	34.87
412.554	34.65
412.806	32.28
413.058	30.55
413.311	30.9
413.563	29.34
413.815	28.53
414.067	25.33
414.319	23.51
414.571	24.79
414.823	23.51
415.075	22.77
415.328	23.07
415.58	27.11
415.832	30.75
416.084	30.94
416.336	30.06
416.588	35.34
416.84	32.72
417.091	36.06
417.343	32.06
417.595	34.47
417.847	34.28
418.099	34.49
418.351	32.3
418.603	33.97
418.855	34.18
419.106	33.27
419.358	33.32
419.61	32.86
419.862	32.87
420.114	30.08
420.365	29.68
420.617	30.41
420.869	28.58
421.12	27.9
421.372	28.17
421.624	27.96
421.875	29.77
422.127	26.01
422.379	25.89
422.63	26.77
422.882	25.07
423.133	24.4
423.385	23.5
423.636	22.91
423.888	24.52
424.139	27.27
424.391	22.98
424.642	21.37
424.894	17.96
425.145	18
425.396	13.39
425.648	16.08
425.899	14.47
426.151	16.49
426.402	15.1
426.653	15.65
426.905	13.99
427.156	11.78
427.407	11.64
427.658	11.55
427.91	11.1
428.161	9.54
428.412	12.39
428.663	13.71
428.914	13.55
429.166	15.97
429.417	16.19
429.668	14.95
429.919	14.37
430.17	13.26
430.421	14.25
430.672	18.08
430.923	19.89
431.174	20.48
431.425	31.86
431.676	54.31
431.927	82.86
432.178	125
432.429	171.13
432.68	214.58
432.931	250.68
433.182	280.75
433.433	294.33
433.683	310.49
433.934	316.76
434.185	319.8
434.436	320.2
434.687	323.43
434.937	327
435.188	325.81
435.439	324.8
435.69	325.46
435.94	325.67
436.191	324.59
436.442	323.8
436.692	323.13
436.943	318.75
437.194	317.23
437.444	319.37
437.695	322.6
437.945	322.2
438.196	321.62
438.447	319.81
438.697	318.57
438.948	314.85
439.198	301.17
439.449	273.8
439.699	241.98
439.949	201.33
440.2	155.82
440.45	113.35
440.701	78.91
440.951	51.4
441.201	33.58
441.452	17.97
441.702	9.04
441.952	6.89
442.203	5.42
442.453	2.65
442.703	2.08
442.953	1.61
443.204	2.24
443.454	0.1
443.704	-0.46
443.954	-2.99
444.204	-1.01
444.455	0.15
444.705	1.4
444.955	1.6
445.205	-0.36
445.455	-3.87
445.705	-3.36
445.955	-4.11
446.205	-5.09
446.455	-4.06
446.705	-3.51
446.955	-1.76
447.205	-0.43
447.455	1.48
447.705	-0.62
447.955	-1.75
448.205	-0.91
448.454	-1.84
448.704	-0.13
448.954	-0.8
449.204	-0.21
449.454	0.73
449.704	-3.3
449.953	-3.48
450.203	-1.65
450.453	-4.73
450.703	-2.36
450.952	-3.48
451.202	-1.36
451.452	-2.63
451.701	0.32
451.951	1.38
452.201	0.1
452.45	-0.18
452.7	1.87
452.949	0.74
453.199	1.42
453.448	3.18
453.698	4.37
453.947	4.08
454.197	2.37
454.446	1.13
454.696	3.17
454.945	3.62
455.195	2.12
455.444	2.57
455.693	6.97
455.943	4.46
456.192	5.42
456.442	5
456.691	5.79
456.94	5.52
457.189	4.14
457.439	8.35
457.688	9.89
457.937	9.71
458.186	9.72
458.436	9.48
458.685	11.8
458.934	9.48
459.183	10.06
459.432	11.85
459.681	13.04
459.93	12.63
460.179	12.72
460.429	9.86
460.678	13.61
460.927	18.21
461.176	17.43
461.425	17.71
461.674	20.21
461.923	20.12
462.172	19.96
462.42	17.98
462.669	19.89
462.918	19.89
463.167	20.84
463.416	17.9
463.665	19.68
463.914	19.19
464.162	17.12
464.411	17.69
464.66	19.54
464.909	17.97
465.158	18.15
465.406	17.98
465.655	18
465.904	20.83
466.152	20.15
466.401	20.45
466.65	22.98
466.898	21.34
467.147	16.83
467.395	16.32
467.644	18.64
467.893	17.69
468.141	18.01
468.39	15
468.638	11.92
468.887	9.3
469.135	7.59
469.384	7.65
469.632	8.73
469.88	9.01
470.129	10.92
470.377	7.82
470.626	9.9
470.874	11.88
471.122	12.07
471.371	9.38
471.619	9.75
471.867	13.24
472.115	13.17
472.364	10.76
472.612	14.12
472.86	12.3
473.108	12.73
473.356	13.22
473.605	12.27
473.853	10.17
474.101	9.03
474.349	8.58
474.597	11.73
474.845	10.99
475.093	8.41
475.341	5.42
475.589	7.25
475.837	7.94
476.085	10.87
476.333	9.56
476.581	12.29
476.829	13.22
477.077	15.86
477.325	16.12
477.573	18.66
477.821	17.66
478.069	19.33
478.317	19.81
478.564	22.65
478.812	21.43
479.06	21.4
479.308	21
479.555	22.4
479.803	22.22
480.051	25.69
480.299	26.74
480.546	28.77
480.794	28.47
481.042	31.34
481.289	34.34
481.537	40.1
481.784	43.4
482.032	50.46
482.28	53.53
482.527	57.6
482.775	63.03
483.022	69.46
483.27	75.59
483.517	85.78
483.765	89.52
484.012	94.58
484.259	98.96
484.507	105.9
484.754	109.77
485.002	113.58
485.249	116.48
485.496	123.51
485.744	127.55
485.991	130.88
486.238	131.25
486.486	137.98
486.733	141.97
486.98	147.65
487.227	148.67
487.474	151.99
487.722	154.95
487.969	154.88
488.216	156.9
488.463	158.06
488.71	155.8
488.957	154.62
489.204	153.78
489.451	154.33
489.699	151.72
489.946	147.2
490.193	144.9
490.44	143.15
490.687	141.26
490.934	135.43
491.18	127.46
491.427	125.95
491.674	126.77
491.921	120.55
492.168	116.48
492.415	111.74
492.662	110.33
492.909	109.15
493.155	103.54
493.402	99.72
493.649	94.5
493.896	93.33
494.142	87.63
494.389	85.14
494.636	80.12
494.883	75.04
495.129	72.47
495.376	69.19
495.623	68.92
495.869	68.17
496.116	66.68
496.362	66.75
496.609	67.88
496.855	70
497.102	66.51
497.348	63.37
497.595	64.69
497.841	67.37
498.088	63.76
498.334	61.26
498.581	57.87
498.827	55.96
499.074	54.46
499.32	52.16
499.566	56.57
499.813	55.18
500.059	49.99
500.305	47.56
500.552	45.26
500.798	43.74
501.044	46.22
501.29	44.33
501.537	39.42
501.783	41.57
502.029	42.39
502.275	39.44
502.521	37.12
502.767	36.57
503.013	36.91
503.26	32.86
503.506	28.74
503.752	29.05
503.998	25.76
504.244	24.68
504.49	21.1
504.736	22.19
504.982	21.23
505.228	22.18
505.474	21.16
505.72	22.1
505.966	19.93
506.211	23.06
506.457	22.61
506.703	18.6
506.949	16.11
507.195	12.8
507.441	8.96
507.686	12.54
507.932	11.98
508.178	12.43
508.424	10.64
508.669	6.71
508.915	6.75
509.161	8.43
509.406	7.46
509.652	6.87
509.898	9.14
510.143	10.48
510.389	8.63
510.634	4.9
510.88	7.89
511.125	10.24
511.371	11.53
511.616	11.68
511.862	9.16
512.107	5.85
512.353	5.89
512.598	5.9
512.844	2.65
513.089	0.27
513.335	1.09
513.58	1.2
513.825	1.56
514.071	0.84
514.316	-0.31
514.561	1.8
514.806	0.14
515.052	3
515.297	1.14
515.542	4.06
515.787	5.79
516.033	7.5
516.278	8.25
516.523	8.26
516.768	7.18
517.013	4.22
517.258	4.57
517.503	4.69
517.748	4.96
517.993	4.84
518.238	4.74
518.483	2.79
518.728	1.05
518.973	-1.94
519.218	-1.72
519.463	-1.65
519.708	-1.94
519.953	-3.13
520.198	-3.26
520.443	0.26
520.688	3.55
520.933	1.03
521.177	0.19
521.422	-1.99
521.667	0.59
521.912	2.6
522.157	-1.89
522.401	1.63
522.646	1.11
522.891	2.26
523.135	1.76
523.38	0.79
523.625	-0.98
523.869	0.59
524.114	2.37
524.358	2.25
524.603	3.62
524.848	0.42
525.092	-1.13
525.337	-0.17
525.581	1.83
525.826	4.72
526.07	5.72
526.315	7.96
526.559	6.81
526.803	5.79
527.048	8.73
527.292	10.47
527.537	11.1
527.781	10.84
528.025	8.47
528.269	8.97
528.514	10.76
528.758	10.61
529.002	11.42
529.247	14.43
529.491	13.32
529.735	19.46
529.979	19.33
530.223	21.05
530.467	18.89
530.712	16.76
530.956	15.31
531.2	17.32
531.444	16.72
531.688	19.32
531.932	19.29
532.176	19.65
532.42	21.16
532.664	24.34
532.908	23.68
533.152	22.35
533.396	21.96
533.64	21.95
533.884	19.04
534.128	20.71
534.371	23.56
534.615	26.3
534.859	27.28
535.103	27.8
535.347	29.57
535.59	32.3
535.834	32.46
536.078	35.88
536.322	41.99
536.565	49.2
536.809	51.13
537.053	57.55
537.296	61.76
537.54	70.09
537.784	78.9
538.027	92.15
538.271	102.65
538.514	114.88
538.758	128.15
539.001	137.8
539.245	148.76
539.488	162.6
539.732	176.39
539.975	188.65
540.219	200.55
540.462	211.32
540.706	225.44
540.949	236.79
541.192	247.08
541.436	263.04
541.679	278.99
541.922	294.28
542.166	307.98
542.409	327.59
542.652	349.39
542.895	372.36
543.139	393.14
543.382	412.86
543.625	427.74
543.868	441.99
544.111	449.91
544.354	457.36
544.598	463.95
544.841	468.2
545.084	466.87
545.327	463.56
545.57	461.06
545.813	459.22
546.056	451.81
546.299	444.6
546.542	440.48
546.785	434.85
547.028	427.03
547.271	419.3
547.514	412.23
547.756	401.81
547.999	396.42
548.242	388.67
548.485	377.95
548.728	370.32
548.971	357.89
549.213	347.88
549.456	333.19
549.699	316.49
549.942	296.56
550.184	274.97
550.427	251.77
550.67	230.25
550.912	206.16
551.155	189.99
551.398	172.72
551.64	158.55
551.883	147.43
552.125	135.02
552.368	124.7
552.61	114.53
552.853	109.6
553.095	100.15
553.338	92.28
553.58	87.35
553.823	79.98
554.065	76.36
554.308	67.97
554.55	61.02
554.792	54.2
555.035	47.4
555.277	43.27
555.519	37.96
555.762	32.34
556.004	29.54
556.246	24.42
556.488	22.74
556.731	17.44
556.973	16.86
557.215	13.81
557.457	12.54
557.699	13.28
557.941	9.53
558.183	7.7
558.426	10.55
558.668	5.89
558.91	5.15
559.152	4.66
559.394	3.36
559.636	4.13
559.878	4.57
560.12	3
560.362	3.46
560.604	3.41
560.845	2.07
561.087	0.83
561.329	3.66
561.571	1.05
561.813	1.4
562.055	0.88
562.297	0.7
562.538	2.11
562.78	4.9
563.022	2.83
563.264	3.46
563.505	4.69
563.747	4.26
563.989	2.67
564.23	2.21
564.472	-0.04
564.714	2.34
564.955	4.17
565.197	-0.2
565.438	1.65
565.68	5.49
565.921	3.5
566.163	5.46
566.404	4.02
566.646	5.3
566.887	6.63
567.129	8.95
567.37	7.23
567.612	9.34
567.853	4.62
568.094	6.03
568.336	6.22
568.577	6.99
568.818	7.48
569.06	5.16
569.301	3.01
569.542	4.56
569.783	6.72
570.025	6.42
570.266	4.7
570.507	6.29
570.748	6.26
570.989	5.74
571.23	8.45
571.472	7.99
571.713	6.25
571.954	7.48
572.195	5.3
572.436	6.32
572.677	9.88
572.918	13.55
573.159	12.14
573.4	13.1
573.641	16.67
573.882	21.09
574.123	21.97
574.364	18.96
574.604	19.94
574.845	20.59
575.086	25.19
575.327	31.26
575.568	34.51
575.809	38.45
576.049	41.05
576.29	42.11
576.531	50.88
576.771	58.26
577.012	63.1
577.253	67.5
577.494	70.11
577.734	73.34
577.975	78.09
578.215	80.03
578.456	81.79
578.697	85.1
578.937	88.91
579.178	91.98
579.418	94.7
579.659	97.63
579.899	97.67
580.14	100.29
580.38	102.03
580.62	104.29
580.861	108.98
581.101	108.17
581.342	108.16
581.582	106.15
581.822	110.31
582.063	110.98
582.303	114.02
582.543	113.32
582.783	115.8
583.024	118.07
583.264	121.5
583.504	122.68
583.744	127.07
583.984	128.23
584.224	131.46
584.465	133.53
584.705	135.22
584.945	138.77
585.185	140.99
585.425	143.17
585.665	143.52
585.905	145.13
586.145	145.6
586.385	146.82
586.625	149.76
586.865	148.83
587.105	149.63
587.345	149.15
587.585	148.62
587.824	147.38
588.064	146.68
588.304	144.83
588.544	147.08
588.784	146.23
589.024	150.26
589.263	152.8
589.503	154.87
589.743	160.88
589.982	165.01
590.222	168.45
590.462	168.6
590.701	168.39
590.941	171.91
591.181	169.79
591.42	167.05
591.66	166.61
591.899	167.49
592.139	164.04
592.378	164.46
592.618	161.98
592.857	158.87
593.097	158.57
593.336	155.57
593.576	152.98
593.815	153.28
594.055	151.77
594.294	153.22
594.533	152.95
594.773	154.26
595.012	157.83
595.251	159.7
595.491	163.9
595.73	167.14
595.969	169.14
596.208	172.3
596.447	179.14
596.687	180.07
596.926	180.5
597.165	175.61
597.404	175.89
597.643	171.32
597.882	168.64
598.121	168.37
598.36	168.22
598.599	167.25
598.838	166.73
599.077	161.01
599.316	158.7
599.555	157.87
599.794	156.65
600.033	158.79
600.272	160.18
600.511	158.91
600.75	162.18
600.989	165.84
601.228	165.06
601.466	164.47
601.705	165.04
601.944	165.8
602.183	168.1
602.422	165.6
602.66	163.28
602.899	160.84
603.138	160.71
603.376	158.37
603.615	158.43
603.854	155.02
604.092	154.18
604.331	156.62
604.569	160.71
604.808	161.2
605.047	166.31
605.285	170.87
605.524	176.66
605.762	182.64
606	195.85
606.239	211.35
606.477	232.68
606.716	257.31
606.954	294.99
607.193	345.5
607.431	416.22
607.669	508.82
607.908	621.28
608.146	744.78
608.384	870.48
608.622	995.35
608.861	1111.83
609.099	1220.06
609.337	1318.56
609.575	1408.78
609.813	1492.65
610.052	1569.17
610.29	1632.92
610.528	1690.91
610.766	1744.53
611.004	1792.77
611.242	1835.85
611.48	1877.94
611.718	1910.08
611.956	1942.45
612.194	1972.19
612.432	1995.87
612.67	2016.28
612.908	2035.04
613.146	2045.31
613.384	2051.49
613.621	2050.54
613.859	2046.22
614.097	2031.28
614.335	2006.64
614.573	1964.02
614.811	1900.24
615.048	1813.24
615.286	1710.01
615.524	1594.27
615.761	1471.38
615.999	1352.58
616.237	1242.14
616.474	1140.9
616.712	1048.99
616.95	961.43
617.187	883.27
617.425	813.75
617.662	754.35
617.9	697.72
618.137	647.31
618.375	602.42
618.612	559.79
618.85	523.38
619.087	494.21
619.325	462.74
619.562	433.27
619.799	409.37
620.037	389.03
620.274	369.79
620.511	357.11
620.749	343.85
620.986	334.81
621.223	325.3
621.461	320.46
621.698	318.17
621.935	316.94
622.172	314.95
622.409	319.5
622.647	320.62
622.884	320.22
623.121	326
623.358	327.27
623.595	331.63
623.832	334.51
624.069	336.34
624.306	340.36
624.543	344.48
624.78	348.12
625.017	349.29
625.254	355.02
625.491	359.2
625.728	362.03
625.965	365.14
626.202	365.5
626.438	367.12
626.675	370.58
626.912	377.49
627.149	385.36
627.386	394.93
627.622	403.8
627.859	414.12
628.096	424.49
628.333	434.62
628.569	443.77
628.806	451.78
629.043	454.18
629.279	456.81
629.516	459.18
629.752	452.61
629.989	448.7
630.225	442.81
630.462	435.79
630.699	429.98
630.935	420.9
631.171	409.58
631.408	400.47
631.644	390.32
631.881	379.63
632.117	368.37
632.354	361.2
632.59	350.14
632.826	339.87
633.063	330.61
633.299	321.82
633.535	310.51
633.771	298.8
634.008	289.6
634.244	277.03
634.48	260.37
634.716	244.53
634.953	226.07
635.189	207.43
635.425	190.71
635.661	175.07
635.897	156.73
636.133	140.7
636.369	127.06
636.605	110.93
636.841	100.81
637.077	93.99
637.313	87.16
637.549	81.44
637.785	76.11
638.021	72.92
638.257	69.7
638.493	69.53
638.729	67.02
638.965	69.37
639.2	69.39
639.436	67.36
639.672	65.34
639.908	62.75
640.144	67.07
640.379	68.65
640.615	65.66
640.851	68.25
641.086	69.82
641.322	68.18
641.558	68.01
641.793	68.5
642.029	65.82
642.264	64.12
642.5	63.15
642.736	59.56
642.971	59.45
643.207	57.23
643.442	55.37
643.678	55.6
643.913	58.77
644.148	56.97
644.384	60.15
644.619	59.81
644.855	61.33
645.09	62.15
645.325	62.74
645.561	64.15
645.796	62.69
646.031	66.82
646.266	64.54
646.502	65.46
646.737	70.57
646.972	73.58
647.207	77.72
647.442	79.41
647.678	80.8
647.913	88.54
648.148	93.29
648.383	94.42
648.618	98.35
648.853	102.4
649.088	107.19
649.323	113.9
649.558	117.35
649.793	120.61
650.028	122.55
650.263	120.99
650.498	126.58
650.733	128.49
650.968	128.24
651.202	131.26
651.437	131.79
651.672	128.28
651.907	130.26
652.142	131.49
652.376	132.56
652.611	134.72
652.846	135.59
653.081	135.68
653.315	133.25
653.55	133.13
653.785	131.1
654.019	129.29
654.254	124.92
654.488	123.5
654.723	115.77
654.958	110.72
655.192	103.89
655.427	96.73
655.661	96.09
655.896	95.28
656.13	93.22
656.364	87.73
656.599	81.67
656.833	82.05
657.068	80.74
657.302	78.92
657.536	74.47
657.771	73.57
658.005	72.86
658.239	74.7
658.474	70.78
658.708	71.4
658.942	72.29
659.176	70.08
659.41	69.89
659.645	70.9
659.879	69.82
660.113	68.04
660.347	69.64
660.581	68.74
660.815	69.57
661.049	68.28
661.283	65.26
661.517	64.17
661.751	62.72
661.985	62.4
662.219	61.91
662.453	59.98
662.687	61.82
662.921	57.57
663.155	56.19
663.389	49.67
663.622	48.25
663.856	50.05
664.09	46.33
664.324	45.76
664.558	45.97
664.791	45.29
665.025	42.83
665.259	42.63
665.492	39.23
665.726	41.73
665.96	41.14
666.193	37.91
666.427	38.5
666.661	35.08
666.894	30.48
667.128	28.23
667.361	29.25
667.595	25.23
667.828	23.82
668.062	21.52
668.295	21.15
668.529	21.86
668.762	21.52
668.995	19.34
669.229	22.71
669.462	22.86
669.695	24.85
669.929	22
670.162	21.83
670.395	18.77
670.629	20.19
670.862	22.78
671.095	18.58
671.328	19.54
671.561	16.01
671.795	16.7
672.028	18.96
672.261	20.64
672.494	21.4
672.727	20.57
672.96	22.16
673.193	20.74
673.426	25.61
673.659	24.63
673.892	24.19
674.125	23.9
674.358	22.62
674.591	20.57
674.824	20.7
675.057	18.09
675.29	16.24
675.523	17.01
675.755	15.43
675.988	17.47
676.221	20.9
676.454	18.68
676.687	21.18
676.919	20.53
677.152	21.71
677.385	22.82
677.617	24.02
677.85	25.28
678.083	22.38
678.315	24.74
678.548	23.46
678.78	23.71
679.013	23.73
679.246	24.34
679.478	24.96
679.711	23.29
679.943	25.79
680.175	22.13
680.408	26.13
680.64	20.41
680.873	22.21
681.105	24.77
681.338	28.38
681.57	28.77
681.802	30.6
682.034	31.9
682.267	36.66
682.499	39.21
682.731	37.08
682.964	37.6
683.196	36.15
683.428	34.82
683.66	35.16
683.892	39.14
684.124	44.05
684.356	49.22
684.589	50.86
684.821	50.79
685.053	53.2
685.285	57.14
685.517	61.77
685.749	64.53
685.981	66.29
686.213	67.57
686.445	68.57
686.676	66.62
686.908	68.19
687.14	66.56
687.372	67.36
687.604	63.33
687.836	66.1
688.068	66.2
688.299	64.67
688.531	62.89
688.763	67.82
688.995	65.6
689.226	68.16
689.458	65.75
689.69	64.34
689.921	64.11
690.153	64.38
690.384	65.95
690.616	65.06
690.848	66.27
691.079	61.95
691.311	56.83
691.542	50.95
691.774	48.24
692.005	51.45
692.237	52.67
692.468	49
692.699	46.23
692.931	43.23
693.162	40.01
693.393	36.2
693.625	34.13
693.856	34.59
694.087	34.04
694.319	34.62
694.55	33.03
694.781	32.61
695.012	32.59
695.243	29.11
695.475	28.82
695.706	28.54
695.937	26.96
696.168	27.04
696.399	23.95
696.63	24.1
696.861	24.17
697.092	29.44
697.323	30.84
697.554	31.07
697.785	30.92
698.016	29.96
698.247	27.69
698.478	28.41
698.709	29.48
698.94	30.7
699.171	28.68
699.401	23.97
699.632	26.18
699.863	21.75
700.094	22.99
700.325	27.5
700.555	30.36
700.786	32.09
701.017	32.66
701.247	31.85
701.478	32.42
701.709	35.56
701.939	34.58
702.17	38.37
702.401	43.74
702.631	48.45
702.862	50.16
703.092	49.72
703.323	57.42
703.553	64.4
703.784	70.12
704.014	75.54
704.244	76.67
704.475	81.93
704.705	87.97
704.936	94.22
705.166	99.84
705.396	108.17
705.627	115.85
705.857	124.14
706.087	132.72
706.317	138.15
706.548	143.68
706.778	149
707.008	155.74
707.238	160.73
707.468	161.85
707.698	163.16
707.928	166.46
708.158	167.93
708.389	171.45
708.619	174.5
708.849	175.57
709.079	181.34
709.309	182.12
709.539	183.88
709.768	186.02
709.998	190.77
710.228	192.65
710.458	189.73
710.688	185.22
710.918	182.82
711.148	177.52
711.378	173.67
711.607	167.85
711.837	162.4
712.067	157.1
712.297	150.49
712.526	143.13
712.756	137.73
712.986	127.7
713.215	117.23
713.445	109.99
713.674	104.63
713.904	96.52
714.134	93.37
714.363	87.16
714.593	82.11
714.822	78.32
715.052	73.22
715.281	71.25
715.511	65.2
715.74	60.88
715.969	55.61
716.199	51
716.428	45.88
716.657	39.16
716.887	35.22
717.116	27.09
717.345	24.26
717.575	20.2
717.804	17.74
718.033	12.78
718.262	12.21
718.492	11.02
718.721	9.02
718.95	7.27
719.179	4.18
719.408	3.58
719.637	1.38
719.866	-2.96
720.095	-1.17
720.324	-2.28
720.553	-6.7
720.782	-8.57
721.011	-7.19
721.24	-9.06
721.469	-10.32
721.698	-9.95
721.927	-10.57
722.156	-11.44
722.385	-12.64
722.613	-8.28
722.842	-8.19
723.071	-4.51
723.3	-3.78
723.529	-3.94
723.757	-3.19
723.986	-7.16
724.215	-8.27
724.443	-7.54
724.672	-5.09
724.901	-4.11
725.129	-2.83
725.358	0.84
725.586	-2.28
725.815	-3.03
726.043	-3.73
726.272	-4.78
726.5	-4.91
726.729	-4.37
726.957	-6.37
727.186	-8.88
727.414	-8.43
727.642	-4.37
727.871	-2.29
728.099	-2.67
728.327	-2.13
728.556	0.25
728.784	1.51
729.012	0.28
729.241	2.91
729.469	2.71
729.697	0.31
729.925	1.72
730.153	-1.3
730.381	-1.65
730.61	-2.18
730.838	-4
731.066	-1.67
731.294	-1.53
731.522	-6.11
731.75	-9.75
731.978	-10.91
732.206	-11.03
732.434	-14.04
732.662	-11.44
732.89	-11.52
733.118	-12.59
733.346	-11.95
733.573	-10.76
733.801	-10.92
734.029	-2.68
734.257	-0.91
734.485	3.65
734.712	3.83
734.94	1.28
735.168	4.21
735.396	3.88
735.623	3
735.851	3.66
736.078	5.14
736.306	6.02
736.534	5.61
736.761	6.2
736.989	2.05
737.216	1.14
737.444	-0.19
737.671	1.48
737.899	6.82
738.126	6.13
738.354	6.94
738.581	10.33
738.809	11.04
739.036	9.86
739.263	9.78
739.491	7.16
739.718	6.37
739.945	12.33
740.173	14.14
740.4	14.18
740.627	11.77
740.854	12.66
741.081	9.31
741.309	8.09
741.536	4.24
741.763	2.9
741.99	5.44
742.217	3.61
742.444	2.32
742.671	2.51
742.898	1.7
743.125	0.35
743.352	-3.91
743.579	-5.02
743.806	-5.77
744.033	-1.56
744.26	0.56
744.487	0.28
744.714	0.39
744.941	-1.06
745.167	1.78
745.394	0.88
745.621	-0.63
745.848	-1.23
746.075	1.56
746.301	5.53
746.528	10.41
746.755	8.73
746.981	6.75
747.208	8.96
747.435	11.17
747.661	12.91
747.888	12.87
748.114	9.75
748.341	11.25
748.567	11.93
748.794	9.92
749.02	8.74
749.247	7.68
749.473	7.71
749.7	8.49
749.926	7.68
750.152	11.09
750.379	12.4
750.605	13.67
750.831	12.88
751.058	11.04
751.284	9.79
751.51	11.98
751.737	12.78
751.963	10.67
752.189	8.67
752.415	8.01
752.641	7.55
752.867	7.8
753.094	3.93
753.32	1.26
753.546	-0.64
753.772	1.89
753.998	0.3
754.224	-1.98
754.45	-1.79
754.676	-3.19
754.902	-4.5
755.128	-3.31
755.354	-4.34
755.579	-1.53
755.805	0.3
756.031	-2.08
756.257	-2.59
756.483	-3.72
756.709	-5.44
756.934	-4.77
757.16	-7.27
757.386	-7.82
757.612	-9.14
757.837	-10.4
758.063	-7.43
758.289	-4.98
758.514	-6.85
758.74	-11.2
758.965	-12.75
759.191	-11.4
759.416	-9.74
759.642	-7.28
759.868	-6.87
760.093	-3.15
760.318	-3.19
760.544	-2.88
760.769	-3.47
760.995	-3.32
761.22	-2.51
761.445	-1.05
761.671	1.96
761.896	5.4
762.121	5.5
762.347	5.18
762.572	1.5
762.797	2.56
763.022	4.05
763.248	8.74
763.473	10.38
763.698	9.06
763.923	8.95
764.148	9.12
764.373	9.43
764.598	11.6
764.823	14.11
765.048	10.28
765.273	6.5
765.498	5.32
765.723	5.25
765.948	5.18
766.173	4.06
766.398	4.64
766.623	0.49
766.848	0.49
767.073	-0.94
767.298	-1.75
767.522	-2.02
767.747	-0.59
767.972	-1.76
768.197	-0.5
768.421	-2.45
768.646	-6.64
768.871	-10.15
769.095	-9.38
769.32	-8.1
769.545	-8.42
769.769	-6.98
769.994	-6.32
770.218	-11.05
770.443	-10.21
770.667	-7.83
770.892	-7.58
771.116	-9.54
771.341	-7.9
771.565	-9.11
771.79	-8.94
772.014	-8.4
772.238	-9.19
772.463	-5.84
772.687	-4.9
772.911	-3.58
773.136	-6.23
773.36	-4.04
773.584	-1.53
773.808	-4.31
774.033	-3.87
774.257	-3.15
774.481	-3.74
774.705	-5.23
774.929	-5.67
775.153	-6.46
775.377	-4.05
775.602	-3.72
775.826	-2.23
776.05	-0.04
776.274	-0.7
776.498	0.58
776.722	-1.41
776.945	0.22
777.169	1.35
777.393	0.97
777.617	0.23
777.841	1.73
778.065	5.35
778.289	4.98
778.512	3.55
778.736	3.74
778.96	2.95
779.184	5.84
779.407	4.64
779.631	5.43
779.855	3.71
780.078	6.04
780.302	3.03
780.526	0.57
780.749	2.42
780.973	2.85
781.196	3.36
781.42	0.84
781.643	0.94
781.867	2.98
782.09	0.14
782.314	-2.18
782.537	-2.18
782.76	-1.65
782.984	-0.78
783.207	-1.63
783.431	-2.25
783.654	-4.47
783.877	-6.1
784.1	-8.08
784.324	-9.23
784.547	-9.76
784.77	-14.91
784.993	-16.49
785.216	-19.07
785.44	-17.06
785.663	-19.78
785.886	-18.64
786.109	-18.97
786.332	-17.78
786.555	-16.28
786.778	-13.96
787.001	-14.48
787.224	-12.62
787.447	-10.29
787.67	-10.07
787.893	-9.21
788.116	-9.6
788.339	-7.61
788.561	-8.55
788.784	-12.27
789.007	-13.79
789.23	-14.83
789.453	-14.89
789.675	-18.01
789.898	-22.11
790.121	-24.18
790.344	-23.33
790.566	-21.13
790.789	-21.34
791.012	-19.13
791.234	-16.61
791.457	-14.11
791.679	-11.28
791.902	-10.81
792.124	-9.26
792.347	-12.38
792.569	-12.08
792.792	-14.55
793.014	-11.78
793.237	-10.87
793.459	-11.15
793.681	-11.74
793.904	-12.08
794.126	-13.43
794.348	-13.95
794.571	-11.3
794.793	-13.56
795.015	-12.07
795.237	-13.19
795.46	-12.19
795.682	-11.57
795.904	-9.02
796.126	-9.95
796.348	-9.79
796.57	-5.79
796.792	-3.98
797.014	0.75
797.237	2.12
797.459	4.6
797.681	5.85
797.903	2.43
798.124	2.84
798.346	14.98
798.568	15.6
798.79	19
799.012	21.15
799.234	23.57
799.456	24.63
799.678	27.63
799.899	24.26
800.121	20.38
800.343	20.08
800.565	20.73
800.786	21.28
801.008	22.59
801.23	22.95
801.451	22.08
801.673	20.25
801.895	18.66
802.116	21.67
802.338	23.38
802.559	24.45
802.781	24.92
803.002	26.56
803.224	27.96
803.445	24.55
803.667	24.76
803.888	23
804.109	22.29
804.331	20.37
804.552	19.61
804.773	22.48
804.995	20.39
805.216	5.31
805.437	3.78
805.658	0.93
805.88	-2.34
806.101	-1.74
806.322	-1.06
806.543	-2.24
806.764	-3.52
806.985	-1.38
807.207	-1.24
807.428	0.39
807.649	-2.41
807.87	-4.83
808.091	-5.04
808.312	-4.23
808.533	1.82
808.754	4.66
808.975	1.65
809.195	2.56
809.416	3.6
809.637	2.1
809.858	0.16
810.079	-2.42
810.3	0.71
810.52	-0.59
810.741	-3.46
810.962	-5.47
811.183	-5.93
811.403	-5.33
811.624	-6.14
811.845	-5.13
812.065	-2.85
812.286	-1.68
812.506	-2.57
812.727	-1.34
812.948	0.23
813.168	1.78
813.389	2.15
813.609	3.44
813.83	2.54
814.05	2.07
814.27	1.04
814.491	4.88
814.711	4.44
814.931	1.88
815.152	0.97
815.372	-1.54
815.592	-3.75
815.813	-4.08
816.033	-5.38
816.253	-5.08
816.473	-6.48
816.694	-5.13
816.914	-1.96
817.134	-2.89
817.354	-4.85
817.574	-3.11
817.794	-2.16
818.014	-3.62
818.234	-3.54
818.454	-5.13
818.674	-7.39
818.894	-10.58
819.114	-7.9
819.334	-7.3
819.554	-4.99
819.774	-3.37
819.994	-5.6
820.214	-6.81
820.433	-6.15
820.653	-6.78
820.873	-5.86
821.093	-6.25
821.312	-8.37
821.532	-4.75
821.752	-0.97
821.972	-3.13
822.191	-2.07
822.411	-3.3
822.63	-2.57
822.85	-3.04
823.07	-5.54
823.289	-3.65
823.509	-5.03
823.728	-4.43
823.948	-5.27
824.167	-4.64
824.387	-4.77
824.606	-3.91
824.825	-4.95
825.045	-5.15
825.264	-4.89
825.483	-3.05
825.703	-0.09
825.922	-3.54
826.141	-5.4
826.361	-7.42
826.58	-11.96
826.799	-13.36
827.018	-11.71
827.237	-12.22
827.456	-9.5
827.676	-9.59
827.895	-8.39
828.114	-6.9
828.333	-8.64
828.552	-10.34
828.771	-8.43
828.99	-10.89
829.209	-10.16
829.428	-7.69
829.647	-7.47
829.866	-5.87
830.084	-6.54
830.303	-5.68
830.522	-6.66
830.741	-6.14
830.96	-4.92
831.179	-4.61
831.397	-5.09
831.616	-4.05
831.835	-4.78
832.053	-2.75
832.272	-1.98
832.491	-2.16
832.709	-2.94
832.928	-2.03
833.147	-1.36
833.365	-1.13
833.584	2.37
833.802	3.07
834.021	5.16
834.239	4.65
834.458	3.86
834.676	-0.28
834.894	-1.13
835.113	-0.43
835.331	-0.04
835.55	-1.16
835.768	-0.17
835.986	-0.05
836.204	-2.43
836.423	-1.19
836.641	-2.57
836.859	-3.9
837.077	-3.31
837.296	-2.35
837.514	-3.9
837.732	-5.35
837.95	-5.83
838.168	-3.8
838.386	-4.63
838.604	-2.54
838.822	-2.65
839.04	-4.5
839.258	-3.51
839.476	-0.87
839.694	0.19
839.912	-1.41
840.13	0.28
840.348	2.52
840.566	-0.26
840.783	-0.6
841.001	-2.51
841.219	-1.51
841.437	0.48
841.655	1.4
841.872	0.82
842.09	-0.78
842.308	0.64
842.525	0.86
842.743	2.37
842.961	0.78
843.178	-2.19
843.396	1.36
843.613	3.22
843.831	4.72
844.048	3.59
844.266	4.49
844.483	4.63
844.701	3.09
844.918	2.24
845.136	2.08
845.353	-0.02
845.57	1
845.788	3.45
846.005	-0.42
846.222	-3.49
846.439	-1.51
846.657	-1.31
846.874	-2.23
847.091	-4.46
847.308	-1.9
847.526	-2.83
847.743	-1.62
847.96	-3.94
848.177	-5.51
848.394	-5.19
848.611	-6.59
848.828	-6.66
849.045	-8.43
849.262	-8.71
849.479	-9.37
849.696	-9.49
849.913	-11.57
850.13	-16.32
850.347	-13.89
850.564	-14.7
850.78	-16.62
850.997	-19.31
851.214	-19.83
851.431	-19.11
851.647	-22.6
851.864	-21.29
852.081	-19.21
852.298	-22.62
852.514	-23.68
852.731	-20.41
852.948	-16.3
853.164	-18.26
853.381	-17.86
853.597	-18.6
853.814	-20.97
854.03	-25.53
854.247	-23.95
854.463	-24.12
854.68	-24.9
854.896	-22.48
855.113	-24.29
855.329	-23.6
855.545	-19.91
855.762	-19.99
855.978	-22.58
856.194	-25.32
856.411	-21.96
856.627	-18.79
856.843	-17.73
857.059	-15.74
857.275	-17.52
857.492	-17.17
857.708	-12.33
857.924	-10.42
858.14	-7.5
858.356	-7.73
858.572	-7.44
858.788	-8.3
859.004	-6.07
859.22	-8.21
859.436	-8.23
859.652	-11.81
859.868	-11.98
860.084	-11.46
860.3	-11.17
860.516	-10.84
860.731	-8.69
860.947	-11.34
861.163	-9.82
861.379	-8.29
861.595	-8.13
861.81	-6.09
862.026	-5.09
862.242	-5.98
862.457	-6.32
862.673	-5.45
862.889	-5.21
863.104	-4.92
863.32	-4.81
863.535	-4.49
863.751	-9.46
863.966	-6.45
864.182	-3.96
864.397	-6.12
864.613	-7.07
864.828	-7.68
865.044	-6.41
865.259	-5.15
865.474	-6.46
865.69	-6.14
865.905	-4.5
866.12	-7.5
866.336	-6.53
866.551	-4.52
866.766	-5.15
866.981	-6.36
867.196	-6.84
867.412	-6.7
867.627	-5.84
867.842	-7.74
868.057	-7.11
868.272	-8.1
868.487	-9.85
868.702	-11.66
868.917	-13.25
869.132	-11.3
869.347	-10.35
869.562	-10.24
869.777	-11.27
869.992	-12.81
870.207	-12.62
870.422	-12.99
870.636	-14.92
870.851	-16.09
871.066	-18.35
871.281	-18.58
871.495	-20.95
871.71	-16.66
871.925	-19.02
872.14	-19.36
872.354	-22.42
872.569	-23.45
872.783	-21.01
872.998	-20.66
873.213	-23
873.427	-19.8
873.642	-17.89
873.856	-16.92
874.071	-17.74
874.285	-18.8
874.5	-19.47
874.714	-20.47
874.928	-19.72
875.143	-19.82
875.357	-19.63
875.571	-21.38
875.786	-21.2
876	-17.66
876.214	-15.97
876.429	-18.66
876.643	-15.85
876.857	-14.22
877.071	-12.05
877.285	-12.96
877.499	-15.82
877.714	-12.62
877.928	-9.46
878.142	-10.31
878.356	-14.08
878.57	-12.57
878.784	-11.79
878.998	-10.26
879.212	-8.02
879.426	-10.24
879.639	-8.77
879.853	-8.93
880.067	-10.45
880.281	-11.5
880.495	-11.36
880.709	-7.94
880.922	-7.24
881.136	-6.03
881.35	-4.66
881.564	-6.5
881.777	-8.76
881.991	-8.2
882.205	-4.2
882.418	-4.81
882.632	-9.32
882.845	-9.85
883.059	-7.73
883.273	-9.79
883.486	-11.87
883.7	-10.29
883.913	-10.14
884.126	-7.21
884.34	-10.66
884.553	-13.44
884.767	-8.93
884.98	-8.37
885.193	-10.19
885.407	-10.2
885.62	-9.9
885.833	-8.36
886.046	-6.06
886.26	-8.5
886.473	-8.93
886.686	-10.64
886.899	-9.98
887.112	-9.63
887.326	-13.13
887.539	-13.48
887.752	-12.76
887.965	-14.81
888.178	-12.74
888.391	-10.49
888.604	-10.44
888.817	-13.21
889.03	-12.76
889.243	-13.21
889.455	-14.55
889.668	-14.44
889.881	-11.8
890.094	-11.84
890.307	-14.36
890.52	-14.16
890.732	-14.12
890.945	-13.35
891.158	-13.55
891.37	-16.69
891.583	-17.05
891.796	-15.39
892.008	-17.49
892.221	-17.42
892.434	-23.68
892.646	-25.32
892.859	-26.13
893.071	-24.49
893.284	-22.79
893.496	-22.79
893.709	-23.52
893.921	-21.85
894.133	-21.36
894.346	-21.9
894.558	-22.12
894.771	-22.5
894.983	-21.21
895.195	-20.62
895.407	-19.04
895.62	-20.9
895.832	-18.98
896.044	-18.29
896.256	-20.53
896.468	-21.59
896.681	-19.88
896.893	-18.88
897.105	-19.52
897.317	-21.07
897.529	-19.35
897.741	-18.67
897.953	-15.25
898.165	-16.45
898.377	-17.63
898.589	-16.05
898.801	-16.22
899.013	-12.98
899.224	-9.8
899.436	-6.48
899.648	-7.54
899.86	-8.76
900.072	-5.7
900.283	-4.09
900.495	-1.44
900.707	-0.47
900.919	-3.08
901.13	-0.86
901.342	-3.14
901.554	-4.37
901.765	-3.52
901.977	-5.69
902.188	-5.94
902.4	-7.36
902.611	-7.08
902.823	-7.62
903.034	-11.74
903.246	-14.47
903.457	-16.13
903.669	-15.28
903.88	-14.83
904.091	-15.15
904.303	-13.62
904.514	-15.93
904.725	-13.95
904.936	-12.89
905.148	-12.12
905.359	-9.43
905.57	-8.94
905.781	-10.8
905.992	-12.17
906.204	-12.06
906.415	-11.46
906.626	-13.97
906.837	-11.3
907.048	-13.71
907.259	-16.17
907.47	-17.34
907.681	-19.61
907.892	-16.8
908.103	-16.83
908.314	-20.19
908.525	-18.26
908.735	-17.05
908.946	-18.2
909.157	-20.67
909.368	-17.49
909.579	-14.83
909.789	-15.22
910	-16.55
910.211	-14.49
910.421	-14.23
910.632	-13.21
910.843	-16.31
911.053	-13.78
911.264	-10.6
911.475	-11.26
911.685	-11.05
911.896	-11.61
912.106	-11.09
912.317	-13.79
912.527	-11.97
912.737	-11.46
912.948	-11.34
913.158	-11.41
913.369	-16.32
913.579	-14.66
913.789	-13.16
914	-7.91
914.21	-7.38
914.42	-6.56
914.63	-6.19
914.841	-5.45
915.051	-4.92
915.261	-4.17
915.471	-0.55
915.681	1.52
915.891	0.96
916.101	0.51
916.311	0.24
916.521	2.57
916.731	2.75
916.941	4.55
917.151	3.33
917.361	5.96
917.571	2.55
917.781	-0.51
917.991	-3.08
918.201	-3.14
918.411	-6.52
918.621	-6.52
918.83	-4.34
919.04	-5.73
919.25	-4.64
919.46	-2.83
919.669	-5.58
919.879	-4.21
920.089	-5.8
920.298	-6.12
920.508	-6.45
920.717	-4.14
920.927	-6.1
921.136	-6.95
921.346	-7.58
921.555	-8.93
921.765	-9.72
921.974	-12.1
922.184	-15.06
922.393	-15.85
922.603	-17.64
922.812	-15.1
923.021	-16.17
923.23	-18.3
923.44	-19.96
923.649	-19.99
923.858	-21.63
924.067	-21.04
924.277	-22.76
924.486	-19.78
924.695	-20.96
924.904	-18.6
925.113	-19.84
925.322	-18.54
925.531	-17.81
925.74	-20.43
925.949	-23.44
926.158	-20.73
926.367	-21.46
926.576	-19.93
926.785	-21.13
926.994	-23.03
927.203	-21.98
927.412	-22.36
927.621	-23.26
927.83	-19.92
928.038	-21.03
928.247	-21.45
928.456	-20.88
928.665	-19.03
928.873	-17.5
929.082	-16
929.291	-14.18
929.499	-11.92
929.708	-14.46
929.916	-15.2
930.125	-16.56
930.333	-16.54
930.542	-14.97
930.75	-12.72
930.959	-12.61
931.167	-12.06
931.376	-13.69
931.584	-11.66
931.793	-10.64
932.001	-11.86
932.209	-12.96
932.418	-14.5
932.626	-17.3
932.834	-19.07
933.042	-22.57
933.251	-21.71
933.459	-21.12
933.667	-24.05
933.875	-23.5
934.083	-21.3
934.291	-21.83
934.499	-22.34
934.707	-22.38
934.915	-22.38
935.123	-19.54
935.331	-19.91
935.539	-20.6
935.747	-22.62
935.955	-24.35
936.163	-22.88
936.371	-22.53
936.579	-20.45
936.787	-21.33
936.995	-22.59
937.202	-24.79
937.41	-24.82
937.618	-24.86
937.826	-23.55
938.033	-29.47
938.241	-32.03
938.449	-30.05
938.656	-26.29
938.864	-25.66
939.071	-24.64
939.279	-20.53
939.486	-17.87
939.694	-18.69
939.901	-20.93
940.109	-19.13
940.316	-18.62
940.524	-19.73
940.731	-21.12
940.939	-18.06
941.146	-18.21
941.353	-19.33
941.561	-20.97
941.768	-21.69
941.975	-19.4
942.182	-20.68
942.39	-19.29
942.597	-15.08
942.804	-16.13
943.011	-16.63
943.218	-15.03
943.425	-15.42
943.632	-14.66
943.839	-15.87
944.046	-15.93
944.253	-16.99
944.46	-15.06
944.667	-11.48
944.874	-11.97
945.081	-12.85
945.288	-10.93
945.495	-8.05
945.702	-8.76
945.909	-10.41
946.115	-9.07
946.322	-10.49
946.529	-13.71
946.736	-14.66
946.942	-12.76
947.149	-13.76
947.356	-16.25
947.562	-17.8
947.769	-16.95
947.976	-17.71
948.182	-16.54
948.389	-18.03
948.595	-15.44
948.802	-14.68
949.008	-16.58
949.215	-14.13
949.421	-15
949.628	-15.69
949.834	-15.44
950.04	-14.84
950.247	-10.93
950.453	-10.84
950.659	-11.67
950.865	-9.11
951.072	-14.44
951.278	-12.69
951.484	-14.29
951.69	-17.15
951.896	-18.76
952.103	-20.15
952.309	-18.53
952.515	-17.84
952.721	-14.51
952.927	-11.15
953.133	-13.1
953.339	-15.36
953.545	-15.45
953.751	-13.51
953.957	-11.65
954.163	-13.45
954.369	-12.15
954.574	-14.66
954.78	-15.03
954.986	-15.53
955.192	-14.96
955.398	-17.23
955.603	-20.52
955.809	-18.26
956.015	-17.76
956.22	-17.26
956.426	-16.9
956.632	-19.89
956.837	-19.69
957.043	-19.27
957.248	-19.01
957.454	-16.99
957.66	-19.63
957.865	-18.45
958.07	-17.24
958.276	-17.81
958.481	-18.89
958.687	-20.53
958.892	-21.77
959.097	-21.31
959.303	-20.75
959.508	-19.18
959.713	-18.58
959.919	-17.92
960.124	-18.52
960.329	-17.01
960.534	-13.99
960.739	-14.16
960.945	-10.43
961.15	-10.43
961.355	-12.74
961.56	-17.89
961.765	-18.17
961.97	-17.2
962.175	-16.22
962.38	-19.4
962.585	-19.69
962.79	-21.37
962.995	-22.12
963.2	-23.72
963.404	-23.24
963.609	-26.61
963.814	-28
964.019	-29.9
964.224	-33.15
964.428	-30.73
964.633	-30.66
964.838	-28.06
965.042	-28.09
965.247	-30.11
965.452	-32.09
965.656	-32.93
965.861	-32.29
966.066	-33.27
966.27	-30.93
966.475	-27.79
966.679	-33.3
966.884	-32.07
967.088	-33.47
967.292	-36.15
967.497	-35
967.701	-35.11
967.906	-32.44
968.11	-29.11
968.314	-24.82
968.518	-26.67
968.723	-24.05
968.927	-21.17
969.131	-20.65
969.335	-18.06
969.539	-17.46
969.744	-15.92
969.948	-11.58
970.152	-10.38
970.356	-9.04
970.56	-8.4
970.764	-9.29
970.968	-5.66
971.172	-6.72
971.376	-5.96
971.58	-3.48
971.784	-2.01
971.988	-3.88
972.192	-1.12
972.395	-2.15
972.599	-5.12
972.803	-7.02
973.007	-3.21
973.21	-4.47
973.414	-4.65
973.618	-5.34
973.822	-4.91
974.025	-4.39
974.229	-4.43
974.432	-7.62
974.636	-10.92
974.84	-10.68
975.043	-10.69
975.247	-13.45
975.45	-13.11
975.654	-12.41
975.857	-10.2
976.06	-10.52
976.264	-14.07
976.467	-12.29
976.671	-12.77
976.874	-10.18
977.077	-12.35
977.28	-13.76
977.484	-14.3
977.687	-15.75
977.89	-14.46
978.093	-15.54
978.297	-13.02
978.5	-16.3
978.703	-12.76
978.906	-11.31
979.109	-10.76
979.312	-10.14
979.515	-9.99
979.718	-10.23
979.921	-8.45
980.124	-11
980.327	-9.94
980.53	-10.51
980.733	-8.54
980.936	-5.54
981.138	-6.12
981.341	-5.93
981.544	-6.11
981.747	-6.46
981.949	-8.57
982.152	-9.03
982.355	-9.16
982.558	-4.57
982.76	-7.25
982.963	-6.98
983.165	-7.65
983.368	-6.71
983.571	-7.62
983.773	-6.31
983.976	-5.85
984.178	-5.85
984.381	-4.72
984.583	-8.34
984.785	-6.8
984.988	-6.13
985.19	-5.33
985.392	-7.27
985.595	-9.75
985.797	-9.49
985.999	-6.38
986.202	-5.52
986.404	-5.61
986.606	-4.57
986.808	-5.08
987.01	-3.71
987.212	-4.44
987.415	-5.98
987.617	-3.87
987.819	-4.68
988.021	-4.97
988.223	-6.13
988.425	-7.22
988.627	-8.72
988.829	-12.7
989.031	-11.04
989.232	-12.1
989.434	-9.97
989.636	-10.07
989.838	-10.75
990.04	-9.21
990.242	-10.38
990.443	-12.14
990.645	-10.81
990.847	-6.59
991.048	-7.62
991.25	-10.21
991.452	-10.77
991.653	-11.57
991.855	-11.86
992.057	-13.39
992.258	-11.93
992.46	-13.19
992.661	-11.74
992.863	-12.69
993.064	-12.53
993.265	-15.46
993.467	-18.71
993.668	-16.73
993.87	-18.78
994.071	-17.94
994.272	-17.01
994.473	-16.23
994.675	-15.86
994.876	-13.95
995.077	-13.76
995.278	-13.36
995.48	-13
995.681	-15.99
995.882	-14.9
996.083	-16.26
996.284	-20.1
996.485	-17.85
996.686	-18.92
996.887	-20.07
997.088	-24.75
997.289	-26.28
997.49	-25.61
997.691	-25.26
997.892	-24.87
998.092	-19.67
998.293	-20.08
998.494	-23.15
998.695	-22.84
998.896	-21.57
999.096	-21.56
999.297	-20.15
999.498	-20.24
999.698	-21.91
999.899	-25.32
1000.1	-27.14
1000.3	-26.65
1000.501	-27.7
1000.701	-26.95
1000.902	-27.14
1001.102	-28.59
1001.303	-26.96
1001.503	-29.91
1001.704	-29.45
1001.904	-30.07
1002.105	-30.08
1002.305	-28.91
1002.505	-30.04
1002.706	-31.81
1002.906	-31.23
1003.106	-31.32
1003.306	-29.98
1003.507	-26.75
1003.707	-27.72
1003.907	-24.91
1004.107	-23.29
1004.307	-26.91
1004.507	-24.3
1004.707	-23.59
1004.907	-25.36
1005.107	-25.42
1005.308	-24.49
1005.507	-26.15
1005.707	-23.25
1005.907	-21.87
1006.107	-16.92
1006.307	-14.7
1006.507	-16.35
1006.707	-15.27
1006.907	-15.22
1007.106	-14.42
1007.306	-13.9
1007.506	-14.18
1007.706	-13.44
1007.905	-14.48
1008.105	-13.21
1008.305	-14.12
1008.504	-13.7
1008.704	-7.59
1008.903	-5.97
1009.103	-4.07
1009.303	-6.91
1009.502	-6.35
1009.702	-8.57
1009.901	-8.61
1010.1	-11.99
1010.3	-10.97
1010.499	-12.03
1010.699	-13.6
1010.898	-15.66
1011.097	-14.68
1011.296	-15.09
1011.496	-17.22
1011.695	-17.23
1011.894	-20.12
1012.093	-17.16
1012.293	-18.09
1012.492	-18.75
1012.691	-18.24
1012.89	-18.16
1013.089	-21.1
1013.288	-21.38
1013.487	-20.85
1013.686	-20.27
1013.885	-21.35
1014.084	-21.93
1014.283	-21.93
1014.482	-22.07
1014.681	-22.17
1014.88	-26.7
1015.078	-25.68
1015.277	-28.76
1015.476	-27.89
1015.675	-27.67
1015.873	-26.43
1016.072	-26.89
1016.271	-25.48
1016.47	-28.86
1016.668	-25.93
1016.867	-27.53
1017.065	-27.89
1017.264	-27.56
1017.463	-26.9
1017.661	-26.68
1017.86	-27.47
1018.058	-24.47
1018.256	-27.34
1018.455	-28.91
1018.653	-28.04
1018.852	-27.31
1019.05	-29.32
1019.248	-29.91
1019.447	-30.33
1019.645	-30.43
1019.843	-32.57
1020.041	-30.37
1020.24	-29.57
1020.438	-25.32
1020.636	-25.95
1020.834	-28.25
1021.032	-25.42
1021.23	-26.71
1021.428	-23.83
1021.626	-19.32
1021.824	-18.59
1022.022	-20.67
1022.22	-17.92
1022.418	-16.64
1022.616	-16.46
1022.814	-18.68
1023.012	-18.09
1023.21	-15.46
1023.408	-16.01
1023.606	-17.63
1023.803	-12.05
1024.001	-10.29
1024.199	-14.67
1024.397	-13.36
1024.594	-13.76
1024.792	-15.28
1024.99	-14.91
1025.187	-15.06
1025.385	-10.71
1025.582	-11.17
1025.78	-12.14
1025.977	-11.37
1026.175	-11.92
1026.372	-10.55
1026.57	-13.94
1026.767	-10.34
1026.965	-8.94
1027.162	-9.58
1027.359	-10.54
1027.557	-10.93
1027.754	-15.73
1027.951	-17.48
1028.148	-14.1
1028.346	-17.59
1028.543	-20.81
1028.74	-22.08
1028.937	-23.85
1029.134	-24.51
1029.331	-26.76
1029.528	-27.32
1029.725	-27.76
1029.923	-32.12
1030.12	-29.98
1030.317	-27.33
1030.513	-24.9
1030.71	-23.67
1030.907	-21.6
1031.104	-22.33
1031.301	-22.64
1031.498	-23.2
1031.695	-22.74
1031.892	-23.33
1032.088	-22.3
1032.285	-23.5
1032.482	-25.16
1032.678	-28.34
1032.875	-31.47
1033.072	-31.04
1033.268	-31.3
1033.465	-31.17
1033.662	-33.36
1033.858	-32.48
1034.055	-32.2
1034.251	-30.64
1034.448	-29.92
1034.644	-28.58
1034.84	-25.43
1035.037	-22.69
1035.233	-21.87
1035.43	-19.7
1035.626	-19.15
1035.822	-17.69
1036.019	-18.62
1036.215	-21.53
1036.411	-22.74
1036.607	-24.31
1036.803	-26.16
1037	-26.99
1037.196	-29.13
1037.392	-28.92
1037.588	-31.32
1037.784	-30.76
1037.98	-31.01
1038.176	-32.04
1038.372	-32.3
1038.568	-29.52
1038.764	-27.11
1038.96	-24.64
1039.156	-26.54
1039.352	-27.75
1039.547	-26.28
1039.743	-25.2
1039.939	-22.64
1040.135	-23.45
1040.331	-26.3
1040.526	-23.53
1040.722	-24.48
1040.918	-25.24
1041.113	-29.02
1041.309	-30.59
1041.505	-32.49
1041.7	-31.47
1041.896	-31.34
1042.091	-30.37
1042.287	-29.06
1042.482	-28.21
1042.678	-28.98
1042.873	-27.93
1043.069	-28.7
1043.264	-26.75
1043.459	-25.42
1043.655	-23.69
1043.85	-24.45
1044.045	-22.41
1044.24	-22.06
1044.436	-19.69
1044.631	-22.2
1044.826	-22.35
1045.021	-25.26
1045.216	-22.46
