Data from FLMT021711__14__18-15-14-187.txt Node

Date: Tue Nov 05 18:15:14 CET 2024
User: Etudiants TP
Spectrometer: FLMT02171
Trigger mode: 0
Integration Time (sec): 1.000000E-1
Scans to average: 5
Electric dark correction enabled: true
Nonlinearity correction enabled: false
Boxcar width: 15
XAxis mode: Wavelengths
Number of Pixels in Spectrum: 3648
>>>>>Begin Spectral Data<<<<<
194.658	-65.65
194.923	-63.62
195.188	-55.29
195.453	-55.41
195.717	-48.71
195.982	-45.48
196.247	-44.12
196.512	-46.85
196.777	-44.47
197.042	-41.78
197.307	-42.33
197.572	-36.51
197.837	-37.9
198.101	-35.09
198.366	-32.58
198.631	-30.73
198.896	-23.29
199.161	-16.13
199.425	-8.64
199.69	2.07
199.955	-0.07
200.22	-3.6
200.484	-3.05
200.749	-4.98
201.014	-2.51
201.278	-1.59
201.543	-0.63
201.807	-1.18
202.072	-0.15
202.337	-0.59
202.601	-0.73
202.866	-2.03
203.13	-0.63
203.395	-3.64
203.659	-2.73
203.924	-5.08
204.189	-4.9
204.453	-3.44
204.717	-0.55
204.982	0.99
205.246	2.39
205.511	4.49
205.775	2.87
206.04	9.7
206.304	9.69
206.568	11.39
206.833	11.9
207.097	13.17
207.361	15.9
207.626	20.09
207.89	19.57
208.154	21.81
208.419	23.4
208.683	24.29
208.947	27.31
209.211	25.59
209.476	25.17
209.74	26.37
210.004	27.36
210.268	27.96
210.532	30.82
210.796	31.77
211.061	32.39
211.325	33.17
211.589	32.86
211.853	33.7
212.117	33.81
212.381	33.19
212.645	33.57
212.909	33.94
213.173	30
213.437	29.99
213.701	30.35
213.965	29.72
214.229	24.82
214.493	24.82
214.757	23.99
215.021	23.85
215.285	27.07
215.549	27.87
215.813	24.5
216.077	24.77
216.34	25.86
216.604	25.18
216.868	26.18
217.132	27.68
217.396	27.51
217.659	28.16
217.923	24.37
218.187	23.28
218.451	22.5
218.714	18.75
218.978	18.99
219.242	21.84
219.505	22.96
219.769	23.71
220.033	23.1
220.296	25.23
220.56	25.89
220.824	23.2
221.087	23.73
221.351	24.21
221.614	23.9
221.878	25.7
222.142	25.28
222.405	25.1
222.669	27.82
222.932	23.3
223.196	21.21
223.459	16.88
223.722	19.3
223.986	18.86
224.249	18.06
224.513	18.27
224.776	17.92
225.04	16.57
225.303	15.12
225.566	14.25
225.83	15.93
226.093	19.69
226.356	18.42
226.62	17.08
226.883	19.72
227.146	20.11
227.409	17.27
227.673	14.92
227.936	14.23
228.199	15.51
228.462	12.35
228.725	10.65
228.989	10.14
229.252	10.72
229.515	16.55
229.778	13.95
230.041	13.57
230.304	10.74
230.567	11.72
230.83	8.42
231.093	10.08
231.356	10.76
231.619	17.8
231.882	15.15
232.145	17.82
232.408	15.55
232.671	15.15
232.934	15.91
233.197	13.35
233.46	12.68
233.723	15.42
233.986	13.58
234.249	10.77
234.512	12.36
234.775	16.59
235.037	15.82
235.3	15.81
235.563	17.86
235.826	17.93
236.089	20.45
236.351	18.75
236.614	21.29
236.877	23.23
237.14	27.4
237.402	26.29
237.665	20.08
237.928	20.46
238.19	17.03
238.453	19.74
238.716	19.92
238.978	19.82
239.241	19.76
239.503	22.36
239.766	16.24
240.029	14.21
240.291	17.11
240.554	17.79
240.816	15.9
241.079	16.9
241.341	18.04
241.604	17.07
241.866	13.58
242.129	14.12
242.391	15.88
242.653	15.44
242.916	14.67
243.178	15.05
243.441	15.31
243.703	13.75
243.965	11.62
244.228	9.99
244.49	9.83
244.752	11.8
245.015	12.75
245.277	13.99
245.539	13.31
245.801	13.75
246.064	13
246.326	12.44
246.588	12.7
246.85	13.98
247.112	14.74
247.374	17.24
247.637	18.37
247.899	18.64
248.161	19.5
248.423	14.08
248.685	14.93
248.947	15.59
249.209	13.64
249.471	14.27
249.733	15.46
249.995	13.66
250.257	13.21
250.519	11
250.781	13.33
251.043	10.57
251.305	12.43
251.567	14.43
251.829	14.65
252.091	16.54
252.353	14.07
252.615	15.34
252.876	12.17
253.138	11.29
253.4	6.57
253.662	7.55
253.924	10.71
254.185	12.28
254.447	13
254.709	13.27
254.971	14.43
255.232	17.57
255.494	15.81
255.756	13.83
256.017	14.67
256.279	14.17
256.541	13.78
256.802	13.69
257.064	14.96
257.326	16.31
257.587	17.23
257.849	17.13
258.11	22
258.372	22.74
258.633	23.95
258.895	24.13
259.156	22.38
259.418	18.58
259.679	13.46
259.941	10.9
260.202	12.37
260.464	14.58
260.725	13.92
260.987	13.61
261.248	11.06
261.509	11.6
261.771	9.6
262.032	11.22
262.293	11.08
262.555	10.4
262.816	7.86
263.077	4.42
263.338	-0.19
263.6	-0.46
263.861	-1.48
264.122	-2.29
264.383	1.24
264.645	2.88
264.906	1.25
265.167	1.39
265.428	-1.16
265.689	0.48
265.95	-1.43
266.211	-1.41
266.473	-2.02
266.734	-4.53
266.995	-8.92
267.256	-6.66
267.517	-4.04
267.778	-0.13
268.039	1.86
268.3	-0
268.561	-1.93
268.822	1.72
269.083	-0.22
269.344	-0.84
269.604	-0.12
269.865	1.61
270.126	-2.57
270.387	-1.66
270.648	1.06
270.909	1.47
271.17	2.48
271.43	-0.38
271.691	-2.43
271.952	-3.61
272.213	-1.63
272.473	-4.63
272.734	-2.75
272.995	-0.49
273.256	-0.14
273.516	3.64
273.777	0.15
274.038	2.69
274.298	-1.34
274.559	-1
274.82	3.55
275.08	5.96
275.341	7.34
275.601	6.8
275.862	4.23
276.122	5.51
276.383	6.29
276.643	8.73
276.904	6.34
277.164	10.09
277.425	10.69
277.685	14.46
277.946	14.91
278.206	16.31
278.467	17.86
278.727	16.31
278.987	16.65
279.248	15.11
279.508	18.48
279.768	21.75
280.029	23.99
280.289	20.94
280.549	19.4
280.81	18.98
281.07	17.78
281.33	19.57
281.59	17.62
281.851	21.96
282.111	22.01
282.371	24.11
282.631	24.63
282.891	23.97
283.151	24.32
283.412	22.78
283.672	22.36
283.932	23.76
284.192	23.76
284.452	21.8
284.712	19.63
284.972	18.42
285.232	15.03
285.492	17.35
285.752	13.05
286.012	18.73
286.272	20.35
286.532	17.51
286.792	19.18
287.052	20.63
287.312	21.39
287.571	19.5
287.831	18.97
288.091	15.54
288.351	15.8
288.611	20.88
288.871	19.43
289.13	19.84
289.39	15.42
289.65	16.21
289.91	11.48
290.17	11.62
290.429	13.03
290.689	10.12
290.949	6.16
291.208	6.29
291.468	8.83
291.728	9.07
291.987	9.93
292.247	8.9
292.506	11.64
292.766	12.98
293.026	11.67
293.285	14.53
293.545	18.44
293.804	19.95
294.064	15.81
294.323	13.91
294.583	15.69
294.842	15.59
295.102	16.24
295.361	16.17
295.621	18.05
295.88	19.17
296.139	18.91
296.399	20.49
296.658	15.19
296.917	15.46
297.177	12.38
297.436	14.66
297.695	13.36
297.955	17.09
298.214	17.65
298.473	18.45
298.732	21.83
298.992	24.94
299.251	25.37
299.51	22.39
299.769	23.69
300.028	23.83
300.287	24.59
300.547	24.63
300.806	23.25
301.065	26.79
301.324	27.39
301.583	21.52
301.842	18.06
302.101	16.58
302.36	16.07
302.619	15.13
302.878	14.99
303.137	12.96
303.396	14.06
303.655	14.58
303.914	11.64
304.173	12.57
304.432	11.4
304.691	14.66
304.95	12.43
305.208	16.45
305.467	16.36
305.726	15.3
305.985	14.77
306.244	14.41
306.503	14.62
306.761	12.81
307.02	9.9
307.279	9.93
307.537	10.43
307.796	7.17
308.055	5.7
308.314	6.94
308.572	4.66
308.831	6.24
309.09	6.53
309.348	6.55
309.607	7.19
309.865	10.28
310.124	10.52
310.382	12.19
310.641	12.36
310.9	10.96
311.158	10.98
311.417	10.85
311.675	12.52
311.933	13.43
312.192	15.89
312.45	16.04
312.709	15.93
312.967	15.79
313.226	16.29
313.484	14.7
313.742	13.92
314.001	11.82
314.259	10.85
314.517	10.48
314.776	13.24
315.034	16.38
315.292	13.97
315.55	12.96
315.809	11.56
316.067	10.96
316.325	9.33
316.583	11.65
316.841	9.79
317.1	7.93
317.358	4.46
317.616	3.72
317.874	3.47
318.132	1.38
318.39	1.49
318.648	0.36
318.906	0.44
319.164	0.37
319.422	-0.66
319.68	-3.65
319.938	-3.29
320.196	-4.45
320.454	-3.48
320.712	-4.15
320.97	-3.84
321.228	-6.18
321.486	-2.55
321.744	-0.97
322.002	1.94
322.26	1.43
322.517	1.24
322.775	-2.73
323.033	-5.3
323.291	-1.63
323.549	-0.47
323.806	3.37
324.064	4.41
324.322	5.99
324.58	3.25
324.837	5.88
325.095	3.6
325.353	5.52
325.61	7.01
325.868	5.72
326.126	8.01
326.383	6.41
326.641	4.65
326.898	6.78
327.156	6.42
327.413	6.93
327.671	8.15
327.928	9.74
328.186	11.42
328.443	10.29
328.701	13.19
328.958	15.08
329.216	15.51
329.473	13.63
329.731	14.15
329.988	14.27
330.245	15.55
330.503	16.03
330.76	17.15
331.017	19.74
331.275	16.01
331.532	15.81
331.789	13.29
332.047	12.35
332.304	8.1
332.561	8.79
332.818	7.21
333.076	9.78
333.333	11.76
333.59	10.83
333.847	13.19
334.104	13.48
334.361	12.58
334.618	13.39
334.876	11.04
335.133	11.51
335.39	10.8
335.647	11.02
335.904	8.29
336.161	5.19
336.418	5.84
336.675	2.61
336.932	4.01
337.189	4.44
337.446	5.08
337.703	4.16
337.96	0.78
338.216	0.98
338.473	-0.11
338.73	0.63
338.987	0.04
339.244	3.85
339.501	1.69
339.757	2.11
340.014	3.08
340.271	4.83
340.528	6.07
340.785	11.34
341.041	11.99
341.298	9.42
341.555	10.81
341.811	9.33
342.068	5.63
342.325	6.3
342.581	8.94
342.838	10.17
343.094	9.94
343.351	9.91
343.608	7.86
343.864	10.8
344.121	11.45
344.377	10.31
344.634	8.89
344.89	6.82
345.147	6.27
345.403	4.84
345.66	5.3
345.916	7.55
346.172	6.8
346.429	5.19
346.685	4.27
346.942	4.74
347.198	-0.21
347.454	0.36
347.711	1.56
347.967	-1.52
348.223	-0.11
348.48	0.31
348.736	2.22
348.992	1.56
349.248	2.54
349.504	2.04
349.761	2.9
350.017	4.54
350.273	4.88
350.529	3.25
350.785	2.73
351.041	1.93
351.297	2.95
351.554	2.37
351.81	-0.23
352.066	-0.76
352.322	-2.1
352.578	-0.72
352.834	-0.77
353.09	-1.19
353.346	-1.95
353.602	-4.13
353.858	-5.93
354.114	-7.33
354.369	-6.63
354.625	-5.39
354.881	-7.11
355.137	-2.91
355.393	-2.72
355.649	-2.58
355.905	-1.05
356.16	-1.86
356.416	-2.28
356.672	-9.51
356.928	-9.35
357.183	-9.07
357.439	-8.97
357.695	-10.65
357.951	-6.05
358.206	-5.62
358.462	-4.58
358.718	-7.21
358.973	-5.39
359.229	-5.21
359.484	-4.3
359.74	-1.25
359.996	-0.96
360.251	5.03
360.507	4.84
360.762	4.79
361.018	7.9
361.273	7.68
361.529	11.22
361.784	12.05
362.04	14.75
362.295	15.55
362.55	15.55
362.806	18.7
363.061	18.27
363.316	20.43
363.572	21.31
363.827	22.88
364.082	19.14
364.338	19.16
364.593	18.97
364.848	19.76
365.104	18.78
365.359	21.78
365.614	21.21
365.869	18.55
366.124	17.59
366.38	15.37
366.635	18.68
366.89	19.09
367.145	17.86
367.4	21.64
367.655	19.8
367.91	20.61
368.165	17.27
368.42	14.82
368.675	15.19
368.93	14.66
369.185	12.33
369.44	11.46
369.695	12.32
369.95	10.69
370.205	10.12
370.46	9.02
370.715	7.36
370.97	7.54
371.225	6.48
371.48	6.95
371.734	7.77
371.989	10.62
372.244	10.56
372.499	13.5
372.754	12.95
373.008	10.89
373.263	5.05
373.518	9.36
373.773	6.82
374.027	6.55
374.282	8.5
374.537	9.21
374.791	9.94
375.046	9.67
375.301	8.07
375.555	7.35
375.81	8.13
376.064	9.48
376.319	11.34
376.573	10.01
376.828	6.58
377.082	11.77
377.337	9.51
377.591	6.98
377.846	7.6
378.1	8.75
378.355	9.4
378.609	8.82
378.863	6.42
379.118	8.01
379.372	5.96
379.627	4.15
379.881	1.66
380.135	1.42
380.389	0.5
380.644	-0.39
380.898	0.55
381.152	1.65
381.407	-0.08
381.661	3.2
381.915	4.68
382.169	5.37
382.423	3.06
382.677	-0.26
382.932	1.95
383.186	1.99
383.44	2.1
383.694	5.61
383.948	3.31
384.202	4.55
384.456	7.59
384.71	9.25
384.964	7.71
385.218	9.3
385.472	10.59
385.726	9.59
385.98	9.28
386.234	8.5
386.488	5.65
386.742	7.26
386.996	3.71
387.249	5.28
387.503	7.59
387.757	9.13
388.011	9.78
388.265	8.93
388.518	10.64
388.772	12.4
389.026	14.3
389.28	11.92
389.533	10.56
389.787	13.3
390.041	10.9
390.295	13.05
390.548	12.17
390.802	14.14
391.055	13.92
391.309	12.81
391.563	8.98
391.816	9.67
392.07	7.84
392.323	8.16
392.577	8.4
392.83	8.91
393.084	14.48
393.337	17.31
393.591	19.06
393.844	19.03
394.098	23.09
394.351	28.33
394.604	29.92
394.858	32.6
395.111	33.25
395.364	29.67
395.618	31.64
395.871	30.03
396.124	29.18
396.378	27.48
396.631	27.65
396.884	24.57
397.137	23.81
397.391	24.65
397.644	20.87
397.897	22.36
398.15	21.73
398.403	26.72
398.657	24.02
398.91	22.65
399.163	25.63
399.416	24.42
399.669	23.14
399.922	22.51
400.175	24.37
400.428	32.01
400.681	43.9
400.934	51.62
401.187	65.66
401.44	77.58
401.693	84.77
401.946	88.05
402.199	85.6
402.452	86.64
402.704	85.48
402.957	84.13
403.21	86.89
403.463	87.29
403.716	88.96
403.969	92.43
404.221	93.89
404.474	97.1
404.727	102.2
404.98	107.02
405.232	107.72
405.485	110.5
405.738	111.1
405.99	111.07
406.243	110.14
406.496	111.96
406.748	112.13
407.001	109.93
407.253	112.15
407.506	112.21
407.759	113.16
408.011	107.12
408.264	100.18
408.516	88.37
408.769	74.41
409.021	59.43
409.274	47.09
409.526	41.46
409.778	34.9
410.031	36.65
410.283	33.85
410.536	36.6
410.788	35.09
411.04	33.9
411.293	33.8
411.545	34.29
411.797	31.53
412.049	30.26
412.302	29.7
412.554	29.23
412.806	24.55
413.058	22.28
413.311	21.48
413.563	20.29
413.815	21.15
414.067	19.52
414.319	19.68
414.571	20.6
414.823	18.73
415.075	17.23
415.328	19.22
415.58	21.19
415.832	23.23
416.084	23.65
416.336	21.91
416.588	26.56
416.84	26
417.091	29.28
417.343	25.31
417.595	27.67
417.847	27.3
418.099	28.55
418.351	28.71
418.603	31.63
418.855	32.44
419.106	33.5
419.358	33.23
419.61	33.37
419.862	34.38
420.114	30.3
420.365	29.97
420.617	31.65
420.869	29.49
421.12	27.74
421.372	30.27
421.624	29.22
421.875	30.24
422.127	27
422.379	26.99
422.63	30.18
422.882	28.58
423.133	27.57
423.385	28.35
423.636	28.85
423.888	30.56
424.139	32.17
424.391	26.17
424.642	24
424.894	20.45
425.145	21.28
425.396	17.84
425.648	20.81
425.899	17.46
426.151	17.67
426.402	16.38
426.653	16.13
426.905	15.01
427.156	11.71
427.407	12.69
427.658	11.22
427.91	10.86
428.161	10.34
428.412	12.28
428.663	14.39
428.914	17.02
429.166	16.37
429.417	17.88
429.668	17.02
429.919	15.22
430.17	14.23
430.421	14.76
430.672	19.47
430.923	21.92
431.174	25.49
431.425	45.82
431.676	76.89
431.927	116.86
432.178	169.9
432.429	222.03
432.68	268.33
432.931	306.76
433.182	335.35
433.433	348.89
433.683	365.28
433.934	370.46
434.185	372.16
434.436	372.55
434.687	374.27
434.937	379.52
435.188	377.61
435.439	377.58
435.69	378.96
435.94	377.34
436.191	377.08
436.442	376.3
436.692	374.08
436.943	372.08
437.194	369.28
437.444	371.21
437.695	375.45
437.945	376.37
438.196	373.94
438.447	372.05
438.697	369.96
438.948	363.72
439.198	340.91
439.449	304.49
439.699	263.89
439.949	214.49
440.2	161.47
440.45	116.56
440.701	79.6
440.951	52.66
441.201	36.39
441.452	20.55
441.702	13.38
441.952	11.42
442.203	10.91
442.453	7.63
442.703	6.34
442.953	7.45
443.204	7.2
443.454	5.19
443.704	5.47
443.954	2.53
444.204	4.28
444.455	5.56
444.705	7.13
444.955	7.08
445.205	5.56
445.455	2.24
445.705	2.09
445.955	2.27
446.205	2.47
446.455	3.86
446.705	5.58
446.955	6.51
447.205	8.29
447.455	7.98
447.705	5.17
447.955	5.28
448.205	4.54
448.454	3.22
448.704	4.13
448.954	1.64
449.204	2.8
449.454	2.15
449.704	0.44
449.953	0.37
450.203	2.44
450.453	-0.82
450.703	2.04
450.952	1.6
451.202	3.32
451.452	2.96
451.701	5.86
451.951	9
452.201	6.72
452.45	5.36
452.7	7.26
452.949	6.89
453.199	6.29
453.448	7.88
453.698	9.33
453.947	7.63
454.197	6.7
454.446	3.53
454.696	5.72
454.945	7.19
455.195	6.68
455.444	8.35
455.693	11.95
455.943	10.31
456.192	11.93
456.442	12.68
456.691	13.06
456.94	11.54
457.189	11.5
457.439	14.51
457.688	15.82
457.937	14.6
458.186	16.07
458.436	14.95
458.685	15.17
458.934	14.43
459.183	14.47
459.432	17.71
459.681	16.23
459.93	15.93
460.179	15.93
460.429	13.37
460.678	16.6
460.927	19.92
461.176	18.03
461.425	17.22
461.674	19.48
461.923	18.34
462.172	19.46
462.42	18.03
462.669	19.65
462.918	19.87
463.167	19.21
463.416	16.62
463.665	19.31
463.914	19.27
464.162	16.84
464.411	17.65
464.66	20.93
464.909	19.34
465.158	19.21
465.406	18.85
465.655	20.8
465.904	22.06
466.152	22.3
466.401	24.75
466.65	26.35
466.898	24.4
467.147	18.98
467.395	18.42
467.644	21.71
467.893	20.62
468.141	21.05
468.39	17.71
468.638	15.17
468.887	13.88
469.135	14.24
469.384	13.95
469.632	15.46
469.88	15
470.129	16.89
470.377	13.41
470.626	16.05
470.874	18.31
471.122	20.02
471.371	17.68
471.619	15.61
471.867	18.17
472.115	17.87
472.364	14.9
472.612	18.54
472.86	16.08
473.108	16.03
473.356	16.85
473.605	16.45
473.853	13.93
474.101	11.46
474.349	11.07
474.597	15
474.845	15.19
475.093	14.31
475.341	10.97
475.589	12.68
475.837	15.29
476.085	18.28
476.333	17.61
476.581	19.92
476.829	19.26
477.077	22.1
477.325	21.91
477.573	24.77
477.821	23.08
478.069	24.48
478.317	24.81
478.564	27.93
478.812	27.44
479.06	28.22
479.308	29.75
479.555	31.97
479.803	34.53
480.051	40.08
480.299	42.77
480.546	47.69
480.794	48.68
481.042	53.37
481.289	58.26
481.537	64
481.784	70.68
482.032	79.11
482.28	84.22
482.527	90.69
482.775	99.1
483.022	108.98
483.27	118.9
483.517	129.34
483.765	136.51
484.012	145.34
484.259	150.69
484.507	160.63
484.754	169.17
485.002	175.58
485.249	180.44
485.496	190.26
485.744	195.64
485.991	199.92
486.238	202.65
486.486	211.36
486.733	217
486.98	224.91
487.227	225.84
487.474	230.1
487.722	234.88
487.969	234.95
488.216	235.56
488.463	237.11
488.71	235.22
488.957	233.21
489.204	231.88
489.451	230.51
489.699	226.49
489.946	222.01
490.193	218.1
490.44	213.21
490.687	209.11
490.934	201.04
491.18	192.09
491.427	187.78
491.674	186.18
491.921	181.27
492.168	175.02
492.415	165.35
492.662	161.42
492.909	158.69
493.155	152.76
493.402	147.15
493.649	140.04
493.896	136.74
494.142	128.06
494.389	123.92
494.636	117.31
494.883	111.72
495.129	105.34
495.376	98.36
495.623	95.47
495.869	94.04
496.116	92.11
496.362	90.73
496.609	90.22
496.855	92.03
497.102	88.36
497.348	85.41
497.595	82.08
497.841	83.52
498.088	78.52
498.334	75.69
498.581	71.34
498.827	68.92
499.074	66.65
499.32	64.27
499.566	66.23
499.813	64.83
500.059	60.23
500.305	58.09
500.552	55.02
500.798	52.81
501.044	53.2
501.29	52.38
501.537	47.02
501.783	47.27
502.029	48.18
502.275	44.35
502.521	42.76
502.767	42.47
503.013	44.14
503.26	40.06
503.506	35.68
503.752	35.12
503.998	30.1
504.244	28.65
504.49	23.3
504.736	23.62
504.982	21.19
505.228	24
505.474	23.12
505.72	23.91
505.966	21.36
506.211	24.11
506.457	23.3
506.703	19.03
506.949	15.69
507.195	12.2
507.441	7.76
507.686	11.21
507.932	9.71
508.178	10.81
508.424	8.06
508.669	6.4
508.915	5.39
509.161	8.85
509.406	9.4
509.652	9.25
509.898	11.77
510.143	12.94
510.389	11.48
510.634	7.29
510.88	12.16
511.125	14.05
511.371	14.06
511.616	16.58
511.862	14.69
512.107	13.18
512.353	13.24
512.598	13.17
512.844	10.17
513.089	7.02
513.335	8.29
513.58	8.02
513.825	8.06
514.071	6.83
514.316	7.85
514.561	8.56
514.806	7.62
515.052	10.04
515.297	8.13
515.542	10.34
515.787	10.5
516.033	11.91
516.278	12.76
516.523	12.76
516.768	10.64
517.013	6.96
517.258	4.59
517.503	4.87
517.748	5.25
517.993	5.52
518.238	4.58
518.483	2.04
518.728	0.99
518.973	-0.2
519.218	-2.37
519.463	-1.36
519.708	-1.63
519.953	-3.39
520.198	-3.07
520.443	-0.24
520.688	2.79
520.933	2.07
521.177	2.16
521.422	-0.06
521.667	3.58
521.912	3.47
522.157	-0.36
522.401	3.36
522.646	4.46
522.891	4.69
523.135	4.53
523.38	4.62
523.625	4.08
523.869	5.86
524.114	6.7
524.358	4.83
524.603	6.41
524.848	4.37
525.092	3.16
525.337	3.65
525.581	6.06
525.826	8.66
526.07	8.99
526.315	10.39
526.559	10.39
526.803	8.67
527.048	11.43
527.292	13.33
527.537	14.76
527.781	14.17
528.025	11.28
528.269	12.43
528.514	13.11
528.758	13.36
529.002	14.17
529.247	16.54
529.491	15.76
529.735	22.14
529.979	21.04
530.223	21.12
530.467	19.43
530.712	17.79
530.956	16.65
531.2	17.63
531.444	16.1
531.688	18.64
531.932	19.98
532.176	21.01
532.42	23.9
532.664	25.44
532.908	24.58
533.152	23.22
533.396	24.22
533.64	23.93
533.884	22.68
534.128	23.9
534.371	27.75
534.615	30.41
534.859	29.83
535.103	31.01
535.347	33.97
535.59	38.16
535.834	37.56
536.078	42.33
536.322	47.65
536.565	55.23
536.809	59.16
537.053	67.26
537.296	73.54
537.54	82.56
537.784	92.75
538.027	108.14
538.271	122.41
538.514	136.96
538.758	151.48
539.001	164.18
539.245	177.48
539.488	191.33
539.732	206.99
539.975	218.52
540.219	232.99
540.462	245.55
540.706	259
540.949	269.9
541.192	280.66
541.436	297.99
541.679	316.07
541.922	334.37
542.166	348.98
542.409	371.24
542.652	394.88
542.895	417.89
543.139	438.29
543.382	459.35
543.625	472.31
543.868	484.07
544.111	493.46
544.354	498.34
544.598	502.21
544.841	504.29
545.084	503.79
545.327	499.64
545.57	493.49
545.813	486.57
546.056	477.59
546.299	469.24
546.542	461.82
546.785	455.23
547.028	446.55
547.271	434.78
547.514	426.35
547.756	415.04
547.999	406.67
548.242	398.17
548.485	386.69
548.728	379.6
548.971	363.97
549.213	351.79
549.456	334.2
549.699	315.11
549.942	294.28
550.184	269.55
550.427	247.11
550.67	225.54
550.912	201.9
551.155	186.51
551.398	170.89
551.64	155.47
551.883	144.43
552.125	132.72
552.368	122.67
552.61	110.59
552.853	105.3
553.095	97.71
553.338	91.69
553.58	85.51
553.823	79.37
554.065	77.53
554.308	68.92
554.55	62.71
554.792	56.63
555.035	51.69
555.277	46.7
555.519	44.2
555.762	39.4
556.004	37.8
556.246	31.63
556.488	31.26
556.731	25.19
556.973	25.37
557.215	23.39
557.457	22.22
557.699	23.94
557.941	19.52
558.183	17.82
558.426	20.28
558.668	16.51
558.91	15.59
559.152	14.32
559.394	11.58
559.636	12.97
559.878	13.38
560.12	13.12
560.362	14.09
560.604	13.62
560.845	11.78
561.087	10.87
561.329	11.45
561.571	7.42
561.813	8.47
562.055	7.7
562.297	9.05
562.538	9.41
562.78	11.88
563.022	8.84
563.264	9.58
563.505	9.61
563.747	10.43
563.989	8.49
564.23	7.53
564.472	4.63
564.714	7.72
564.955	7.71
565.197	4.23
565.438	6.05
565.68	9.39
565.921	7.12
566.163	7.72
566.404	6.74
566.646	9.28
566.887	12.2
567.129	12.59
567.37	11.08
567.612	13
567.853	10.68
568.094	12.1
568.336	11.98
568.577	12.49
568.818	13.04
569.06	10.78
569.301	8.31
569.542	9.44
569.783	10.53
570.025	9.8
570.266	9.01
570.507	10.82
570.748	10.96
570.989	12.38
571.23	15.08
571.472	16.34
571.713	16.37
571.954	17.46
572.195	14.69
572.436	17.33
572.677	20.41
572.918	23.36
573.159	21.76
573.4	21.41
573.641	23.54
573.882	26.91
574.123	26.92
574.364	23.63
574.604	25.77
574.845	26.1
575.086	29.22
575.327	32
575.568	33.45
575.809	35.04
576.049	36.91
576.29	36.62
576.531	44.29
576.771	49.95
577.012	55.33
577.253	58.2
577.494	60.81
577.734	62.65
577.975	64.27
578.215	64.63
578.456	62.71
578.697	63.9
578.937	66.17
579.178	65.64
579.418	66.25
579.659	68.64
579.899	66.98
580.14	66.73
580.38	66.15
580.62	67.75
580.861	71.97
581.101	71.47
581.342	71.9
581.582	67.67
581.822	71.72
582.063	69.77
582.303	71.97
582.543	71.28
582.783	72.26
583.024	74.53
583.264	77.41
583.504	75.77
583.744	78.54
583.984	77.75
584.224	79.43
584.465	77.14
584.705	78.39
584.945	80.25
585.185	80.86
585.425	82.08
585.665	81.95
585.905	82.85
586.145	82.07
586.385	81.83
586.625	86.21
586.865	86
587.105	84.66
587.345	85.16
587.585	84.98
587.824	82.97
588.064	82.13
588.304	79.35
588.544	79.07
588.784	75.81
589.024	79.82
589.263	78.73
589.503	78.96
589.743	81.36
589.982	81.26
590.222	81.81
590.462	79.42
590.701	78.48
590.941	81.42
591.181	79.21
591.42	75.48
591.66	75.11
591.899	77.41
592.139	73.81
592.378	72.94
592.618	69.74
592.857	68.19
593.097	68.24
593.336	66.58
593.576	65.14
593.815	64.4
594.055	61.85
594.294	61.68
594.533	61.22
594.773	61.17
595.012	62.24
595.251	63.17
595.491	65.65
595.73	68.24
595.969	69.8
596.208	72.06
596.447	75.53
596.687	75.58
596.926	75.43
597.165	70.98
597.404	72.49
597.643	68.82
597.882	66.2
598.121	65.3
598.36	64.65
598.599	64.94
598.838	65.32
599.077	60.4
599.316	58.48
599.555	57.14
599.794	56.45
600.033	59.34
600.272	60.21
600.511	58.74
600.75	61.06
600.989	63.47
601.228	62.53
601.466	61.65
601.705	62.62
601.944	62.62
602.183	62.87
602.422	61.87
602.66	59.55
602.899	57.35
603.138	56.3
603.376	54.3
603.615	54.37
603.854	52.13
604.092	51.78
604.331	53.6
604.569	54.64
604.808	53.42
605.047	57.13
605.285	58.66
605.524	59.64
605.762	59.63
606	63.55
606.239	68.3
606.477	74.51
606.716	78.48
606.954	88.43
607.193	100.05
607.431	114.17
607.669	134.62
607.908	160.16
608.146	188.28
608.384	213.18
608.622	240.1
608.861	265.23
609.099	287.66
609.337	307.52
609.575	325.43
609.813	344.01
610.052	359.79
610.29	369.92
610.528	379.21
610.766	388.47
611.004	397.72
611.242	404.07
611.48	411.18
611.718	415.12
611.956	422.55
612.194	426.43
612.432	429.33
612.67	431.99
612.908	435.73
613.146	435.98
613.384	434.77
613.621	432.25
613.859	430.57
614.097	425.05
614.335	418.4
614.573	407.67
614.811	393.24
615.048	371.46
615.286	347.54
615.524	321.2
615.761	293.31
615.999	267.9
616.237	243.41
616.474	223.36
616.712	206.14
616.95	187.08
617.187	169.47
617.425	157.41
617.662	146.3
617.9	133.77
618.137	123.38
618.375	111.91
618.612	102.15
618.85	97.08
619.087	93.21
619.325	85.62
619.562	79.34
619.799	73.12
620.037	69.73
620.274	66.05
620.511	65.37
620.749	61.14
620.986	58.67
621.223	54.46
621.461	54.73
621.698	56.15
621.935	55.36
622.172	54.62
622.409	57.43
622.647	57.29
622.884	55.81
623.121	58.77
623.358	57.55
623.595	59.02
623.832	59.38
624.069	57.17
624.306	58.48
624.543	59.64
624.78	60.27
625.017	60.31
625.254	63.4
625.491	65.73
625.728	68.76
625.965	70.46
626.202	69.41
626.438	69.21
626.675	70.65
626.912	73.81
627.149	76.77
627.386	77.03
627.622	76.82
627.859	77.66
628.096	80.1
628.333	82.7
628.569	85.35
628.806	88.26
629.043	86.54
629.279	87.47
629.516	89.23
629.752	85.12
629.989	85.32
630.225	82.6
630.462	81.09
630.699	80.08
630.935	78.38
631.171	73.44
631.408	72.86
631.644	70.28
631.881	67.02
632.117	63.36
632.354	62.65
632.59	60.24
632.826	58.48
633.063	56.31
633.299	56.11
633.535	53.41
633.771	51.33
634.008	50.98
634.244	48.99
634.48	44.75
634.716	45.31
634.953	42.51
635.189	39.15
635.425	36.96
635.661	36.97
635.897	33.44
636.133	29.3
636.369	26.5
636.605	19.92
636.841	16.68
637.077	17.65
637.313	16.21
637.549	17.14
637.785	16.81
638.021	16.72
638.257	13.82
638.493	17.6
638.729	15.05
638.965	17.88
639.2	18.68
639.436	18.01
639.672	17.83
639.908	16.24
640.144	20.6
640.379	24.28
640.615	22.11
640.851	24.42
641.086	24.89
641.322	22.69
641.558	21.52
641.793	23.17
642.029	21.79
642.264	20.9
642.5	21.46
642.736	18.06
642.971	17.45
643.207	15.18
643.442	14.03
643.678	15.39
643.913	18.19
644.148	17.92
644.384	19.86
644.619	20.11
644.855	20.7
645.09	19.91
645.325	19.48
645.561	22.5
645.796	19.5
646.031	24.49
646.266	22.18
646.502	21.74
646.737	24.39
646.972	25.46
647.207	27.21
647.442	24.29
647.678	21.74
647.913	25
648.148	27.29
648.383	26.86
648.618	28.67
648.853	31.08
649.088	32.66
649.323	35.51
649.558	37.58
649.793	38.93
650.028	41.33
650.263	38.66
650.498	41.64
650.733	42.22
650.968	40.53
651.202	43.17
651.437	42.1
651.672	38.88
651.907	38.42
652.142	39
652.376	40.91
652.611	42.81
652.846	42.65
653.081	42.4
653.315	40.5
653.55	41.06
653.785	40.72
654.019	41.95
654.254	39.21
654.488	39.05
654.723	35.61
654.958	32.32
655.192	30.28
655.427	25.14
655.661	26.89
655.896	28.1
656.13	29.54
656.364	26.29
656.599	21.56
656.833	23.2
657.068	25.8
657.302	26.53
657.536	24.25
657.771	26.32
658.005	26.86
658.239	28.47
658.474	26.32
658.708	27.53
658.942	27.33
659.176	25.78
659.41	24.14
659.645	22.74
659.879	22.95
660.113	20.25
660.347	20.68
660.581	18.13
660.815	17.45
661.049	17.62
661.283	13.89
661.517	12.76
661.751	12.32
661.985	11.64
662.219	13.66
662.453	11.56
662.687	13.73
662.921	10.33
663.155	9.5
663.389	2.39
663.622	0.78
663.856	5.08
664.09	2.71
664.324	0.59
664.558	0.75
664.791	0.46
665.025	-1.31
665.259	-1.4
665.492	-2.69
665.726	0.5
665.96	0.72
666.193	0.23
666.427	1.74
666.661	0.38
666.894	-0.98
667.128	-2.4
667.361	0.71
667.595	-0.28
667.828	-0.8
668.062	-0.43
668.295	-0.88
668.529	0.98
668.762	1.18
668.995	0.9
669.229	5.82
669.462	5.21
669.695	6.57
669.929	4.75
670.162	4.65
670.395	2.31
670.629	4.26
670.862	8.33
671.095	3.59
671.328	4.94
671.561	0.97
671.795	1.61
672.028	2.87
672.261	2.77
672.494	4.09
672.727	1.93
672.96	2.45
673.193	1.65
673.426	6.24
673.659	5.7
673.892	6.81
674.125	6.81
674.358	5.75
674.591	4.6
674.824	4.18
675.057	4.02
675.29	3.2
675.523	4.22
675.755	1.99
675.988	4.31
676.221	6.2
676.454	3.06
676.687	4.36
676.919	4.34
677.152	4.88
677.385	5.22
677.617	6.99
677.85	7.46
678.083	4.67
678.315	8.27
678.548	6.44
678.78	7.06
679.013	5.62
679.246	6.73
679.478	9.05
679.711	6.26
679.943	9.62
680.175	5.92
680.408	8.27
680.64	3.86
680.873	5.82
681.105	7.7
681.338	10.79
681.57	10.86
681.802	11.4
682.034	11.75
682.267	17.62
682.499	19.76
682.731	17.14
682.964	16.64
683.196	13.93
683.428	12.24
683.66	11.8
683.892	16.27
684.124	18.7
684.356	22.24
684.589	23.45
684.821	22.15
685.053	24.36
685.285	25.17
685.517	27.15
685.749	28.73
685.981	30.88
686.213	32.07
686.445	33.43
686.676	30.11
686.908	31.92
687.14	30.73
687.372	31.78
687.604	29.64
687.836	30.65
688.068	30.45
688.299	29.39
688.531	28.05
688.763	32.73
688.995	30.49
689.226	33.4
689.458	30.11
689.69	28.15
689.921	27.49
690.153	29.41
690.384	32.84
690.616	32.71
690.848	35.02
691.079	30.91
691.311	27.1
691.542	24.19
691.774	20.96
692.005	23.17
692.237	25.14
692.468	24.12
692.699	22.73
692.931	21.06
693.162	18.12
693.393	16.73
693.625	13.84
693.856	13.84
694.087	13.93
694.319	15.91
694.55	15.2
694.781	13.93
695.012	13.92
695.243	11.84
695.475	12.03
695.706	11.26
695.937	10.98
696.168	11.29
696.399	9.39
696.63	9.56
696.861	10.07
697.092	15.94
697.323	17.14
697.554	16.51
697.785	16.7
698.016	17.05
698.247	14.83
698.478	16.77
698.709	18.31
698.94	20.83
699.171	20.04
699.401	15.9
699.632	17.63
699.863	13.88
700.094	13.13
700.325	17.01
700.555	18.95
700.786	21.83
701.017	22.57
701.247	22.11
701.478	21.03
701.709	21.48
701.939	21.5
702.17	24.25
702.401	27.57
702.631	28.61
702.862	29.41
703.092	28.16
703.323	34.39
703.553	39.05
703.784	40.76
704.014	43.63
704.244	41.13
704.475	43.78
704.705	46.62
704.936	50.1
705.166	52.45
705.396	59.15
705.627	64.68
705.857	66.93
706.087	72.61
706.317	75.29
706.548	76.75
706.778	78.21
707.008	81.42
707.238	84.49
707.468	84.43
707.698	83.39
707.928	84.52
708.158	85.07
708.389	86.62
708.619	88.91
708.849	91.31
709.079	95.83
709.309	95.61
709.539	94.36
709.768	96.18
709.998	100.21
710.228	100
710.458	98.34
710.688	93.52
710.918	92.69
711.148	89.39
711.378	88.33
711.607	85.09
711.837	84.38
712.067	81.99
712.297	78.14
712.526	74.7
712.756	70.2
712.986	64.74
713.215	57.91
713.445	54.12
713.674	52.66
713.904	50.22
714.134	50.29
714.363	48.5
714.593	45.8
714.822	44.44
715.052	41.85
715.281	42.85
715.511	39.17
715.74	36.34
715.969	31.8
716.199	27.56
716.428	25.02
716.657	23.4
716.887	23.33
717.116	17.02
717.345	16.34
717.575	13.35
717.804	12.75
718.033	10.16
718.262	8.33
718.492	8.12
718.721	7.1
718.95	4.44
719.179	1.81
719.408	2.59
719.637	-2.36
719.866	-4.08
720.095	-1.89
720.324	-3.21
720.553	-6.9
720.782	-8.58
721.011	-8.67
721.24	-12.15
721.469	-12.87
721.698	-12.28
721.927	-11.58
722.156	-13.38
722.385	-16.17
722.613	-10.92
722.842	-10.52
723.071	-6.45
723.3	-4.44
723.529	-5.71
723.757	-5.06
723.986	-9.25
724.215	-9.7
724.443	-8.24
724.672	-5.91
724.901	-5.81
725.129	-4.32
725.358	-0.16
725.586	-3.01
725.815	-2.97
726.043	-3.6
726.272	-4.41
726.5	-5.87
726.729	-4.51
726.957	-8.37
727.186	-11.07
727.414	-8.41
727.642	-6.56
727.871	-6.05
728.099	-6.84
728.327	-5.87
728.556	-4.51
728.784	-3.29
729.012	-6.14
729.241	-2.83
729.469	-2.88
729.697	-6.32
729.925	-5.72
730.153	-8.08
730.381	-8.82
730.61	-8.81
730.838	-11.73
731.066	-10.04
731.294	-9.03
731.522	-12.91
731.75	-17.46
731.978	-17.06
732.206	-18.01
732.434	-19.4
732.662	-16.65
732.89	-17.6
733.118	-18.22
733.346	-18.31
733.573	-16.35
733.801	-15.88
734.029	-8.03
734.257	-6.28
734.485	-2.3
734.712	-0.17
734.94	-0.77
735.168	2.52
735.396	3.1
735.623	1.67
735.851	3.31
736.078	6.07
736.306	7.16
736.534	7.92
736.761	8.15
736.989	4.88
737.216	5.17
737.444	3.05
737.671	5.14
737.899	11.5
738.126	9.47
738.354	8.68
738.581	10.05
738.809	12.44
739.036	8.84
739.263	8.99
739.491	6.18
739.718	6.21
739.945	11.35
740.173	13.86
740.4	15.43
740.627	13.58
740.854	14.47
741.081	11.04
741.309	9.41
741.536	3.46
741.763	0.82
741.99	2.64
742.217	3.46
742.444	3.37
742.671	5.11
742.898	3.27
743.125	0.45
743.352	-4.1
743.579	-4.9
743.806	-4.62
744.033	-0.4
744.26	0.14
744.487	-0.75
744.714	-0.64
744.941	-3.42
745.167	0.75
745.394	0.58
745.621	-0.03
745.848	0.14
746.075	4.13
746.301	6.78
746.528	10.9
746.755	9.02
746.981	7.52
747.208	9.31
747.435	10.27
747.661	10.42
747.888	11.17
748.114	9.65
748.341	11.95
748.567	14.87
748.794	14.53
749.02	14.16
749.247	10.37
749.473	10.1
749.7	8.87
749.926	8.62
750.152	14.36
750.379	15.82
750.605	16.28
750.831	15.12
751.058	12.46
751.284	10.57
751.51	14.46
751.737	16.06
751.963	15.02
752.189	13.32
752.415	12.79
752.641	13.15
752.867	12.64
753.094	10.25
753.32	10.01
753.546	9.54
753.772	10.57
753.998	8.57
754.224	6.21
754.45	4.89
754.676	4.4
754.902	3.25
755.128	4.41
755.354	4.32
755.579	5.11
755.805	6.76
756.031	5.4
756.257	5.08
756.483	4.5
756.709	4.6
756.934	3.66
757.16	-0.42
757.386	0.33
757.612	-1.75
757.837	-2.96
758.063	-1.23
758.289	1.75
758.514	-0.49
758.74	-4.89
758.965	-8.6
759.191	-7.29
759.416	-6.19
759.642	-5.5
759.868	-5.57
760.093	-2.04
760.318	-5.44
760.544	-6.96
760.769	-7.1
760.995	-7.26
761.22	-6.66
761.445	-3.8
761.671	-1.5
761.896	1.29
762.121	0.83
762.347	0.29
762.572	-2.17
762.797	-3
763.022	-3.07
763.248	1.51
763.473	2.18
763.698	0.37
763.923	1.62
764.148	2.55
764.373	1.15
764.598	3.85
764.823	5.39
765.048	2.48
765.273	-1.35
765.498	-1.11
765.723	0.02
765.948	3.05
766.173	1.76
766.398	2.16
766.623	-0.48
766.848	-0.72
767.073	-3.13
767.298	-1.76
767.522	-0.98
767.747	0.86
767.972	0.47
768.197	0.15
768.421	-3.09
768.646	-6.87
768.871	-11.47
769.095	-10.1
769.32	-8.76
769.545	-8.76
769.769	-6.84
769.994	-4.61
770.218	-8.43
770.443	-8.13
770.667	-6.74
770.892	-6.07
771.116	-7.19
771.341	-4.96
771.565	-5.97
771.79	-4.55
772.014	-4.03
772.238	-5.19
772.463	-3.06
772.687	-3.25
772.911	-3.38
773.136	-5.81
773.36	-3.92
773.584	-1.54
773.808	-3.2
774.033	-3.72
774.257	-3.78
774.481	-5.28
774.705	-6.33
774.929	-5.89
775.153	-6.2
775.377	-4.47
775.602	-3.75
775.826	-1.07
776.05	0.67
776.274	-0.41
776.498	-1.63
776.722	-1.45
776.945	-0.11
777.169	-0.43
777.393	-1.22
777.617	-2.72
777.841	-2.82
778.065	-1.95
778.289	-4.26
778.512	-4.27
778.736	-5.41
778.96	-4.99
779.184	-1.94
779.407	-4.41
779.631	-3.04
779.855	-4.79
780.078	-2.75
780.302	-5.45
780.526	-8.11
780.749	-7.55
780.973	-5.1
781.196	-3.9
781.42	-5.36
781.643	-6.15
781.867	-6.3
782.09	-8
782.314	-7
782.537	-7.06
782.76	-7.61
782.984	-7.59
783.207	-8.73
783.431	-7.85
783.654	-9.95
783.877	-13.24
784.1	-13.62
784.324	-14.71
784.547	-14.76
784.77	-19.59
784.993	-19.59
785.216	-18.7
785.44	-19.31
785.663	-20.36
785.886	-18.67
786.109	-18.55
786.332	-17.12
786.555	-16.75
786.778	-14.16
787.001	-13.12
787.224	-10.23
787.447	-8.39
787.67	-7.27
787.893	-7.17
788.116	-7.06
788.339	-4.73
788.561	-4.58
788.784	-7.54
789.007	-9.07
789.23	-11.61
789.453	-11.81
789.675	-14.09
789.898	-16.12
790.121	-17.89
790.344	-17.29
790.566	-16.53
790.789	-16.2
791.012	-15.23
791.234	-11.42
791.457	-7.57
791.679	-5.27
791.902	-5.9
792.124	-6.47
792.347	-6.8
792.569	-6.14
792.792	-9.42
793.014	-7.04
793.237	-5.99
793.459	-6.95
793.681	-6.99
793.904	-8.2
794.126	-10.52
794.348	-10.41
794.571	-9.36
794.793	-11.13
795.015	-11.42
795.237	-13.38
795.46	-12.9
795.682	-10.72
795.904	-7.78
796.126	-9.2
796.348	-9.29
796.57	-4.71
796.792	-4.29
797.014	0.39
797.237	2.2
797.459	4.07
797.681	5.27
797.903	3.53
798.124	3.53
798.346	14.51
798.568	16.24
798.79	19.89
799.012	21.76
799.234	23.48
799.456	25.25
799.678	27.59
799.899	25
800.121	21.67
800.343	21.99
800.565	22.5
800.786	21.65
801.008	22.94
801.23	22.41
801.451	21.85
801.673	19.92
801.895	19.49
802.116	21.74
802.338	22.85
802.559	21.83
802.781	19.34
803.002	21.68
803.224	23.8
803.445	20.85
803.667	21.91
803.888	19.34
804.109	18.88
804.331	18.22
804.552	17.69
804.773	20.03
804.995	16.46
805.216	1.99
805.437	-0.48
805.658	-3.14
805.88	-5.83
806.101	-4.86
806.322	-5.04
806.543	-5.87
806.764	-7.71
806.985	-5.15
807.207	-4.73
807.428	-3.94
807.649	-6.78
807.87	-8.17
808.091	-7.57
808.312	-5.8
808.533	-0.02
808.754	1.86
808.975	-0.31
809.195	1.66
809.416	3.2
809.637	3.65
809.858	1.52
810.079	-0.63
810.3	2.69
810.52	1.7
810.741	0.13
810.962	-1.32
811.183	-1.65
811.403	-0.86
811.624	-1.53
811.845	1.02
812.065	2.81
812.286	2.87
812.506	3.29
812.727	4.26
812.948	3.93
813.168	4.97
813.389	4.18
813.609	6.37
813.83	3.73
814.05	2.47
814.27	1.55
814.491	6.25
814.711	6.09
814.931	2.99
815.152	2.55
815.372	0.78
815.592	-0.82
815.813	-0.54
816.033	-3.21
816.253	-2.87
816.473	-3.15
816.694	-1.35
816.914	-1.59
817.134	-4.19
817.354	-5.76
817.574	-5.22
817.794	-5.27
818.014	-6.43
818.234	-6
818.454	-6.95
818.674	-9.43
818.894	-12.18
819.114	-7.66
819.334	-8.24
819.554	-5.88
819.774	-2.94
819.994	-5.12
820.214	-5.94
820.433	-7.86
820.653	-6.63
820.873	-3.64
821.093	-3.01
821.312	-4.53
821.532	-2.98
821.752	0.33
821.972	-1.87
822.191	-1.42
822.411	-3.01
822.63	-1.75
822.85	-0.91
823.07	-4.42
823.289	-2.72
823.509	-3.69
823.728	-0.13
823.948	-0.89
824.167	-2.24
824.387	-2.61
824.606	-2.17
824.825	-3.68
825.045	-5.22
825.264	-5.96
825.483	-3.95
825.703	-1.31
825.922	-4.61
826.141	-5.11
826.361	-6.08
826.58	-10.86
826.799	-13.02
827.018	-11.29
827.237	-9.23
827.456	-7.29
827.676	-8.33
827.895	-8.93
828.114	-8.55
828.333	-9.11
828.552	-8.9
828.771	-7.37
828.99	-10.56
829.209	-9.96
829.428	-8.2
829.647	-8.99
829.866	-6.52
830.084	-6.36
830.303	-6.44
830.522	-8.32
830.741	-8.17
830.96	-6.53
831.179	-6.04
831.397	-7.03
831.616	-5.78
831.835	-5.85
832.053	-5.15
832.272	-5.24
832.491	-5.05
832.709	-5.36
832.928	-4.37
833.147	-5.78
833.365	-4.46
833.584	-0.33
833.802	1.21
834.021	1.07
834.239	1.24
834.458	-0.28
834.676	-2.75
834.894	-3.5
835.113	-2.99
835.331	-4.46
835.55	-6.58
835.768	-5.27
835.986	-4.61
836.204	-6.61
836.423	-5.39
836.641	-6.24
836.859	-8.14
837.077	-6.79
837.296	-6.2
837.514	-7.55
837.732	-9.53
837.95	-9.86
838.168	-8.13
838.386	-8.47
838.604	-6.7
838.822	-5.23
839.04	-5.71
839.258	-5.39
839.476	-3.14
839.694	-3.26
839.912	-3.39
840.13	-3.2
840.348	-2.28
840.566	-4.58
840.783	-1.97
841.001	-3.08
841.219	-1.07
841.437	-0.6
841.655	0.22
841.872	-1.42
842.09	-2.34
842.308	0.48
842.525	1.41
842.743	2.35
842.961	0.63
843.178	-2.01
843.396	1.51
843.613	2.04
843.831	2.9
844.048	2.43
844.266	3.62
844.483	4.58
844.701	3.53
844.918	3.21
845.136	1.9
845.353	1.47
845.57	1.45
845.788	5.25
846.005	2.56
846.222	-0.23
846.439	0.71
846.657	1.65
846.874	2.19
847.091	0.13
847.308	1.59
847.526	-1.1
847.743	-1.54
847.96	-4.04
848.177	-2.66
848.394	-2.52
848.611	-2.66
848.828	-2.77
849.045	-3.72
849.262	-4.41
849.479	-4.62
849.696	-5.85
849.913	-6.61
850.13	-11.44
850.347	-8.29
850.564	-9.68
850.78	-11.43
850.997	-13.06
851.214	-11.7
851.431	-9.94
851.647	-13.25
851.864	-10.93
852.081	-10.39
852.298	-13.7
852.514	-16.08
852.731	-14.45
852.948	-11.42
853.164	-10.86
853.381	-11.29
853.597	-12.68
853.814	-15.13
854.03	-17.62
854.247	-15.58
854.463	-15.53
854.68	-16.05
854.896	-16.16
855.113	-15.1
855.329	-14.13
855.545	-10.1
855.762	-11.29
855.978	-14.78
856.194	-16.29
856.411	-11.86
856.627	-9.2
856.843	-7.69
857.059	-5.89
857.275	-8.11
857.492	-6.36
857.708	-3.26
857.924	-2.53
858.14	-1.19
858.356	-0.16
858.572	-1.4
858.788	-2.14
859.004	-0.34
859.22	-3.06
859.436	-1.75
859.652	-3.35
859.868	-4.75
860.084	-3.77
860.3	-4.27
860.516	-2.9
860.731	-1.8
860.947	-5.12
861.163	-2.36
861.379	-1.09
861.595	0.78
861.81	-0.65
862.026	-1
862.242	-2.11
862.457	-2.6
862.673	0.67
862.889	0.86
863.104	-0.13
863.32	-0.4
863.535	0.98
863.751	-4.72
863.966	-0.03
864.182	1.22
864.397	0.12
864.613	-1.86
864.828	-2.38
865.044	-1.54
865.259	1.42
865.474	0.69
865.69	2.12
865.905	3.2
866.12	0.22
866.336	-0.77
866.551	0.02
866.766	-1.92
866.981	-2.77
867.196	-3.39
867.412	-2.57
867.627	-2.44
867.842	-5.49
868.057	-6.14
868.272	-8.24
868.487	-8.82
868.702	-11.59
868.917	-12.43
869.132	-10.49
869.347	-11.49
869.562	-11.67
869.777	-11.95
869.992	-13.37
870.207	-14.22
870.422	-13.07
870.636	-15.28
870.851	-17.34
871.066	-18.96
871.281	-19.13
871.495	-21.32
871.71	-18.3
871.925	-22.16
872.14	-23.82
872.354	-26.68
872.569	-28.85
872.783	-26.39
872.998	-25.71
873.213	-26.04
873.427	-23.32
873.642	-21.94
873.856	-22.31
874.071	-23.33
874.285	-23.79
874.5	-25.48
874.714	-25.52
874.928	-26.25
875.143	-25.94
875.357	-24.72
875.571	-25.5
875.786	-25.2
876	-21.26
876.214	-19.18
876.429	-20.18
876.643	-18.41
876.857	-17.47
877.071	-16.73
877.285	-18.56
877.499	-21.05
877.714	-18.16
877.928	-15.65
878.142	-17.41
878.356	-19.87
878.57	-18.25
878.784	-16.3
878.998	-16.32
879.212	-11.64
879.426	-12.45
879.639	-10.27
879.853	-11.99
880.067	-12.84
880.281	-14.37
880.495	-11.52
880.709	-9.15
880.922	-8.91
881.136	-6.65
881.35	-5.54
881.564	-4.85
881.777	-7.18
881.991	-5.89
882.205	-3.95
882.418	-4.8
882.632	-7.4
882.845	-9
883.059	-9.44
883.273	-11.4
883.486	-12.89
883.7	-11.19
883.913	-10.93
884.126	-8.57
884.34	-11.79
884.553	-14.19
884.767	-9.27
884.98	-9.98
885.193	-11.3
885.407	-11.87
885.62	-9.35
885.833	-10.53
886.046	-9.98
886.26	-12.81
886.473	-13.81
886.686	-15.44
886.899	-12.2
887.112	-14.97
887.326	-18.39
887.539	-15.74
887.752	-14.84
887.965	-16.7
888.178	-16.22
888.391	-14.62
888.604	-14.85
888.817	-15.99
889.03	-14.49
889.243	-15.15
889.455	-17.64
889.668	-16.72
889.881	-12.96
890.094	-13.48
890.307	-16.31
890.52	-15.79
890.732	-14.76
890.945	-13.77
891.158	-13.43
891.37	-15.49
891.583	-14.5
891.796	-11.52
892.008	-12.59
892.221	-13.88
892.434	-17.89
892.646	-19.06
892.859	-18.73
893.071	-16.05
893.284	-14.63
893.496	-17.01
893.709	-16.31
893.921	-14.24
894.133	-16.2
894.346	-17.75
894.558	-17.44
894.771	-17.24
894.983	-14.41
895.195	-13.32
895.407	-13.2
895.62	-16.15
895.832	-15.7
896.044	-11.91
896.256	-13.37
896.468	-15.73
896.681	-13.42
896.893	-12.27
897.105	-11.34
897.317	-12.6
897.529	-10.26
897.741	-9.58
897.953	-7.13
898.165	-8.91
898.377	-12.5
898.589	-11.07
898.801	-11.67
899.013	-7.38
899.224	-5.1
899.436	-2.98
899.648	-5.01
899.86	-5.38
900.072	-3.1
900.283	-2.32
900.495	-1.37
900.707	-0.79
900.919	-2.96
901.13	-1.52
901.342	-2.55
901.554	-5.12
901.765	-4.38
901.977	-8.11
902.188	-8.73
902.4	-10.9
902.611	-12.61
902.823	-13.24
903.034	-15.7
903.246	-17.85
903.457	-19.3
903.669	-20.7
903.88	-19.84
904.091	-21.72
904.303	-21.29
904.514	-24.13
904.725	-23
904.936	-20.8
905.148	-20.74
905.359	-17.81
905.57	-19.05
905.781	-21.75
905.992	-23.3
906.204	-20.08
906.415	-19.99
906.626	-22.29
906.837	-18.7
907.048	-20.04
907.259	-21.67
907.47	-22.02
907.681	-23.66
907.892	-20.73
908.103	-21.59
908.314	-24.77
908.525	-21.06
908.735	-20.2
908.946	-20.02
909.157	-21.3
909.368	-18.4
909.579	-16.48
909.789	-18.61
910	-19.27
910.211	-16.07
910.421	-17.9
910.632	-17.36
910.843	-19.99
911.053	-15.9
911.264	-11.25
911.475	-12.24
911.685	-11.75
911.896	-12.54
912.106	-11.72
912.317	-11.74
912.527	-10.84
912.737	-12.87
912.948	-12.28
913.158	-11.02
913.369	-15.48
913.579	-13.5
913.789	-12.2
914	-7.72
914.21	-7.52
914.42	-9.5
914.63	-9.74
914.841	-8.46
915.051	-6.96
915.261	-5.35
915.471	-1.71
915.681	-1
915.891	-1.94
916.101	-2.31
916.311	-0.68
916.521	1.16
916.731	1.5
916.941	5.31
917.151	4.6
917.361	8.38
917.571	3.56
917.781	0.62
917.991	-2.04
918.201	-2.03
918.411	-4.61
918.621	-5.45
918.83	-5.32
919.04	-6.45
919.25	-4.2
919.46	-2.79
919.669	-4.72
919.879	-4.32
920.089	-5.67
920.298	-6.61
920.508	-6.84
920.717	-5.91
920.927	-6.94
921.136	-6.47
921.346	-7.09
921.555	-9.95
921.765	-10.15
921.974	-13.68
922.184	-15.84
922.393	-16.08
922.603	-17.54
922.812	-15.58
923.021	-17.24
923.23	-19.71
923.44	-22.54
923.649	-22
923.858	-22.76
924.067	-21.81
924.277	-23.7
924.486	-20.77
924.695	-21.21
924.904	-19.26
925.113	-19.99
925.322	-17.86
925.531	-17.07
925.74	-18.94
925.949	-20.56
926.158	-18.35
926.367	-17.94
926.576	-16.89
926.785	-17.63
926.994	-19.32
927.203	-18.7
927.412	-19.78
927.621	-19.34
927.83	-17.73
928.038	-17.18
928.247	-18.61
928.456	-17.43
928.665	-15.51
928.873	-13.1
929.082	-11.06
929.291	-10.46
929.499	-7.01
929.708	-8.94
929.916	-9.14
930.125	-10.61
930.333	-12.24
930.542	-9.53
930.75	-7.31
930.959	-6.95
931.167	-5.64
931.376	-7
931.584	-4.38
931.793	-3.61
932.001	-4.36
932.209	-6.96
932.418	-8.92
932.626	-11.72
932.834	-14.22
933.042	-17.9
933.251	-17.19
933.459	-17.47
933.667	-17.47
933.875	-15.88
934.083	-14.68
934.291	-14.55
934.499	-13.36
934.707	-13.05
934.915	-13.76
935.123	-12.47
935.331	-15.35
935.539	-17.29
935.747	-19.93
935.955	-22.53
936.163	-20.98
936.371	-19.53
936.579	-17.32
936.787	-17.3
936.995	-20.1
937.202	-21.78
937.41	-21.07
937.618	-22.6
937.826	-21.78
938.033	-27.33
938.241	-29.7
938.449	-26.67
938.656	-23.95
938.864	-23.35
939.071	-22.09
939.279	-17.71
939.486	-15.22
939.694	-15.83
939.901	-16.16
940.109	-15.83
940.316	-15.35
940.524	-16.43
940.731	-17.6
940.939	-17.27
941.146	-17.68
941.353	-18.24
941.561	-18.48
941.768	-18.63
941.975	-17.38
942.182	-17.09
942.39	-15.38
942.597	-11.34
942.804	-13.1
943.011	-13.68
943.218	-12.31
943.425	-11.29
943.632	-11.02
943.839	-13.33
944.046	-15.2
944.253	-16.3
944.46	-14.33
944.667	-11.06
944.874	-13.04
945.081	-12.03
945.288	-10.63
945.495	-9.41
945.702	-9.5
945.909	-11.57
946.115	-7.97
946.322	-10.04
946.529	-12.12
946.736	-13.24
946.942	-11.86
947.149	-12.51
947.356	-14.28
947.562	-15.36
947.769	-13.89
947.976	-14.09
948.182	-12.56
948.389	-12.55
948.595	-11.58
948.802	-11.94
949.008	-14.77
949.215	-13.37
949.421	-14.05
949.628	-16.07
949.834	-17.12
950.04	-17.36
950.247	-12.6
950.453	-11.52
950.659	-11.14
950.865	-9.32
951.072	-13.63
951.278	-10.49
951.484	-11.79
951.69	-14.77
951.896	-15.61
952.103	-17.32
952.309	-15.45
952.515	-17.13
952.721	-14.46
952.927	-12.1
953.133	-13.25
953.339	-14.44
953.545	-13.46
953.751	-12.37
953.957	-9.02
954.163	-11.41
954.369	-10.22
954.574	-12.16
954.78	-12.84
954.986	-11.64
955.192	-9.68
955.398	-10.72
955.603	-12.35
955.809	-9.98
956.015	-8.99
956.22	-7.52
956.426	-7.28
956.632	-10.79
956.837	-9.38
957.043	-8.83
957.248	-8.73
957.454	-7.08
957.66	-9.83
957.865	-10.99
958.07	-9.41
958.276	-10.11
958.481	-11.39
958.687	-12.41
958.892	-13.48
959.097	-13.2
959.303	-13.57
959.508	-13.29
959.713	-13.15
959.919	-13.83
960.124	-14.62
960.329	-14.46
960.534	-12.18
960.739	-11.95
960.945	-10.28
961.15	-10.05
961.355	-11.7
961.56	-15.46
961.765	-16.42
961.97	-16.9
962.175	-16.87
962.38	-19.79
962.585	-20.02
962.79	-21.5
962.995	-22.05
963.2	-22.61
963.404	-22.94
963.609	-25.43
963.814	-28.92
964.019	-31.62
964.224	-32.85
964.428	-31.32
964.633	-30.02
964.838	-28.98
965.042	-29.84
965.247	-29.93
965.452	-30.7
965.656	-30.38
965.861	-29.5
966.066	-30.95
966.27	-29.08
966.475	-25.64
966.679	-30.21
966.884	-28.03
967.088	-31.09
967.292	-31.84
967.497	-29.81
967.701	-29.99
967.906	-29.08
968.11	-26.53
968.314	-22.06
968.518	-23.58
968.723	-19.66
968.927	-17.98
969.131	-16.32
969.335	-14.16
969.539	-14.85
969.744	-12.57
969.948	-9.66
970.152	-6.58
970.356	-4.59
970.56	-4.61
970.764	-4.98
970.968	-2.9
971.172	-2.95
971.376	-1.27
971.58	-1.54
971.784	0.23
971.988	-1.36
972.192	1.65
972.395	1.41
972.599	-0.79
972.803	-1.91
973.007	0.8
973.21	-0.82
973.414	-1.12
973.618	-0.63
973.822	-2.64
974.025	-2.2
974.229	-2.43
974.432	-4.61
974.636	-7.25
974.84	-5.56
975.043	-6.74
975.247	-9.42
975.45	-10.71
975.654	-9.6
975.857	-7.94
976.06	-10.92
976.264	-12.9
976.467	-10.81
976.671	-10.99
976.874	-10.18
977.077	-12.7
977.28	-13.98
977.484	-15.34
977.687	-16.18
977.89	-13.15
978.093	-14.2
978.297	-13.08
978.5	-15.32
978.703	-14.28
978.906	-12.12
979.109	-12.82
979.312	-11.88
979.515	-11.62
979.718	-11.69
979.921	-12.93
980.124	-13.92
980.327	-14.53
980.53	-14.37
980.733	-12.48
980.936	-11.15
981.138	-13.96
981.341	-13.63
981.544	-14.1
981.747	-14.36
981.949	-16.11
982.152	-14.39
982.355	-13.79
982.558	-10.33
982.76	-13.55
982.963	-14.45
983.165	-12.88
983.368	-11.73
983.571	-12.31
983.773	-9.07
983.976	-8.05
984.178	-9.95
984.381	-10.13
984.583	-12.68
984.785	-12.81
984.988	-10.22
985.19	-9.49
985.392	-10.91
985.595	-15.37
985.797	-15.64
985.999	-11.86
986.202	-8.73
986.404	-9.46
986.606	-6.18
986.808	-6.5
987.01	-5.02
987.212	-5.61
987.415	-6.23
987.617	-4.67
987.819	-4.03
988.021	-1.97
988.223	-4.08
988.425	-5.98
988.627	-5.71
988.829	-9.43
989.031	-6.43
989.232	-6.27
989.434	-4.97
989.636	-4.79
989.838	-5.08
990.04	-3.78
990.242	-5.51
990.443	-6.13
990.645	-5.03
990.847	-1.74
991.048	-1.49
991.25	-3.17
991.452	-4.78
991.653	-5.59
991.855	-4.41
992.057	-5.91
992.258	-6.25
992.46	-6.24
992.661	-3.95
992.863	-5.15
993.064	-4.18
993.265	-6.07
993.467	-7.55
993.668	-4.95
993.87	-5.13
994.071	-4.19
994.272	-6.36
994.473	-5.1
994.675	-5.92
994.876	-5.2
995.077	-4.7
995.278	-5.88
995.48	-5.29
995.681	-6.74
995.882	-4.58
996.083	-4.69
996.284	-9.83
996.485	-8.16
996.686	-8.91
996.887	-8.77
997.088	-13.22
997.289	-15.46
997.49	-16.11
997.691	-15.89
997.892	-15.65
998.092	-10.47
998.293	-10.46
998.494	-11.27
998.695	-13.7
998.896	-12.34
999.096	-14.03
999.297	-14.06
999.498	-15.73
999.698	-18.5
999.899	-21.06
1000.1	-24.86
1000.3	-26.07
1000.501	-23.65
1000.701	-22.29
1000.902	-23.06
1001.102	-22.36
1001.303	-21.95
1001.503	-23.83
1001.704	-24.35
1001.904	-25.38
1002.105	-25.02
1002.305	-24.78
1002.505	-25.09
1002.706	-26.27
1002.906	-26.89
1003.106	-28.11
1003.306	-25.36
1003.507	-21.31
1003.707	-20.72
1003.907	-18.37
1004.107	-16.64
1004.307	-18.79
1004.507	-16.43
1004.707	-16.93
1004.907	-18.38
1005.107	-19.92
1005.308	-19.52
1005.507	-21.51
1005.707	-18.44
1005.907	-17.24
1006.107	-14.93
1006.307	-12.16
1006.507	-12.43
1006.707	-12.55
1006.907	-12.98
1007.106	-11.74
1007.306	-13.48
1007.506	-12.56
1007.706	-11.99
1007.905	-13.29
1008.105	-12.22
1008.305	-15.13
1008.504	-15.32
1008.704	-10.01
1008.903	-10.07
1009.103	-7.94
1009.303	-9.52
1009.502	-8.77
1009.702	-11.57
1009.901	-12.16
1010.1	-14.53
1010.3	-13.03
1010.499	-15.13
1010.699	-17.61
1010.898	-18.45
1011.097	-17.82
1011.296	-17.13
1011.496	-18.15
1011.695	-18.44
1011.894	-21.05
1012.093	-17.19
1012.293	-17.66
1012.492	-16.96
1012.691	-16.22
1012.89	-16.85
1013.089	-18.96
1013.288	-17.56
1013.487	-16.34
1013.686	-16.73
1013.885	-17.43
1014.084	-16.16
1014.283	-17.13
1014.482	-16.89
1014.681	-16.82
1014.88	-20.44
1015.078	-18.68
1015.277	-21.57
1015.476	-22.17
1015.675	-23.35
1015.873	-22.6
1016.072	-24.36
1016.271	-22.35
1016.47	-26.57
1016.668	-24.87
1016.867	-25.91
1017.065	-26.85
1017.264	-27.43
1017.463	-26.94
1017.661	-26.87
1017.86	-26.5
1018.058	-24.15
1018.256	-27.03
1018.455	-28.55
1018.653	-28.6
1018.852	-28.98
1019.05	-31.06
1019.248	-31.29
1019.447	-33.34
1019.645	-33.53
1019.843	-34.49
1020.041	-32.81
1020.24	-33.13
1020.438	-29.16
1020.636	-30.2
1020.834	-32.95
1021.032	-30.58
1021.23	-31.48
1021.428	-28.68
1021.626	-24.77
1021.824	-24.56
1022.022	-25.48
1022.22	-22.74
1022.418	-22
1022.616	-21.8
1022.814	-21.28
1023.012	-20.78
1023.21	-19.91
1023.408	-18.71
1023.606	-19.45
1023.803	-13.97
1024.001	-13.23
1024.199	-16.57
1024.397	-15.14
1024.594	-14.6
1024.792	-16.5
1024.99	-13.89
1025.187	-14.27
1025.385	-9.98
1025.582	-10.21
1025.78	-11.76
1025.977	-10.84
1026.175	-11.94
1026.372	-11.69
1026.57	-14.75
1026.767	-11.69
1026.965	-10.29
1027.162	-11.16
1027.359	-12.17
1027.557	-11.48
1027.754	-14.26
1027.951	-14.76
1028.148	-12.54
1028.346	-14.36
1028.543	-17.63
1028.74	-17.85
1028.937	-21.03
1029.134	-20.99
1029.331	-21.59
1029.528	-21.82
1029.725	-22.87
1029.923	-27.05
1030.12	-23.19
1030.317	-22.35
1030.513	-21.64
1030.71	-19.27
1030.907	-16.84
1031.104	-19.54
1031.301	-19.48
1031.498	-21.25
1031.695	-21.02
1031.892	-20.37
1032.088	-19.88
1032.285	-21.52
1032.482	-22.87
1032.678	-25.35
1032.875	-27.85
1033.072	-26.71
1033.268	-26.64
1033.465	-25.85
1033.662	-28.7
1033.858	-29.05
1034.055	-28.91
1034.251	-26.49
1034.448	-27.23
1034.644	-26.02
1034.84	-23.35
1035.037	-21.58
1035.233	-20.62
1035.43	-18.09
1035.626	-19.54
1035.822	-20.43
1036.019	-20.81
1036.215	-24.81
1036.411	-25.96
1036.607	-27.5
1036.803	-30.78
1037	-31.71
1037.196	-32.64
1037.392	-33.22
1037.588	-35.61
1037.784	-35.51
1037.98	-35.66
1038.176	-36.57
1038.372	-36.39
1038.568	-34.26
1038.764	-31.8
1038.96	-28.87
1039.156	-30.54
1039.352	-32.32
1039.547	-30.1
1039.743	-29.76
1039.939	-27.15
1040.135	-27.68
1040.331	-30.1
1040.526	-27.88
1040.722	-29.29
1040.918	-31.64
1041.113	-33.6
1041.309	-34.03
1041.505	-37.51
1041.7	-35.07
1041.896	-34.17
1042.091	-35.12
1042.287	-35.11
1042.482	-33.46
1042.678	-33.45
1042.873	-32.59
1043.069	-33.79
1043.264	-32.77
1043.459	-30.99
1043.655	-29.36
1043.85	-29.51
1044.045	-28.86
1044.24	-29
1044.436	-26.54
1044.631	-28.01
1044.826	-29.37
1045.021	-33.25
1045.216	-31.6
