Data from FLMT021711__21__18-15-48-687.txt Node

Date: Tue Nov 05 18:15:48 CET 2024
User: Etudiants TP
Spectrometer: FLMT02171
Trigger mode: 0
Integration Time (sec): 1.000000E-1
Scans to average: 5
Electric dark correction enabled: true
Nonlinearity correction enabled: false
Boxcar width: 15
XAxis mode: Wavelengths
Number of Pixels in Spectrum: 3648
>>>>>Begin Spectral Data<<<<<
194.658	-66.33
194.923	-63.54
195.188	-54.01
195.453	-53.54
195.717	-48.6
195.982	-45.88
196.247	-44.08
196.512	-47.15
196.777	-46.04
197.042	-43.94
197.307	-44.02
197.572	-39.09
197.837	-38.84
198.101	-37.57
198.366	-35.15
198.631	-33.52
198.896	-26.97
199.161	-20.4
199.425	-13.31
199.69	-2.67
199.955	-3.89
200.22	-8.74
200.484	-9
200.749	-10.38
201.014	-10.36
201.278	-11.9
201.543	-10.02
201.807	-9.8
202.072	-7.89
202.337	-7.78
202.601	-8.47
202.866	-10.59
203.13	-9.31
203.395	-13.02
203.659	-13.84
203.924	-15.06
204.189	-15.34
204.453	-13.62
204.717	-10.44
204.982	-8.93
205.246	-8.18
205.511	-5.58
205.775	-6.67
206.04	-0.79
206.304	1.72
206.568	4.55
206.833	5.86
207.097	6.68
207.361	9.26
207.626	14.46
207.89	14.51
208.154	16.1
208.419	19.22
208.683	19.86
208.947	22.44
209.211	23.38
209.476	24.68
209.74	25.27
210.004	24.5
210.268	26.01
210.532	29.8
210.796	29.58
211.061	30.56
211.325	30.73
211.589	29.38
211.853	31.53
212.117	32.22
212.381	32.32
212.645	31.31
212.909	31.38
213.173	28.79
213.437	28.97
213.701	29.45
213.965	30.83
214.229	25.16
214.493	23.73
214.757	21.2
215.021	19.22
215.285	23.72
215.549	26.48
215.813	22.62
216.077	22.04
216.34	23.63
216.604	23.08
216.868	22.79
217.132	25.1
217.396	23.81
217.659	23.2
217.923	18.27
218.187	18.13
218.451	15.43
218.714	11.09
218.978	12.7
219.242	15.45
219.505	16.38
219.769	17.39
220.033	17.03
220.296	18.37
220.56	19.66
220.824	18.03
221.087	18.57
221.351	18.44
221.614	19.09
221.878	19.34
222.142	16.71
222.405	16.05
222.669	18.17
222.932	15.03
223.196	14.21
223.459	9.58
223.722	8.42
223.986	7.32
224.249	6.49
224.513	7.99
224.776	8.58
225.04	9.6
225.303	7.96
225.566	7.63
225.83	9.87
226.093	13.15
226.356	11.45
226.62	10.57
226.883	12.9
227.146	12.02
227.409	10.08
227.673	7.04
227.936	6.76
228.199	6.44
228.462	4.62
228.725	3.4
228.989	2.57
229.252	4.07
229.515	10.96
229.778	9.57
230.041	8.12
230.304	6.48
230.567	7.47
230.83	6.65
231.093	9.5
231.356	10.19
231.619	17.52
231.882	16.92
232.145	19.18
232.408	17.59
232.671	15.53
232.934	14.27
233.197	12.61
233.46	11.64
233.723	14.52
233.986	10.63
234.249	8.97
234.512	11.63
234.775	15.76
235.037	17.58
235.3	18.83
235.563	18.83
235.826	20.96
236.089	24.15
236.351	25.02
236.614	25.69
236.877	26.56
237.14	29.27
237.402	27.81
237.665	20.98
237.928	21.15
238.19	19.51
238.453	22.08
238.716	21.84
238.978	20.51
239.241	18.72
239.503	20.8
239.766	15.61
240.029	13.76
240.291	17.48
240.554	17.24
240.816	15.95
241.079	16.49
241.341	15.8
241.604	15.97
241.866	12.38
242.129	16.38
242.391	18.47
242.653	16.54
242.916	15.56
243.178	12.67
243.441	13.78
243.703	13.12
243.965	10.54
244.228	9.75
244.49	9.09
244.752	10.76
245.015	11.51
245.277	13.56
245.539	13.07
245.801	13.88
246.064	11.62
246.326	12.07
246.588	12.31
246.85	14.21
247.112	15.02
247.374	17.25
247.637	17.99
247.899	17.26
248.161	17.69
248.423	12.4
248.685	14.47
248.947	14.84
249.209	15.37
249.471	18.77
249.733	18.86
249.995	17.09
250.257	15.53
250.519	13.21
250.781	17.34
251.043	14.91
251.305	16.94
251.567	17.96
251.829	18.74
252.091	18.94
252.353	15
252.615	14.93
252.876	12.78
253.138	10.34
253.4	6.46
253.662	6.86
253.924	9.61
254.185	12.34
254.447	11.88
254.709	11.57
254.971	13.14
255.232	13.9
255.494	13.14
255.756	12.86
256.017	13.36
256.279	13.19
256.541	13.74
256.802	12.74
257.064	13.97
257.326	12.71
257.587	10.43
257.849	10.94
258.11	13.88
258.372	15
258.633	16.71
258.895	14.92
259.156	14.14
259.418	12.96
259.679	7.95
259.941	5.39
260.202	7.69
260.464	9.64
260.725	9.36
260.987	7.55
261.248	7.51
261.509	7.82
261.771	7.11
262.032	8.42
262.293	6.91
262.555	5.88
262.816	3.96
263.077	0.45
263.338	-0.38
263.6	-0.13
263.861	-2.54
264.122	-3.05
264.383	0.37
264.645	0.73
264.906	-0.97
265.167	-0.41
265.428	-1.22
265.689	0.45
265.95	-2.17
266.211	-0.75
266.473	-1.97
266.734	-5.74
266.995	-8.43
267.256	-7.8
267.517	-6.05
267.778	-1.63
268.039	-0.48
268.3	-2.72
268.561	-4.49
268.822	-1.68
269.083	-2.79
269.344	-3.9
269.604	-4.75
269.865	-4.2
270.126	-8.59
270.387	-7.59
270.648	-5.42
270.909	-6.36
271.17	-5.58
271.43	-9.42
271.691	-13.27
271.952	-13.7
272.213	-12.44
272.473	-15.25
272.734	-13.67
272.995	-10.98
273.256	-11.05
273.516	-7.81
273.777	-10.32
274.038	-8.32
274.298	-11.13
274.559	-11.13
274.82	-5.13
275.08	-3.59
275.341	-0.8
275.601	-1.52
275.862	-4.08
276.122	-2.49
276.383	-0.45
276.643	0.72
276.904	-0.37
277.164	2.73
277.425	1.91
277.685	6.29
277.946	6.4
278.206	7.85
278.467	10.8
278.727	9.52
278.987	10.77
279.248	10.1
279.508	11.64
279.768	14.82
280.029	15.7
280.289	13.44
280.549	12.7
280.81	11.59
281.07	11.04
281.33	13.07
281.59	10.95
281.851	14.58
282.111	14.21
282.371	14.49
282.631	15.85
282.891	13.41
283.151	12.12
283.412	8.49
283.672	7.7
283.932	8.66
284.192	9.34
284.452	6.8
284.712	5.44
284.972	3.9
285.232	1.6
285.492	4.13
285.752	2.12
286.012	8.55
286.272	9.82
286.532	6.08
286.792	7.27
287.052	8.59
287.312	10.09
287.571	8.75
287.831	8.09
288.091	6.33
288.351	6.07
288.611	10.21
288.871	9.16
289.13	8.22
289.39	3.28
289.65	4.69
289.91	1.17
290.17	4.03
290.429	6.63
290.689	4.34
290.949	0.7
291.208	2.56
291.468	7.67
291.728	9.6
291.987	11.29
292.247	10.28
292.506	13.01
292.766	16.23
293.026	15.35
293.285	18.1
293.545	21.67
293.804	21.12
294.064	16.04
294.323	13.65
294.583	14.33
294.842	15.3
295.102	15.2
295.361	15.18
295.621	15.88
295.88	17.1
296.139	15.9
296.399	16.96
296.658	10.9
296.917	11.92
297.177	9.6
297.436	11.42
297.695	9.3
297.955	11.63
298.214	10.04
298.473	10.63
298.732	12.57
298.992	16.71
299.251	15.56
299.51	10.48
299.769	10.1
300.028	8.57
300.287	8.27
300.547	6.85
300.806	3.66
301.065	7.55
301.324	8.12
301.583	2.77
301.842	-0.22
302.101	-2.06
302.36	-0.51
302.619	-1.67
302.878	-2.05
303.137	-4.77
303.396	-4.27
303.655	-2.38
303.914	-4.68
304.173	-3.46
304.432	-3.56
304.691	0.45
304.95	-1.42
305.208	3.27
305.467	3.2
305.726	3.13
305.985	3.24
306.244	4.29
306.503	4.01
306.761	4.23
307.02	0.32
307.279	0.56
307.537	1.31
307.796	-1.28
308.055	-3.8
308.314	-1.78
308.572	-2.22
308.831	0.71
309.09	-0.4
309.348	-0.12
309.607	0.44
309.865	4.8
310.124	5.08
310.382	6.11
310.641	7.72
310.9	6.76
311.158	7.89
311.417	7.95
311.675	9.24
311.933	9.48
312.192	11.34
312.45	11.51
312.709	9.79
312.967	9.61
313.226	8.7
313.484	7.75
313.742	7.12
314.001	5.31
314.259	3.39
314.517	3.29
314.776	4.53
315.034	8.04
315.292	7.41
315.55	5.57
315.809	5.68
316.067	6.65
316.325	3.99
316.583	6.01
316.841	4.51
317.1	2.2
317.358	-0.66
317.616	-0.97
317.874	-1.94
318.132	-2.56
318.39	-3.16
318.648	-4.1
318.906	-4.03
319.164	-4.76
319.422	-5.49
319.68	-8.11
319.938	-7.29
320.196	-6.52
320.454	-5.8
320.712	-5.57
320.97	-6.04
321.228	-7.23
321.486	-4.89
321.744	-3.44
322.002	-1.35
322.26	-3.66
322.517	-3.85
322.775	-7.71
323.033	-9.72
323.291	-7.05
323.549	-4.16
323.806	-2.6
324.064	-2.44
324.322	-0.84
324.58	-2.91
324.837	-0.34
325.095	-2.49
325.353	-1.08
325.61	1.21
325.868	-0.66
326.126	2.36
326.383	0.91
326.641	-0.96
326.898	0.15
327.156	1.09
327.413	0.27
327.671	1.7
327.928	4.16
328.186	4.42
328.443	3.29
328.701	7.47
328.958	9.32
329.216	9.24
329.473	7.84
329.731	8.18
329.988	7.96
330.245	10.3
330.503	10.72
330.76	11.23
331.017	14.99
331.275	11.76
331.532	10.87
331.789	8.79
332.047	9.06
332.304	6.8
332.561	7.28
332.818	5.35
333.076	9.24
333.333	10.07
333.59	10.11
333.847	12.53
334.104	9.87
334.361	9.5
334.618	10.79
334.876	8.15
335.133	8.11
335.39	6.74
335.647	7.71
335.904	2.93
336.161	0.11
336.418	0.29
336.675	-4.56
336.932	-3.43
337.189	-4.02
337.446	-3.09
337.703	-4.85
337.96	-8.75
338.216	-7.27
338.473	-9.88
338.73	-9.68
338.987	-10.45
339.244	-7.52
339.501	-8.49
339.757	-7.38
340.014	-6.17
340.271	-5.42
340.528	-4.32
340.785	-0.73
341.041	-0.49
341.298	-2.88
341.555	-3.37
341.811	-4.93
342.068	-5.99
342.325	-5.72
342.581	-4.3
342.838	-3.26
343.094	-3.93
343.351	-3.63
343.608	-5.99
343.864	-2.58
344.121	-1.29
344.377	-1.01
344.634	-0.32
344.89	-1.52
345.147	-1.77
345.403	-2.81
345.66	-2.45
345.916	0.86
346.172	-1.34
346.429	-1.52
346.685	-3.21
346.942	-4.21
347.198	-8.56
347.454	-7.39
347.711	-8.29
347.967	-10.81
348.223	-10.32
348.48	-10.5
348.736	-8.34
348.992	-10.27
349.248	-8.11
349.504	-8.85
349.761	-8.77
350.017	-9.04
350.273	-9.43
350.529	-9.61
350.785	-9.06
351.041	-8.66
351.297	-7.94
351.554	-9.16
351.81	-10.56
352.066	-12.17
352.322	-13.02
352.578	-12.71
352.834	-14.2
353.09	-13.82
353.346	-14.93
353.602	-16.61
353.858	-18.42
354.114	-18.68
354.369	-16.51
354.625	-13.65
354.881	-14.77
355.137	-10.64
355.393	-11.04
355.649	-9.06
355.905	-8.51
356.16	-7.51
356.416	-7.45
356.672	-14.5
356.928	-13.59
357.183	-14.35
357.439	-13.55
357.695	-15.18
357.951	-10.46
358.206	-10.97
358.462	-11.87
358.718	-13.45
358.973	-12.91
359.229	-11.98
359.484	-10.5
359.74	-8.41
359.996	-7.38
360.251	-4
360.507	-4.43
360.762	-4.15
361.018	-0.71
361.273	-0.77
361.529	2.34
361.784	3.45
362.04	5.23
362.295	4.57
362.55	5.3
362.806	7.9
363.061	8.88
363.316	10.66
363.572	10.64
363.827	12.7
364.082	9.6
364.338	8.81
364.593	10.3
364.848	11.72
365.104	11.03
365.359	13.4
365.614	15.21
365.869	12.55
366.124	13.65
366.38	12.7
366.635	15.34
366.89	16.85
367.145	16.94
367.4	20.23
367.655	19.55
367.91	19.98
368.165	17.5
368.42	14.04
368.675	14.98
368.93	13.65
369.185	11.71
369.44	10.48
369.695	12.02
369.95	11.03
370.205	9.44
370.46	7.35
370.715	6.03
370.97	5.62
371.225	4.61
371.48	6.13
371.734	6.14
371.989	7.13
372.244	7.54
372.499	9.82
372.754	8.5
373.008	5.98
373.263	1.02
373.518	2.77
373.773	1.15
374.027	0.22
374.282	2.65
374.537	2.25
374.791	2.93
375.046	0.9
375.301	-1.33
375.555	-3.14
375.81	-2.32
376.064	-0.59
376.319	4.24
376.573	3.81
376.828	0.12
377.082	4.63
377.337	3.42
377.591	-0.73
377.846	0.13
378.1	3.86
378.355	5.09
378.609	4.24
378.863	1.62
379.118	2.62
379.372	0.29
379.627	-2.67
379.881	-4.09
380.135	-5.14
380.389	-6.86
380.644	-5.75
380.898	-4.22
381.152	-2.78
381.407	-4.94
381.661	-2.24
381.915	-1.24
382.169	-0.58
382.423	-1.82
382.677	-5.12
382.932	-3.39
383.186	-2.04
383.44	-0.4
383.694	1.99
383.948	-0.63
384.202	-2.36
384.456	-0.11
384.71	2.29
384.964	0.27
385.218	2.93
385.472	4.66
385.726	4.49
385.98	3.02
386.234	2.55
386.488	0.63
386.742	1.99
386.996	-0.97
387.249	0.65
387.503	3.83
387.757	6.04
388.011	7
388.265	8.1
388.518	7.99
388.772	10.53
389.026	11.74
389.28	10.59
389.533	8.93
389.787	12.06
390.041	9.77
390.295	11.23
390.548	12.45
390.802	15.69
391.055	14.14
391.309	13.07
391.563	10.62
391.816	12.09
392.07	10.95
392.323	11.06
392.577	11.99
392.83	12.02
393.084	17.15
393.337	21.22
393.591	21.31
393.844	20.7
394.098	24.23
394.351	28.34
394.604	29.29
394.858	32.13
395.111	31
395.364	28.32
395.618	28.43
395.871	26.92
396.124	25.27
396.378	25.11
396.631	23.8
396.884	21.36
397.137	22.16
397.391	23.42
397.644	19.78
397.897	20.16
398.15	21.27
398.403	23.23
398.657	21.8
398.91	20.49
399.163	20.75
399.416	19.83
399.669	17.29
399.922	16.85
400.175	16.04
400.428	17.25
400.681	22.19
400.934	18.79
401.187	21.99
401.44	24.97
401.693	26.2
401.946	25.68
402.199	21.89
402.452	21.48
402.704	18.03
402.957	18.13
403.21	19.75
403.463	19.98
403.716	21.68
403.969	22.69
404.221	22.42
404.474	25.25
404.727	29.08
404.98	31.21
405.232	31.37
405.485	33.27
405.738	36.34
405.99	35.49
406.243	35.4
406.496	36.99
406.748	37.83
407.001	37.49
407.253	39.12
407.506	41.06
407.759	41.71
408.011	37.94
408.264	36.46
408.516	32.43
408.769	28.67
409.021	24.6
409.274	21.12
409.526	22.59
409.778	18.9
410.031	20.56
410.283	20.16
410.536	25.91
410.788	22.67
411.04	22.84
411.293	24.14
411.545	25.17
411.797	24.13
412.049	22.36
412.302	22.15
412.554	22.35
412.806	20.8
413.058	17.87
413.311	18.46
413.563	15.42
413.815	14.29
414.067	12.27
414.319	10.62
414.571	10.37
414.823	8.7
415.075	7.51
415.328	7.75
415.58	11.74
415.832	14.36
416.084	14.27
416.336	12.45
416.588	15.63
416.84	13.49
417.091	16.6
417.343	11.41
417.595	14.09
417.847	16.2
418.099	17.37
418.351	16.1
418.603	20.89
418.855	22.3
419.106	22.73
419.358	21.99
419.61	22.76
419.862	24.83
420.114	21.93
420.365	20.83
420.617	21.54
420.869	20.94
421.12	19.66
421.372	21.01
421.624	21.72
421.875	21.85
422.127	17.82
422.379	18.48
422.63	21.04
422.882	18.78
423.133	18.17
423.385	17.05
423.636	17.31
423.888	19.73
424.139	21.74
424.391	19.3
424.642	17.54
424.894	15.65
425.145	14.7
425.396	11.68
425.648	12.6
425.899	10.34
426.151	10.13
426.402	7.11
426.653	6.26
426.905	4.48
427.156	1.65
427.407	1
427.658	-0.33
427.91	-1.87
428.161	-2.14
428.412	-0.28
428.663	1.82
428.914	2.8
429.166	4.22
429.417	3.81
429.668	3.3
429.919	1.61
430.17	0.45
430.421	0.17
430.672	4.83
430.923	5.69
431.174	5.21
431.425	8.36
431.676	12.64
431.927	18.1
432.178	28.07
432.429	38.25
432.68	44.17
432.931	55.37
433.182	62.99
433.433	64.17
433.683	68.8
433.934	68.65
434.185	69.93
434.436	68.79
434.687	71.09
434.937	74.73
435.188	73.71
435.439	72.98
435.69	74.58
435.94	73.02
436.191	72.42
436.442	71.77
436.692	69.91
436.943	67.49
437.194	66.25
437.444	67.93
437.695	73.46
437.945	74.56
438.196	73.62
438.447	70.28
438.697	69.99
438.948	67.98
439.198	62.5
439.449	53.07
439.699	47.02
439.949	37.69
440.2	27.79
440.45	22.77
440.701	14.79
440.951	8.16
441.201	5.58
441.452	1.04
441.702	-0.69
441.952	-1.78
442.203	-1.43
442.453	-5.33
442.703	-6.4
442.953	-5.91
443.204	-4.27
443.454	-7.03
443.704	-5.59
443.954	-8.67
444.204	-8.39
444.455	-6.6
444.705	-6.44
444.955	-7.61
445.205	-8.04
445.455	-10.74
445.705	-10.06
445.955	-9.98
446.205	-9.52
446.455	-9.74
446.705	-8.92
446.955	-7.76
447.205	-6.07
447.455	-5.44
447.705	-6.13
447.955	-7.82
448.205	-7.6
448.454	-9.38
448.704	-7.66
448.954	-10.49
449.204	-9.77
449.454	-11.07
449.704	-11.44
449.953	-11.75
450.203	-8.74
450.453	-10.44
450.703	-8.42
450.952	-10.83
451.202	-8.47
451.452	-9.27
451.701	-6.94
451.951	-2.77
452.201	-2.75
452.45	-3.73
452.7	-0.29
452.949	-1.01
453.199	-1.83
453.448	-0.96
453.698	-1.11
453.947	-2.89
454.197	-3.46
454.446	-4.36
454.696	-2.71
454.945	-2.63
455.195	-5.24
455.444	-4.55
455.693	-0.45
455.943	-3.13
456.192	-1.08
456.442	-0.98
456.691	-0.45
456.94	-1.63
457.189	-1.08
457.439	1.75
457.688	3.2
457.937	2.02
458.186	2.33
458.436	1.95
458.685	3.85
458.934	3
459.183	2.39
459.432	5.05
459.681	4.05
459.93	2.26
460.179	3.04
460.429	0.2
460.678	3.11
460.927	6.56
461.176	4.91
461.425	5.86
461.674	8.44
461.923	7.51
462.172	7.08
462.42	6.47
462.669	7.71
462.918	9.08
463.167	7.8
463.416	5.96
463.665	7.21
463.914	8.09
464.162	5.55
464.411	6.21
464.66	7.67
464.909	5.75
465.158	4.62
465.406	3.24
465.655	4.37
465.904	6.89
466.152	6.67
466.401	6.9
466.65	8.42
466.898	6.26
467.147	0.55
467.395	0.1
467.644	1.86
467.893	1
468.141	1.68
468.39	-2.2
468.638	-4.97
468.887	-7.18
469.135	-7.99
469.384	-8.08
469.632	-6.24
469.88	-6.66
470.129	-4.53
470.377	-7.87
470.626	-5.22
470.874	-3.38
471.122	-1.94
471.371	-3.03
471.619	-5.66
471.867	-2.24
472.115	-0.74
472.364	-2.82
472.612	1.17
472.86	-0.79
473.108	0.2
473.356	1.48
473.605	1.05
473.853	-1.27
474.101	-1.24
474.349	-2.47
474.597	2.43
474.845	2.3
475.093	0.61
475.341	-2.69
475.589	-2.66
475.837	-1.24
476.085	1.51
476.333	-0.51
476.581	2.97
476.829	2.18
477.077	5.84
477.325	5.29
477.573	7.56
477.821	5.38
478.069	6.95
478.317	6.25
478.564	8.66
478.812	6.22
479.06	5.44
479.308	5.75
479.555	6.43
479.803	4.95
480.051	7.62
480.299	7.69
480.546	9.96
480.794	9.19
481.042	9.75
481.289	8.53
481.537	11.81
481.784	12.34
482.032	18.4
482.28	18.28
482.527	21.3
482.775	23.39
483.022	29.11
483.27	34.32
483.517	40.18
483.765	40.4
484.012	42.89
484.259	43.6
484.507	48.34
484.754	50.03
485.002	51.39
485.249	51.07
485.496	54.69
485.744	57.4
485.991	58.02
486.238	57.74
486.486	62.87
486.733	65.82
486.98	70.3
487.227	69.56
487.474	72.5
487.722	76.31
487.969	74.52
488.216	74.31
488.463	74.9
488.71	72.34
488.957	72.64
489.204	71.92
489.451	72.66
489.699	69.57
489.946	66.49
490.193	65.23
490.44	64.54
490.687	63.38
490.934	59.2
491.18	52.66
491.427	53.52
491.674	56.56
491.921	54.82
492.168	51.87
492.415	48.14
492.662	48.71
492.909	50.29
493.155	48.22
493.402	45.37
493.649	42.89
493.896	42.83
494.142	38.15
494.389	34.32
494.636	31.54
494.883	28.43
495.129	25.62
495.376	21.89
495.623	23.43
495.869	23.95
496.116	25.18
496.362	25.91
496.609	27.95
496.855	32.35
497.102	31.39
497.348	30.68
497.595	31.64
497.841	33.99
498.088	31.75
498.334	30.35
498.581	28.87
498.827	27.75
499.074	27.61
499.32	28.27
499.566	31.42
499.813	31.81
500.059	29.22
500.305	28.28
500.552	26.45
500.798	26.18
501.044	29.67
501.29	28.13
501.537	24.48
501.783	25.84
502.029	29.63
502.275	25.4
502.521	23.44
502.767	23.48
503.013	25.14
503.26	21.55
503.506	18.08
503.752	17.95
503.998	16.54
504.244	16.32
504.49	12.68
504.736	11.58
504.982	9.83
505.228	11.38
505.474	12.38
505.72	11.9
505.966	10.53
506.211	12.74
506.457	12.76
506.703	9.84
506.949	6.39
507.195	3.59
507.441	-0.2
507.686	2.42
507.932	1.75
508.178	3.12
508.424	0.76
508.669	-1.93
508.915	-1.92
509.161	0.43
509.406	1.47
509.652	0.49
509.898	3.85
510.143	5.23
510.389	3.38
510.634	-0.48
510.88	4.61
511.125	7.03
511.371	7.87
511.616	9
511.862	6.89
512.107	5.13
512.353	7.92
512.598	7.88
512.844	5.43
513.089	0.83
513.335	3.14
513.58	1.9
513.825	1.61
514.071	0.97
514.316	1.01
514.561	3.06
514.806	2.54
515.052	5.79
515.297	4.45
515.542	6.4
515.787	7.42
516.033	9.23
516.278	9.05
516.523	9.02
516.768	7.99
517.013	4.98
517.258	3.96
517.503	3.7
517.748	4.19
517.993	5.1
518.238	5.82
518.483	3.47
518.728	3.55
518.973	-0.49
519.218	-0.75
519.463	-0.99
519.708	-1.8
519.953	-4.7
520.198	-4.67
520.443	-2.73
520.688	1.87
520.933	0.43
521.177	0.57
521.422	-1.17
521.667	2.16
521.912	1.05
522.157	-3.4
522.401	-1.79
522.646	-2.71
522.891	-2.28
523.135	-2.87
523.38	-2.52
523.625	-4.79
523.869	-2.53
524.114	-0.3
524.358	-2.14
524.603	-2.2
524.848	-3.53
525.092	-4.65
525.337	-3.08
525.581	-1.75
525.826	0.57
526.07	0.45
526.315	-0.02
526.559	0.62
526.803	-1.09
527.048	3.16
527.292	3.67
527.537	5.06
527.781	4.82
528.025	3.33
528.269	3.84
528.514	5.13
528.758	4.86
529.002	5.19
529.247	9.08
529.491	9.71
529.735	15.24
529.979	14.98
530.223	18.56
530.467	16.8
530.712	14.96
530.956	14.15
531.2	17.45
531.444	15.48
531.688	17.87
531.932	19.35
532.176	22.3
532.42	25.25
532.664	28.54
532.908	27.43
533.152	27.79
533.396	28.88
533.64	29.81
533.884	30.56
534.128	33.21
534.371	37.31
534.615	41.7
534.859	43.33
535.103	45.4
535.347	50.05
535.59	55.99
535.834	57.42
536.078	64.51
536.322	73.75
536.565	84.52
536.809	91.52
537.053	104.22
537.296	115.41
537.54	132.36
537.784	150.06
538.027	173.52
538.271	197.65
538.514	220.94
538.758	245.51
539.001	268.45
539.245	291.92
539.488	316.5
539.732	339.97
539.975	361.33
540.219	384.04
540.462	406.16
540.706	427.76
540.949	446.94
541.192	466.43
541.436	491.48
541.679	518.72
541.922	546.38
542.166	572.34
542.409	608.84
542.652	647.17
542.895	686.34
543.139	720.7
543.382	755.31
543.625	779.14
543.868	800.83
544.111	817.65
544.354	829.1
544.598	837.98
544.841	843.75
545.084	841.33
545.327	834.68
545.57	825.24
545.813	813.96
546.056	799.04
546.299	783.9
546.542	770.5
546.785	756.46
547.028	741.22
547.271	724.56
547.514	708.09
547.756	690.08
547.999	674.3
548.242	658.08
548.485	639.97
548.728	624.9
548.971	603.38
549.213	582.9
549.456	555.25
549.699	523.88
549.942	488.27
550.184	449.2
550.427	409.35
550.67	372.48
550.912	334.41
551.155	306.32
551.398	279.04
551.64	253.99
551.883	234.02
552.125	213.45
552.368	195.7
552.61	179.06
552.853	166.86
553.095	155.13
553.338	143.34
553.58	134.13
553.823	122.69
554.065	115.46
554.308	102.75
554.55	92.17
554.792	83.05
555.035	74.82
555.277	67.51
555.519	63.27
555.762	55.39
556.004	51.01
556.246	43.06
556.488	39.02
556.731	30.99
556.973	29.45
557.215	25.28
557.457	24.14
557.699	22.84
557.941	17.25
558.183	14.53
558.426	17
558.668	11.65
558.91	10.43
559.152	9.34
559.394	6.66
559.636	7.03
559.878	6.53
560.12	4.69
560.362	4.88
560.604	3.51
560.845	3.05
561.087	1.62
561.329	2.93
561.571	0.32
561.813	0.38
562.055	0.01
562.297	0.65
562.538	2.09
562.78	4.75
563.022	0.73
563.264	3.79
563.505	4.57
563.747	5.37
563.989	3.66
564.23	2.91
564.472	1.65
564.714	5.61
564.955	5.64
565.197	3.2
565.438	5.21
565.68	7.61
565.921	3.5
566.163	5.63
566.404	2.18
566.646	3.17
566.887	4.34
567.129	4.26
567.37	2.81
567.612	5.34
567.853	1.83
568.094	2.48
568.336	1.19
568.577	1.77
568.818	3.7
569.06	2.09
569.301	0.33
569.542	-0.42
569.783	0.56
570.025	0.32
570.266	-0.5
570.507	1.56
570.748	-0.37
570.989	-1.06
571.23	0.9
571.472	0.83
571.713	-0.31
571.954	-0.1
572.195	-3.82
572.436	-1.87
572.677	1.79
572.918	5.46
573.159	6.04
573.4	7.62
573.641	9.99
573.882	16.17
574.123	17.15
574.364	14.66
574.604	17.89
574.845	18.18
575.086	21.29
575.327	27.1
575.568	30.41
575.809	34.49
576.049	37.38
576.29	36.2
576.531	43.75
576.771	50.97
577.012	58
577.253	62.28
577.494	65.32
577.734	67.92
577.975	71.5
578.215	74.61
578.456	74.67
578.697	76.55
578.937	80.84
579.178	83.48
579.418	85.27
579.659	88.47
579.899	85.93
580.14	85.89
580.38	85.05
580.62	86.61
580.861	90.89
581.101	90.78
581.342	89.57
581.582	85.07
581.822	88.48
582.063	87.05
582.303	88.34
582.543	88.12
582.783	87.98
583.024	88.76
583.264	92.21
583.504	90.71
583.744	94.63
583.984	93.42
584.224	93.98
584.465	92.77
584.705	93.68
584.945	93.59
585.185	92.97
585.425	92.46
585.665	92.43
585.905	92.74
586.145	92.26
586.385	90.13
586.625	92.4
586.865	91.3
587.105	90.62
587.345	91.62
587.585	91.64
587.824	90.86
588.064	88.85
588.304	84.9
588.544	84.56
588.784	83.98
589.024	88.07
589.263	86.69
589.503	86.44
589.743	90.2
589.982	90.89
590.222	92.25
590.462	90.51
590.701	86.67
590.941	88.76
591.181	86.97
591.42	83.77
591.66	83.67
591.899	85.34
592.139	82.02
592.378	81.85
592.618	79.15
592.857	78.14
593.097	76.91
593.336	76.1
593.576	74.82
593.815	75.44
594.055	73.39
594.294	72.6
594.533	71.63
594.773	71.84
595.012	73.67
595.251	73.6
595.491	75.74
595.73	79.24
595.969	78.95
596.208	78.58
596.447	81.87
596.687	82.7
596.926	83.01
597.165	78.05
597.404	77.35
597.643	72.62
597.882	69.04
598.121	68.9
598.36	68.2
598.599	67.15
598.838	66.9
599.077	61.56
599.316	58.92
599.555	57.3
599.794	56
600.033	58.11
600.272	58.38
600.511	56.19
600.75	58.11
600.989	59.68
601.228	60.19
601.466	58.15
601.705	58.89
601.944	59.54
602.183	59.74
602.422	57.68
602.66	57.09
602.899	55.04
603.138	52.74
603.376	52.18
603.615	52.65
603.854	49.89
604.092	48.69
604.331	48.71
604.569	50.48
604.808	51.08
605.047	53.78
605.285	56.9
605.524	58.76
605.762	57.56
606	62.51
606.239	66.14
606.477	73.11
606.716	77.65
606.954	88.05
607.193	101.46
607.431	118.15
607.669	143.12
607.908	172.43
608.146	206.37
608.384	239.55
608.622	270.87
608.861	302.95
609.099	330.88
609.337	355.55
609.575	378.77
609.813	401.35
610.052	420.48
610.29	433.3
610.528	446.69
610.766	459.81
611.004	471.18
611.242	480.32
611.48	490.89
611.718	499.31
611.956	506.94
612.194	511.09
612.432	517.55
612.67	522.48
612.908	527.06
613.146	529.16
613.384	528.49
613.621	528.38
613.859	526.95
614.097	520.76
614.335	513.18
614.573	501.03
614.811	485.2
615.048	459.98
615.286	433.29
615.524	400.56
615.761	365.2
615.999	334.46
616.237	305.77
616.474	280.27
616.712	256.74
616.95	233.38
617.187	211.56
617.425	194.94
617.662	182.35
617.9	166.87
618.137	152.16
618.375	139.04
618.612	128.32
618.85	120.37
619.087	114
619.325	105.22
619.562	97.25
619.799	89.24
620.037	82.43
620.274	75.84
620.511	74.99
620.749	69.8
620.986	66.91
621.223	62.9
621.461	62.91
621.698	63.62
621.935	63.94
622.172	60.95
622.409	63.33
622.647	63.1
622.884	62.08
623.121	64.91
623.358	64.1
623.595	64.11
623.832	65.32
624.069	63.75
624.306	65.44
624.543	67.67
624.78	68.58
625.017	68.32
625.254	70.88
625.491	74.51
625.728	77.74
625.965	78.14
626.202	77.63
626.438	77.15
626.675	78.79
626.912	82.39
627.149	83.94
627.386	85.5
627.622	87.21
627.859	87.41
628.096	90.61
628.333	92.34
628.569	96.01
628.806	99.96
629.043	98.95
629.279	99.67
629.516	102.35
629.752	97.48
629.989	97.25
630.225	94
630.462	92.44
630.699	91.09
630.935	89.1
631.171	84.23
631.408	82.92
631.644	79.34
631.881	75.28
632.117	70.68
632.354	69.95
632.59	67.41
632.826	64
633.063	60.55
633.299	60.4
633.535	55.83
633.771	51.74
634.008	51.17
634.244	48.73
634.48	44.9
634.716	44.55
634.953	40.1
635.189	37
635.425	34.06
635.661	32.85
635.897	26.24
636.133	21.7
636.369	18.79
636.605	13.22
636.841	10.46
637.077	11.4
637.313	9.67
637.549	11.03
637.785	10.42
638.021	10.08
638.257	7.85
638.493	10.16
638.729	9.35
638.965	11.74
639.2	12.16
639.436	11.84
639.672	10.05
639.908	8.1
640.144	12.38
640.379	16.73
640.615	13.89
640.851	16.54
641.086	17.71
641.322	16.97
641.558	17.08
641.793	18.03
642.029	13.66
642.264	13.55
642.5	13.29
642.736	10.19
642.971	11.02
643.207	9.13
643.442	7.49
643.678	7.73
643.913	8.85
644.148	8.65
644.384	11.17
644.619	11.05
644.855	12.03
645.09	12.6
645.325	13.83
645.561	15.33
645.796	12.7
646.031	16.45
646.266	13.78
646.502	13.7
646.737	16.53
646.972	17.84
647.207	19.69
647.442	18.06
647.678	14.48
647.913	18.82
648.148	20.64
648.383	20.12
648.618	20.84
648.853	22.77
649.088	25.55
649.323	30.18
649.558	30.62
649.793	31.32
650.028	33.21
650.263	28.95
650.498	32.77
650.733	33.26
650.968	33.1
651.202	35.82
651.437	34.32
651.672	31.32
651.907	30.54
652.142	30.59
652.376	30.37
652.611	31.05
652.846	32.76
653.081	34.03
653.315	32.61
653.55	33.83
653.785	32.71
654.019	33.59
654.254	30.8
654.488	30.92
654.723	26.23
654.958	24.6
655.192	21.73
655.427	18.09
655.661	20.06
655.896	21.44
656.13	21.95
656.364	17.35
656.599	13.67
656.833	16.94
657.068	19.26
657.302	19.06
657.536	18.11
657.771	19.86
658.005	21.14
658.239	21.81
658.474	18.61
658.708	20.78
658.942	20.27
659.176	19.81
659.41	18.39
659.645	17.77
659.879	17.18
660.113	13.47
660.347	12.43
660.581	10.96
660.815	10.87
661.049	10.1
661.283	7.33
661.517	7.37
661.751	6
661.985	5.51
662.219	6.01
662.453	4.83
662.687	6.17
662.921	2.15
663.155	0.23
663.389	-5.91
663.622	-6.11
663.856	-4.09
664.09	-6.65
664.324	-8.32
664.558	-8.56
664.791	-9.74
665.025	-11.29
665.259	-11.18
665.492	-11.94
665.726	-8.71
665.96	-10.18
666.193	-11.69
666.427	-9.83
666.661	-12
666.894	-13.75
667.128	-14.42
667.361	-12.89
667.595	-13.28
667.828	-15.1
668.062	-16.81
668.295	-16.69
668.529	-16.51
668.762	-15.38
668.995	-15.9
669.229	-11.82
669.462	-10.78
669.695	-10.53
669.929	-12.18
670.162	-11.35
670.395	-13.5
670.629	-11.88
670.862	-10.47
671.095	-13.49
671.328	-13.57
671.561	-16.34
671.795	-15.35
672.028	-11.94
672.261	-11.62
672.494	-10.96
672.727	-12.62
672.96	-10.86
673.193	-11.06
673.426	-6.33
673.659	-7.74
673.892	-5.79
674.125	-4.9
674.358	-6.07
674.591	-5.48
674.824	-5.91
675.057	-6.17
675.29	-6.66
675.523	-5.48
675.755	-6.35
675.988	-5.99
676.221	-2.95
676.454	-4.78
676.687	-4.51
676.919	-5.29
677.152	-4.13
677.385	-4.78
677.617	-2.66
677.85	-1.42
678.083	-1.83
678.315	1.65
678.548	-0.67
678.78	-0.84
679.013	-2.48
679.246	-2.96
679.478	-1.33
679.711	-4.73
679.943	-2.54
680.175	-7.49
680.408	-3.32
680.64	-6.96
680.873	-5.36
681.105	-5.14
681.338	-1.89
681.57	-1.2
681.802	-0.86
682.034	-0.75
682.267	4.25
682.499	6.7
682.731	4.87
682.964	3.79
683.196	1.1
683.428	0.27
683.66	-0.83
683.892	2.64
684.124	6.9
684.356	9.49
684.589	10.95
684.821	8.87
685.053	9.91
685.285	11.54
685.517	13.05
685.749	15.63
685.981	17.15
686.213	20.16
686.445	21.57
686.676	17.6
686.908	21.14
687.14	18.75
687.372	20.12
687.604	16.83
687.836	16.99
688.068	17.85
688.299	18.19
688.531	15.68
688.763	19.26
688.995	18.38
689.226	21.98
689.458	19.51
689.69	17
689.921	17.02
690.153	18.14
690.384	21.55
690.616	20.46
690.848	20.55
691.079	16.62
691.311	13.33
691.542	9.21
691.774	6.82
692.005	10.92
692.237	13.57
692.468	10.95
692.699	8.8
692.931	8.04
693.162	6.35
693.393	2.88
693.625	0.21
693.856	1.69
694.087	1.13
694.319	3.89
694.55	3.6
694.781	2.27
695.012	1.68
695.243	-1.77
695.475	-2.91
695.706	-4.02
695.937	-5.55
696.168	-6.26
696.399	-9.54
696.63	-10.01
696.861	-10.2
697.092	-5.96
697.323	-3.46
697.554	-3.94
697.785	-2.75
698.016	-1.07
698.247	-2.44
698.478	-1.93
698.709	0.19
698.94	3.27
699.171	1.01
699.401	-4.01
699.632	-0.93
699.863	-3.87
700.094	-4.3
700.325	-1.59
700.555	0.26
700.786	2.61
701.017	4.15
701.247	3.47
701.478	2.79
701.709	2.54
701.939	1.84
702.17	4.11
702.401	7.35
702.631	8.39
702.862	7.89
703.092	6.2
703.323	9.43
703.553	12.89
703.784	14.21
704.014	15.26
704.244	11.52
704.475	10.83
704.705	13.03
704.936	13.76
705.166	13.43
705.396	15.26
705.627	16.76
705.857	19.07
706.087	21.04
706.317	21.41
706.548	21.62
706.778	20.83
707.008	24.51
707.238	26.04
707.468	25.66
707.698	25.72
707.928	24.85
708.158	22.77
708.389	22.66
708.619	21.16
708.849	20.89
709.079	22.28
709.309	22.4
709.539	21.48
709.768	22.49
709.998	25.76
710.228	25.14
710.458	24.05
710.688	20.23
710.918	18.23
711.148	17.58
711.378	18.21
711.607	16.24
711.837	14.91
712.067	13.88
712.297	14.16
712.526	14.27
712.756	13.71
712.986	8.75
713.215	3.64
713.445	2.35
713.674	2.81
713.904	1.73
714.134	2.46
714.363	0.9
714.593	-1.4
714.822	-2.94
715.052	-3.42
715.281	-2.54
715.511	-4.59
715.74	-3.9
715.969	-3.91
716.199	-4.45
716.428	-4.93
716.657	-6.08
716.887	-3.66
717.116	-7.27
717.345	-5.58
717.575	-6.69
717.804	-6.45
718.033	-6.87
718.262	-7.91
718.492	-7.87
718.721	-6.5
718.95	-7.06
719.179	-9.45
719.408	-9.71
719.637	-12.98
719.866	-15.6
720.095	-13.66
720.324	-12.99
720.553	-16.33
720.782	-18.73
721.011	-19.01
721.24	-21.11
721.469	-21.59
721.698	-20.47
721.927	-20.97
722.156	-22.77
722.385	-24.52
722.613	-20.56
722.842	-20.65
723.071	-17.78
723.3	-16.04
723.529	-17.95
723.757	-16.91
723.986	-21.52
724.215	-21.69
724.443	-20.5
724.672	-18.33
724.901	-18.06
725.129	-17.09
725.358	-12.81
725.586	-15.6
725.815	-16.22
726.043	-17.69
726.272	-19.16
726.5	-19.28
726.729	-19.04
726.957	-21.06
727.186	-22.44
727.414	-21.85
727.642	-20.04
727.871	-16.27
728.099	-15.25
728.327	-15.38
728.556	-14.35
728.784	-14.03
729.012	-14.89
729.241	-12.45
729.469	-11.27
729.697	-15.15
729.925	-14.98
730.153	-16.12
730.381	-16.35
730.61	-15.81
730.838	-18.79
731.066	-17.27
731.294	-16.75
731.522	-20.87
731.75	-24.31
731.978	-24.82
732.206	-24.4
732.434	-26.01
732.662	-23.73
732.89	-25.35
733.118	-25.97
733.346	-24.86
733.573	-24.68
733.801	-23.22
734.029	-15.84
734.257	-15.74
734.485	-11.47
734.712	-9.51
734.94	-13.93
735.168	-12.44
735.396	-12.78
735.623	-13.38
735.851	-12.85
736.078	-11.45
736.306	-9.87
736.534	-11.01
736.761	-9.79
736.989	-11.55
737.216	-13.59
737.444	-14.72
737.671	-12.67
737.899	-7.35
738.126	-9.24
738.354	-8.77
738.581	-6.45
738.809	-6.43
739.036	-8.17
739.263	-8.95
739.491	-11.07
739.718	-12.01
739.945	-5.45
740.173	-2.41
740.4	-1.86
740.627	-3.69
740.854	-3.86
741.081	-7.27
741.309	-7.96
741.536	-12.33
741.763	-13.27
741.99	-10.09
742.217	-10.22
742.444	-10.29
742.671	-9.6
742.898	-10.29
743.125	-12.25
743.352	-16.2
743.579	-15.96
743.806	-17.17
744.033	-13.67
744.26	-11.55
744.487	-12.82
744.714	-13.76
744.941	-14.95
745.167	-10.75
745.394	-11.88
745.621	-13.11
745.848	-12.82
746.075	-9.5
746.301	-5.19
746.528	-2.08
746.755	-3.23
746.981	-5.72
747.208	-5.22
747.435	-3.58
747.661	-2.61
747.888	-1.33
748.114	-3.51
748.341	-0.68
748.567	1.06
748.794	-1.43
749.02	-2.65
749.247	-4.97
749.473	-5.33
749.7	-4.86
749.926	-5.12
750.152	-0.68
750.379	0.07
750.605	-0.23
750.831	0.11
751.058	-2.15
751.284	-3.43
751.51	0.37
751.737	1.95
751.963	0.4
752.189	-1.06
752.415	-2
752.641	-1.95
752.867	-0.85
753.094	-3.32
753.32	-5.54
753.546	-6.52
753.772	-3.57
753.998	-5.92
754.224	-6.54
754.45	-8.08
754.676	-9.33
754.902	-10.35
755.128	-8.85
755.354	-9.84
755.579	-8.16
755.805	-5.29
756.031	-7.11
756.257	-7.25
756.483	-7.59
756.709	-9.42
756.934	-8.67
757.16	-11.01
757.386	-10.78
757.612	-11.72
757.837	-12.87
758.063	-9.89
758.289	-6.75
758.514	-9.15
758.74	-12.85
758.965	-15.02
759.191	-14.5
759.416	-13.38
759.642	-12.11
759.868	-12.8
760.093	-10.74
760.318	-13.27
760.544	-12.93
760.769	-13.38
760.995	-13.22
761.22	-13.94
761.445	-11.82
761.671	-8.05
761.896	-4.47
762.121	-4.55
762.347	-4.72
762.572	-7.83
762.797	-8.03
763.022	-7.1
763.248	-2.61
763.473	-1.52
763.698	-2.45
763.923	-2
764.148	-2.52
764.373	-1.77
764.598	0.04
764.823	1.95
765.048	-2.95
765.273	-7.08
765.498	-9.1
765.723	-8.72
765.948	-7.73
766.173	-8.48
766.398	-6.92
766.623	-9.64
766.848	-9.35
767.073	-10.83
767.298	-10.02
767.522	-10.53
767.747	-9.37
767.972	-10.47
768.197	-9.66
768.421	-12.31
768.646	-16.3
768.871	-20.74
769.095	-20.72
769.32	-19.66
769.545	-19.75
769.769	-19.37
769.994	-17.87
770.218	-21.68
770.443	-21.19
770.667	-19.68
770.892	-18.98
771.116	-19.47
771.341	-19.31
771.565	-20.64
771.79	-19.6
772.014	-18.21
772.238	-19.56
772.463	-16.42
772.687	-15.28
772.911	-15.25
773.136	-16.39
773.36	-14.66
773.584	-12.43
773.808	-15
774.033	-13.2
774.257	-12.5
774.481	-13.34
774.705	-15.66
774.929	-15.52
775.153	-15.89
775.377	-13.48
775.602	-13.86
775.826	-11.43
776.05	-9.72
776.274	-10.84
776.498	-10.71
776.722	-11.76
776.945	-9.74
777.169	-9.9
777.393	-10.19
777.617	-10.37
777.841	-10.87
778.065	-8.78
778.289	-9.46
778.512	-9.53
778.736	-10.01
778.96	-11.02
779.184	-7.51
779.407	-8.09
779.631	-7.94
779.855	-9.06
780.078	-8.76
780.302	-11.3
780.526	-14
780.749	-13.34
780.973	-11.69
781.196	-10.84
781.42	-12.51
781.643	-10.63
781.867	-8.55
782.09	-11.5
782.314	-12.11
782.537	-11.65
782.76	-13.24
782.984	-11.31
783.207	-11.85
783.431	-11.78
783.654	-12.39
783.877	-15.49
784.1	-16.64
784.324	-17.7
784.547	-18.47
784.77	-22.16
784.993	-24.06
785.216	-25.39
785.44	-25.19
785.663	-27.54
785.886	-24.04
786.109	-25.19
786.332	-25.41
786.555	-24.27
786.778	-22.02
787.001	-21.21
787.224	-19.51
787.447	-17.44
787.67	-15.58
787.893	-16.39
788.116	-16.01
788.339	-15.1
788.561	-17.39
788.784	-22.26
789.007	-23.49
789.23	-24.19
789.453	-24.15
789.675	-26.13
789.898	-28.6
790.121	-30.52
790.344	-31.18
790.566	-29.48
790.789	-29.09
791.012	-28.03
791.234	-25.76
791.457	-22.61
791.679	-20.92
791.902	-22.25
792.124	-20.23
792.347	-21.32
792.569	-20.64
792.792	-24.16
793.014	-21.74
793.237	-20.14
793.459	-21.12
793.681	-20.31
793.904	-21.65
794.126	-23.76
794.348	-24.78
794.571	-23.58
794.793	-25.98
795.015	-27.16
795.237	-27.78
795.46	-26.31
795.682	-24.57
795.904	-21.51
796.126	-23.72
796.348	-24.01
796.57	-19.61
796.792	-18.84
797.014	-13.32
797.237	-12.02
797.459	-10.63
797.681	-9.71
797.903	-11.73
798.124	-12.01
798.346	-0.64
798.568	1.23
798.79	6.31
799.012	7.5
799.234	10.07
799.456	11.15
799.678	14.81
799.899	11.84
800.121	8.64
800.343	8.05
800.565	7.17
800.786	8.47
801.008	11.11
801.23	11.67
801.451	12.54
801.673	10.88
801.895	11.13
802.116	14.48
802.338	15.26
802.559	15.16
802.781	13.18
803.002	16.37
803.224	19.67
803.445	16.24
803.667	16.51
803.888	14.14
804.109	15.16
804.331	12.9
804.552	13.06
804.773	15.81
804.995	14.1
805.216	-0.68
805.437	-4.33
805.658	-7.72
805.88	-9.9
806.101	-10.36
806.322	-9.86
806.543	-11.96
806.764	-12.91
806.985	-10.87
807.207	-10.59
807.428	-9.95
807.649	-12.68
807.87	-16.06
808.091	-15.48
808.312	-16.34
808.533	-10.14
808.754	-8.49
808.975	-10.99
809.195	-8.6
809.416	-6.75
809.637	-6.42
809.858	-8.09
810.079	-10.89
810.3	-8.68
810.52	-10.28
810.741	-13.04
810.962	-15.23
811.183	-13.56
811.403	-12.91
811.624	-14.57
811.845	-13.54
812.065	-11.23
812.286	-9.27
812.506	-8.37
812.727	-8.15
812.948	-8.85
813.168	-7.01
813.389	-7.65
813.609	-6.13
813.83	-7.02
814.05	-8.66
814.27	-9.45
814.491	-5.56
814.711	-5.71
814.931	-8.68
815.152	-10.02
815.372	-12.13
815.592	-12.53
815.813	-14.1
816.033	-16.51
816.253	-16.32
816.473	-16.32
816.694	-14.88
816.914	-13.29
817.134	-13.66
817.354	-14.94
817.574	-13.75
817.794	-12.79
818.014	-14.95
818.234	-16.24
818.454	-17.52
818.674	-19.92
818.894	-22.36
819.114	-19.68
819.334	-20.05
819.554	-17.75
819.774	-13.75
819.994	-16.96
820.214	-18.53
820.433	-18.59
820.653	-19.22
820.873	-15.73
821.093	-14.65
821.312	-17.19
821.532	-14.97
821.752	-11.96
821.972	-11.82
822.191	-11.07
822.411	-12.61
822.63	-11.09
822.85	-10.44
823.07	-13.23
823.289	-11.47
823.509	-13.27
823.728	-12.79
823.948	-14.49
824.167	-13.8
824.387	-14.14
824.606	-13.96
824.825	-14.94
825.045	-14.49
825.264	-14.75
825.483	-12.56
825.703	-10.87
825.922	-13.85
826.141	-14.94
826.361	-15.87
826.58	-20.17
826.799	-21.46
827.018	-18.47
827.237	-17.59
827.456	-14.97
827.676	-14.77
827.895	-14.13
828.114	-13.08
828.333	-12.82
828.552	-13.56
828.771	-12.41
828.99	-15.01
829.209	-13.4
829.428	-10.78
829.647	-10.66
829.866	-9.21
830.084	-10.7
830.303	-10.86
830.522	-11.24
830.741	-9.8
830.96	-9.86
831.179	-8.84
831.397	-11.53
831.616	-11.26
831.835	-11.26
832.053	-9.29
832.272	-8.4
832.491	-7.59
832.709	-7.33
832.928	-5.78
833.147	-5.81
833.365	-4.93
833.584	-0.85
833.802	0.09
834.021	-1.15
834.239	-0.22
834.458	-1.71
834.676	-6.26
834.894	-6.48
835.113	-7.77
835.331	-9.15
835.55	-10.71
835.768	-10.38
835.986	-11.85
836.204	-14.03
836.423	-13.37
836.641	-13.8
836.859	-15.43
837.077	-14.46
837.296	-13.74
837.514	-15.79
837.732	-15.88
837.95	-17.72
838.168	-12.33
838.386	-13.2
838.604	-11
838.822	-10.31
839.04	-12.1
839.258	-11.05
839.476	-8.91
839.694	-9.49
839.912	-11.39
840.13	-11.52
840.348	-8.93
840.566	-13.17
840.783	-10.82
841.001	-13.1
841.219	-12.78
841.437	-10.61
841.655	-10.69
841.872	-10.93
842.09	-9.78
842.308	-9.43
842.525	-8.29
842.743	-5.4
842.961	-6.17
843.178	-8.9
843.396	-5.56
843.613	-3.09
843.831	-1.45
844.048	-2.91
844.266	-2.05
844.483	-3.72
844.701	-3.84
844.918	-5.28
845.136	-4.46
845.353	-6.94
845.57	-6.6
845.788	-3.25
846.005	-5.46
846.222	-7.18
846.439	-7.02
846.657	-6.09
846.874	-4.62
847.091	-7.65
847.308	-4.68
847.526	-7.65
847.743	-8.77
847.96	-10
848.177	-10
848.394	-10.49
848.611	-11.38
848.828	-12.98
849.045	-13.19
849.262	-13.46
849.479	-15.45
849.696	-18.09
849.913	-20.61
850.13	-25.7
850.347	-23.47
850.564	-25.55
850.78	-26.66
850.997	-28.77
851.214	-27.84
851.431	-26.81
851.647	-29.5
851.864	-29.37
852.081	-27.61
852.298	-31.22
852.514	-33.47
852.731	-32.04
852.948	-30.12
853.164	-28.82
853.381	-28.98
853.597	-31.47
853.814	-33.76
854.03	-36.77
854.247	-33.46
854.463	-32.36
854.68	-32.51
854.896	-31.7
855.113	-30.56
855.329	-28.92
855.545	-25.67
855.762	-26.36
855.978	-30.27
856.194	-32.34
856.411	-26.03
856.627	-23.58
856.843	-21.21
857.059	-19.18
857.275	-20.78
857.492	-19.67
857.708	-14.31
857.924	-14.26
858.14	-12.21
858.356	-12.74
858.572	-12.46
858.788	-15.04
859.004	-12.69
859.22	-14.83
859.436	-15.29
859.652	-17.85
859.868	-19.53
860.084	-19.04
860.3	-18.47
860.516	-19.36
860.731	-17.81
860.947	-21.24
861.163	-20.03
861.379	-19.28
861.595	-17.89
861.81	-17.25
862.026	-15.95
862.242	-16.81
862.457	-15.75
862.673	-14.14
862.889	-12.9
863.104	-16.08
863.32	-14.83
863.535	-14.45
863.751	-19.13
863.966	-15.87
864.182	-14.97
864.397	-19.16
864.613	-19.05
864.828	-20.87
865.044	-18.15
865.259	-15.71
865.474	-15.88
865.69	-14.35
865.905	-13.33
866.12	-15.52
866.336	-16.29
866.551	-14.23
866.766	-15.53
866.981	-15.99
867.196	-15.45
867.412	-14.18
867.627	-12.38
867.842	-13.02
868.057	-13.08
868.272	-13.45
868.487	-14.42
868.702	-17.98
868.917	-18.14
869.132	-16.27
869.347	-14.55
869.562	-15.91
869.777	-14.85
869.992	-15.35
870.207	-15.73
870.422	-17.15
870.636	-17.71
870.851	-19.59
871.066	-20.08
871.281	-19.99
871.495	-21.19
871.71	-19.39
871.925	-22.89
872.14	-22.48
872.354	-25.37
872.569	-26.32
872.783	-23.63
872.998	-22.03
873.213	-23.84
873.427	-21.05
873.642	-19.26
873.856	-18.53
874.071	-20.03
874.285	-23.27
874.5	-25.34
874.714	-27.01
874.928	-29.09
875.143	-30.67
875.357	-31.19
875.571	-33.56
875.786	-34.76
876	-32.84
876.214	-31.73
876.429	-35.31
876.643	-34.17
876.857	-34.39
877.071	-32.73
877.285	-34.42
877.499	-35.91
877.714	-33.45
877.928	-31.93
878.142	-32.78
878.356	-35.44
878.57	-33.78
878.784	-33.17
878.998	-33.51
879.212	-30.2
879.426	-32.09
879.639	-31.73
879.853	-32.54
880.067	-33.04
880.281	-33.88
880.495	-31.67
880.709	-28.87
880.922	-26.51
881.136	-24.18
881.35	-21.26
881.564	-21.12
881.777	-23.07
881.991	-20.99
882.205	-17.19
882.418	-17.26
882.632	-19.09
882.845	-18.68
883.059	-16.06
883.273	-17.84
883.486	-18.48
883.7	-14.69
883.913	-15.18
884.126	-13.42
884.34	-15.69
884.553	-17.72
884.767	-12.96
884.98	-12.26
885.193	-14.37
885.407	-15.32
885.62	-13.22
885.833	-13.68
886.046	-12.26
886.26	-13.81
886.473	-15.38
886.686	-16.53
886.899	-16.07
887.112	-17.78
887.326	-21.56
887.539	-20.59
887.752	-20.43
887.965	-22.77
888.178	-21.35
888.391	-20.12
888.604	-20.26
888.817	-21.82
889.03	-21.47
889.243	-22.9
889.455	-25.44
889.668	-25.89
889.881	-23.12
890.094	-23.22
890.307	-26.98
890.52	-23.76
890.732	-21.75
890.945	-22.21
891.158	-22.15
891.37	-25.47
891.583	-26.49
891.796	-24.88
892.008	-26.67
892.221	-28.31
892.434	-32.42
892.646	-32.45
892.859	-32.65
893.071	-29.42
893.284	-27.6
893.496	-28.99
893.709	-28.95
893.921	-26.88
894.133	-26.81
894.346	-26.96
894.558	-26.39
894.771	-26.92
894.983	-23.87
895.195	-23.79
895.407	-22.98
895.62	-25.55
895.832	-24.19
896.044	-20.89
896.256	-21.47
896.468	-23.5
896.681	-21.45
896.893	-21
897.105	-22.28
897.317	-25.33
897.529	-23.76
897.741	-21.3
897.953	-19.1
898.165	-21.03
898.377	-21.72
898.589	-18.01
898.801	-17.27
899.013	-14.75
899.224	-13.31
899.436	-10.49
899.648	-11.77
899.86	-14.09
900.072	-11.81
900.283	-9.69
900.495	-7.96
900.707	-8.63
900.919	-12.25
901.13	-11.5
901.342	-13.13
901.554	-14.19
901.765	-12.98
901.977	-15.23
902.188	-14.32
902.4	-16.23
902.611	-18.25
902.823	-19.36
903.034	-21.3
903.246	-23.56
903.457	-24.7
903.669	-26.4
903.88	-25.37
904.091	-25.1
904.303	-24.76
904.514	-25.55
904.725	-23.3
904.936	-22.89
905.148	-23.46
905.359	-20.64
905.57	-20.68
905.781	-23.11
905.992	-25.5
906.204	-25.31
906.415	-24.69
906.626	-25.56
906.837	-23.88
907.048	-23.7
907.259	-24.26
907.47	-23.87
907.681	-24.36
907.892	-21.41
908.103	-22.76
908.314	-25.12
908.525	-22.96
908.735	-22.32
908.946	-23.79
909.157	-23.71
909.368	-22.2
909.579	-20.64
909.789	-21.93
910	-22.05
910.211	-19.75
910.421	-20.03
910.632	-18.61
910.843	-22.87
911.053	-21.31
911.264	-18.16
911.475	-19.17
911.685	-19.84
911.896	-21.32
912.106	-20.53
912.317	-22.9
912.527	-19.52
912.737	-19.68
912.948	-17.81
913.158	-18.04
913.369	-22.02
913.579	-22.12
913.789	-21.6
914	-17.94
914.21	-18.89
914.42	-19.08
914.63	-20
914.841	-19.13
915.051	-18.07
915.261	-17.26
915.471	-13.77
915.681	-13.63
915.891	-12.68
916.101	-12.97
916.311	-12.17
916.521	-10.39
916.731	-9.47
916.941	-7
917.151	-9.21
917.361	-5.05
917.571	-7.91
917.781	-10.14
917.991	-12.41
918.201	-11.88
918.411	-13.99
918.621	-15.35
918.83	-13.5
919.04	-16.86
919.25	-14.39
919.46	-15.37
919.669	-18.7
919.879	-18.23
920.089	-20.12
920.298	-21.07
920.508	-20.51
920.717	-19.8
920.927	-21.91
921.136	-21.13
921.346	-23
921.555	-26.62
921.765	-27.17
921.974	-28.92
922.184	-31.98
922.393	-33.1
922.603	-34.71
922.812	-31.71
923.021	-34.32
923.23	-36.92
923.44	-41.21
923.649	-40.2
923.858	-42.14
924.067	-41.87
924.277	-43.8
924.486	-40.41
924.695	-41.13
924.904	-39.12
925.113	-38.54
925.322	-35.66
925.531	-33.64
925.74	-36.35
925.949	-36.9
926.158	-33.76
926.367	-33.98
926.576	-32.81
926.785	-33.57
926.994	-36.72
927.203	-35.26
927.412	-35.52
927.621	-35.72
927.83	-32.96
928.038	-32.42
928.247	-32.19
928.456	-31.8
928.665	-29.98
928.873	-27.17
929.082	-24.94
929.291	-24.67
929.499	-22.17
929.708	-23.27
929.916	-21.63
930.125	-23.6
930.333	-24.14
930.542	-22.62
930.75	-20.13
930.959	-20.03
931.167	-19.25
931.376	-19.73
931.584	-17.67
931.793	-19.1
932.001	-19.97
932.209	-21.35
932.418	-22.54
932.626	-22.98
932.834	-24.64
933.042	-27.57
933.251	-26.79
933.459	-25.56
933.667	-26.85
933.875	-27.09
934.083	-25.56
934.291	-24.68
934.499	-23.88
934.707	-24.41
934.915	-24.15
935.123	-22.46
935.331	-23.91
935.539	-25.8
935.747	-28.05
935.955	-29.25
936.163	-28.68
936.371	-28.13
936.579	-25.25
936.787	-26.02
936.995	-26.97
937.202	-28.64
937.41	-28.71
937.618	-29.77
937.826	-29.61
938.033	-34.21
938.241	-35.92
938.449	-32.73
938.656	-30.32
938.864	-30.72
939.071	-31.13
939.279	-28.39
939.486	-25.21
939.694	-26.37
939.901	-27.94
940.109	-25.84
940.316	-25.65
940.524	-26.31
940.731	-27.87
940.939	-26.39
941.146	-26.94
941.353	-27.5
941.561	-27.25
941.768	-28.82
941.975	-27.26
942.182	-26.56
942.39	-25.93
942.597	-22.67
942.804	-22.59
943.011	-23.27
943.218	-22.08
943.425	-23.13
943.632	-23.13
943.839	-24.7
944.046	-24.06
944.253	-23.56
944.46	-23.39
944.667	-19.53
944.874	-22.52
945.081	-22.06
945.288	-20.18
945.495	-18.54
945.702	-18.41
945.909	-21.89
946.115	-19.93
946.322	-21.29
946.529	-24.51
946.736	-24.08
946.942	-22.74
947.149	-23.71
947.356	-25.24
947.562	-26.89
947.769	-26.94
947.976	-27.62
948.182	-24.46
948.389	-25.38
948.595	-26.17
948.802	-25.25
949.008	-25.72
949.215	-25.27
949.421	-26.36
949.628	-27.15
949.834	-25.24
950.04	-26.22
950.247	-20.97
950.453	-21.39
950.659	-24.22
950.865	-23.19
951.072	-28.71
951.278	-25.64
951.484	-26.42
951.69	-30.17
951.896	-30.81
952.103	-31.41
952.309	-28.1
952.515	-28.56
952.721	-24.81
952.927	-23.26
953.133	-23.6
953.339	-24.39
953.545	-24.57
953.751	-24
953.957	-20.7
954.163	-22.46
954.369	-21.84
954.574	-24.86
954.78	-25.13
954.986	-23.62
955.192	-22.41
955.398	-24.34
955.603	-26.77
955.809	-25.61
956.015	-24.66
956.22	-24.58
956.426	-23.79
956.632	-28.54
956.837	-29.33
957.043	-27.02
957.248	-23.71
957.454	-22.44
957.66	-25.01
957.865	-24.49
958.07	-22.03
958.276	-24.23
958.481	-25.95
958.687	-28.42
958.892	-28.81
959.097	-30.7
959.303	-31.2
959.508	-32.07
959.713	-31.89
959.919	-31.27
960.124	-31.98
960.329	-31.75
960.534	-27.08
960.739	-27.08
960.945	-24.76
961.15	-24.81
961.355	-26.27
961.56	-30.66
961.765	-32.05
961.97	-30.42
962.175	-28.19
962.38	-32.18
962.585	-31.52
962.79	-33.07
962.995	-32.93
963.2	-32.19
963.404	-32.73
963.609	-37.26
963.814	-38.78
964.019	-40.34
964.224	-42.48
964.428	-41.2
964.633	-40.3
964.838	-39.21
965.042	-39.25
965.247	-39.63
965.452	-39.21
965.656	-36.6
965.861	-34.66
966.066	-37
966.27	-36.04
966.475	-31.37
966.679	-35.57
966.884	-35.79
967.088	-38.63
967.292	-40.31
967.497	-37.78
967.701	-37.99
967.906	-35.91
968.11	-32.68
968.314	-29.16
968.518	-31.71
968.723	-27.05
968.927	-26.15
969.131	-23.46
969.335	-20.71
969.539	-20.5
969.744	-19.28
969.948	-15.34
970.152	-13.56
970.356	-12.18
970.56	-11.95
970.764	-12.45
970.968	-10.62
971.172	-9.96
971.376	-8.03
971.58	-7.23
971.784	-6
971.988	-7.89
972.192	-5.32
972.395	-5.37
972.599	-7.29
972.803	-10.11
973.007	-7.22
973.21	-8.77
973.414	-8.14
973.618	-8.11
973.822	-9.41
974.025	-9.45
974.229	-9.42
974.432	-13.38
974.636	-16
974.84	-13.82
975.043	-14.71
975.247	-17.3
975.45	-19.14
975.654	-19.82
975.857	-19.28
976.06	-20.21
976.264	-22.62
976.467	-19.45
976.671	-20.12
976.874	-17.89
977.077	-19.1
977.28	-18.13
977.484	-20.47
977.687	-21.05
977.89	-18.35
978.093	-19.21
978.297	-19.14
978.5	-21.92
978.703	-20.31
978.906	-18.97
979.109	-18.49
979.312	-16.91
979.515	-17.87
979.718	-18.2
979.921	-18.98
980.124	-21.64
980.327	-21.86
980.53	-22.14
980.733	-19.48
980.936	-18.02
981.138	-20.29
981.341	-19.43
981.544	-19.47
981.747	-19.7
981.949	-20.56
982.152	-19.84
982.355	-20.98
982.558	-17.26
982.76	-21.43
982.963	-22.17
983.165	-23.5
983.368	-22.63
983.571	-23.7
983.773	-18.88
983.976	-18.61
984.178	-18.19
984.381	-18.65
984.583	-20.21
984.785	-20.07
984.988	-18.11
985.19	-15.98
985.392	-18.25
985.595	-22.25
985.797	-20.74
985.999	-16.29
986.202	-13.59
986.404	-12.8
986.606	-10.1
986.808	-11.61
987.01	-8.8
987.212	-10.14
987.415	-11.64
987.617	-12.01
987.819	-12.35
988.021	-11.86
988.223	-12.86
988.425	-13.5
988.627	-13.49
988.829	-18.35
989.031	-15.13
989.232	-14.97
989.434	-13.12
989.636	-13.12
989.838	-12.69
990.04	-13.23
990.242	-14.55
990.443	-17.85
990.645	-14.8
990.847	-12.85
991.048	-12.2
991.25	-13.81
991.452	-15.58
991.653	-15.7
991.855	-15.2
992.057	-16.96
992.258	-17.45
992.46	-18.41
992.661	-17.52
992.863	-19.54
993.064	-18.01
993.265	-21.21
993.467	-21.49
993.668	-18.27
993.87	-18.37
994.071	-17.69
994.272	-15.13
994.473	-12.78
994.675	-12.11
994.876	-11.62
995.077	-10.96
995.278	-10.5
995.48	-9.85
995.681	-12.28
995.882	-11.29
996.083	-12.86
996.284	-17.11
996.485	-16.33
996.686	-16.09
996.887	-18.19
997.088	-21.46
997.289	-23.52
997.49	-23.89
997.691	-24.18
997.892	-24.84
998.092	-20.76
998.293	-19.22
998.494	-20.95
998.695	-21
998.896	-17.73
999.096	-17.34
999.297	-15.81
999.498	-17.07
999.698	-19.43
999.899	-23.24
1000.1	-24.35
1000.3	-24.4
1000.501	-24.93
1000.701	-25.1
1000.902	-25.84
1001.102	-25.45
1001.303	-24.42
1001.503	-27.72
1001.704	-28.1
1001.904	-27.56
1002.105	-29.06
1002.305	-28.54
1002.505	-30.58
1002.706	-32.93
1002.906	-33.14
1003.106	-34.19
1003.306	-33.11
1003.507	-30.8
1003.707	-30.98
1003.907	-27.88
1004.107	-26.01
1004.307	-27.97
1004.507	-26.81
1004.707	-26.96
1004.907	-29.08
1005.107	-32.28
1005.308	-30.98
1005.507	-33.73
1005.707	-31.81
1005.907	-31.32
1006.107	-28.6
1006.307	-27.77
1006.507	-27.71
1006.707	-29.11
1006.907	-29.22
1007.106	-30.43
1007.306	-30.19
1007.506	-28.4
1007.706	-26.7
1007.905	-28.58
1008.105	-29.56
1008.305	-29.21
1008.504	-28.39
1008.704	-21.58
1008.903	-19.37
1009.103	-18.73
1009.303	-20.29
1009.502	-19.07
1009.702	-19.68
1009.901	-19.69
1010.1	-23.46
1010.3	-21.35
1010.499	-21.63
1010.699	-23.47
1010.898	-24.76
1011.097	-23.54
1011.296	-23.14
1011.496	-25.25
1011.695	-24.95
1011.894	-25.74
1012.093	-22.4
1012.293	-22.67
1012.492	-22.37
1012.691	-22.33
1012.89	-21.89
1013.089	-24.51
1013.288	-21.95
1013.487	-20.79
1013.686	-21.92
1013.885	-23.83
1014.084	-22.51
1014.283	-22.14
1014.482	-23.17
1014.681	-24.39
1014.88	-27.93
1015.078	-26.39
1015.277	-27.86
1015.476	-27.5
1015.675	-27.84
1015.873	-28.45
1016.072	-29.78
1016.271	-26.81
1016.47	-30.79
1016.668	-31.47
1016.867	-33.28
1017.065	-34.52
1017.264	-35.62
1017.463	-34.65
1017.661	-33.56
1017.86	-34.22
1018.058	-33.7
1018.256	-36.65
1018.455	-37.9
1018.653	-37.55
1018.852	-37.73
1019.05	-40.57
1019.248	-41.09
1019.447	-42.43
1019.645	-44.13
1019.843	-46.02
1020.041	-45.59
1020.24	-44.01
1020.438	-40.61
1020.636	-40.46
1020.834	-41.62
1021.032	-39.24
1021.23	-40.82
1021.428	-39.87
1021.626	-36.44
1021.824	-36.84
1022.022	-36.91
1022.22	-33.64
1022.418	-33.26
1022.616	-34.49
1022.814	-33
1023.012	-31.79
1023.21	-29.69
1023.408	-28.85
1023.606	-29.78
1023.803	-25.9
1024.001	-24.65
1024.199	-27.76
1024.397	-26.37
1024.594	-24.72
1024.792	-26.45
1024.99	-25.51
1025.187	-23.95
1025.385	-19.94
1025.582	-20.12
1025.78	-20.62
1025.977	-19.27
1026.175	-19.01
1026.372	-20.3
1026.57	-22.88
1026.767	-19.9
1026.965	-18.73
1027.162	-18.7
1027.359	-19.59
1027.557	-17.42
1027.754	-21.59
1027.951	-22.05
1028.148	-19.74
1028.346	-21.75
1028.543	-23.47
1028.74	-23.11
1028.937	-26.45
1029.134	-26.97
1029.331	-27.8
1029.528	-26.81
1029.725	-28
1029.923	-31.38
1030.12	-27.15
1030.317	-26.21
1030.513	-23.66
1030.71	-23.44
1030.907	-21.05
1031.104	-22.03
1031.301	-23.33
1031.498	-24.79
1031.695	-25.71
1031.892	-25.11
1032.088	-25.13
1032.285	-26.91
1032.482	-27.88
1032.678	-29.09
1032.875	-31.88
1033.072	-31.65
1033.268	-32.23
1033.465	-31.14
1033.662	-33.83
1033.858	-32.76
1034.055	-31.96
1034.251	-31.24
1034.448	-32.58
1034.644	-32.26
1034.84	-27.87
1035.037	-25.34
1035.233	-24.61
1035.43	-22.92
1035.626	-24.83
1035.822	-23.76
1036.019	-25.82
1036.215	-30.33
1036.411	-28.53
1036.607	-31.29
1036.803	-33.52
1037	-34.16
1037.196	-36.26
1037.392	-36.28
1037.588	-38.11
1037.784	-36.39
1037.98	-36.8
1038.176	-36.28
1038.372	-34.71
1038.568	-31.78
1038.764	-29.86
1038.96	-27.32
1039.156	-29.07
1039.352	-31.2
1039.547	-30.23
1039.743	-29.39
1039.939	-27.41
1040.135	-28.18
1040.331	-29.69
1040.526	-27.44
1040.722	-28.83
1040.918	-31.07
1041.113	-34.82
1041.309	-35.41
1041.505	-38.34
1041.7	-37.4
1041.896	-36.21
1042.091	-34.29
1042.287	-32.9
1042.482	-32.89
1042.678	-33.01
1042.873	-31.89
1043.069	-32.95
1043.264	-30.86
1043.459	-29.01
1043.655	-27.14
1043.85	-28.26
1044.045	-27.07
1044.24	-27.55
1044.436	-25.89
1044.631	-28.66
1044.826	-30.43
1045.021	-33.79
1045.216	-31.6
