Data from FLMT021711__4__18-14-16-188.txt Node

Date: Tue Nov 05 18:14:16 CET 2024
User: Etudiants TP
Spectrometer: FLMT02171
Trigger mode: 0
Integration Time (sec): 1,000000E-1
Scans to average: 5
Electric dark correction enabled: true
Nonlinearity correction enabled: false
Boxcar width: 15
XAxis mode: Wavelengths
Number of Pixels in Spectrum: 3648
>>>>>Begin Spectral Data<<<<<
194,658	-69,75
194,923	-66,23
195,188	-59,12
195,453	-58,61
195,717	-52,8
195,982	-48,4
196,247	-46,3
196,512	-47,75
196,777	-46,25
197,042	-45,2
197,307	-45,85
197,572	-40,23
197,837	-40,59
198,101	-38,75
198,366	-36,43
198,631	-34,62
198,896	-27,73
199,161	-19,17
199,425	-10,84
199,69	0,43
199,955	-0,53
200,22	-2,7
200,484	-3,45
200,749	-2,98
201,014	-1,45
201,278	-2,77
201,543	-0,97
201,807	-1,38
202,072	1,03
202,337	-0,01
202,601	0,33
202,866	-1,87
203,13	-0,61
203,395	-3,65
203,659	-2,86
203,924	-4,06
204,189	-4,79
204,453	-2,84
204,717	-0,55
204,982	-0
205,246	1,28
205,511	4,68
205,775	2,53
206,04	7,42
206,304	8,89
206,568	11,46
206,833	11,04
207,097	12,64
207,361	13,35
207,626	17,03
207,89	17,44
208,154	18,19
208,419	20,3
208,683	19,99
208,947	21,45
209,211	21,33
209,476	21,06
209,74	21,84
210,004	21,8
210,268	22,91
210,532	25,51
210,796	25,73
211,061	27,05
211,325	27,74
211,589	27,05
211,853	27,81
212,117	27,08
212,381	27,47
212,645	27,19
212,909	27,47
213,173	27,02
213,437	27,63
213,701	26,42
213,965	26,58
214,229	22,36
214,493	22,07
214,757	21,51
215,021	21,2
215,285	24,7
215,549	27,03
215,813	23,66
216,077	22,89
216,34	25,1
216,604	24,39
216,868	26,35
217,132	27,74
217,396	27,34
217,659	28,08
217,923	24,26
218,187	25
218,451	22,65
218,714	20,84
218,978	21,69
219,242	24,03
219,505	23,9
219,769	25,77
220,033	25,47
220,296	27,64
220,56	27,64
220,824	24,22
221,087	24,25
221,351	22,53
221,614	23,4
221,878	26,51
222,142	25,84
222,405	26,25
222,669	28,09
222,932	23,25
223,196	21,49
223,459	17,58
223,722	18,54
223,986	18,73
224,249	17,1
224,513	17,07
224,776	16,75
225,04	15,65
225,303	15,1
225,566	14,82
225,83	17,2
226,093	21,14
226,356	20,03
226,62	19,9
226,883	21,8
227,146	20,88
227,409	20,34
227,673	17,73
227,936	17,31
228,199	18,75
228,462	15,99
228,725	15,23
228,989	16,02
229,252	16,9
229,515	22,35
229,778	20,26
230,041	17,92
230,304	16,58
230,567	17,61
230,83	14,95
231,093	17,1
231,356	17,75
231,619	25,53
231,882	24,55
232,145	25,88
232,408	25,82
232,671	24,96
232,934	25,89
233,197	24,62
233,46	22,19
233,723	24,6
233,986	21,77
234,249	18,02
234,512	19,72
234,775	22,99
235,037	21,54
235,3	20,14
235,563	19,73
235,826	22,41
236,089	24,36
236,351	23,6
236,614	27,67
236,877	28,07
237,14	30,84
237,402	29,82
237,665	24,28
237,928	23,05
238,19	20,58
238,453	23,05
238,716	21,41
238,978	22,59
239,241	21,07
239,503	24,38
239,766	18,14
240,029	15,96
240,291	19,8
240,554	19,79
240,816	19,66
241,079	19,17
241,341	18,59
241,604	18,31
241,866	14,08
242,129	15,6
242,391	18,53
242,653	16,8
242,916	15,35
243,178	15,85
243,441	18,6
243,703	18,44
243,965	15,41
244,228	14,93
244,49	13,49
244,752	12,28
245,015	13,46
245,277	15,75
245,539	14,92
245,801	16,68
246,064	17,85
246,326	18,68
246,588	18,24
246,85	20,2
247,112	20,45
247,374	23,05
247,637	25,13
247,899	25,04
248,161	24,99
248,423	19,44
248,685	20,38
248,947	20,77
249,209	20,95
249,471	22,52
249,733	24,28
249,995	23,73
250,257	23,34
250,519	21,5
250,781	24,68
251,043	23,34
251,305	24,16
251,567	25,17
251,829	24,77
252,091	23,34
252,353	20,13
252,615	20,59
252,876	18,73
253,138	17,27
253,4	11,82
253,662	13,25
253,924	15,83
254,185	16,68
254,447	16,03
254,709	16,97
254,971	18,59
255,232	19,32
255,494	18,02
255,756	15,36
256,017	15,21
256,279	15,13
256,541	15,1
256,802	14,02
257,064	14,28
257,326	13,27
257,587	13,66
257,849	14,29
258,11	17,66
258,372	18,65
258,633	20,67
258,895	18,83
259,156	17,56
259,418	16,08
259,679	12,08
259,941	9,93
260,202	13,27
260,464	16,18
260,725	15,93
260,987	15,68
261,248	13,83
261,509	15,84
261,771	13,95
262,032	14,56
262,293	14,14
262,555	14,32
262,816	10,48
263,077	9,4
263,338	7,61
263,6	8,03
263,861	7,59
264,122	6,88
264,383	9,54
264,645	10,73
264,906	9,67
265,167	9,31
265,428	9,74
265,689	10,62
265,95	7,64
266,211	8,75
266,473	7,75
266,734	4,19
266,995	0,58
267,256	2,34
267,517	5,07
267,778	8,12
268,039	9,42
268,3	8,58
268,561	5,18
268,822	7,94
269,083	6,18
269,344	5,92
269,604	4,65
269,865	6,54
270,126	2,65
270,387	3,76
270,648	5,5
270,909	5,92
271,17	3,58
271,43	-0,24
271,691	-3,47
271,952	-4,6
272,213	-1,17
272,473	-2,92
272,734	-1,37
272,995	0,24
273,256	1,66
273,516	3,08
273,777	0,17
274,038	1,84
274,298	-2,39
274,559	-2,06
274,82	3,56
275,08	7,04
275,341	7,94
275,601	5,74
275,862	3,62
276,122	4,3
276,383	5,24
276,643	7,42
276,904	7
277,164	9,89
277,425	10,71
277,685	14,08
277,946	13,61
278,206	15,41
278,467	16,64
278,727	15,92
278,987	15,21
279,248	15,25
279,508	17,71
279,768	21,44
280,029	23,06
280,289	18,47
280,549	16,39
280,81	15,86
281,07	15,29
281,33	14,72
281,59	13,66
281,851	16,6
282,111	17,07
282,371	17,75
282,631	19,37
282,891	16,99
283,151	14,89
283,412	12,56
283,672	11,65
283,932	11,63
284,192	12,38
284,452	10,76
284,712	9,24
284,972	7,04
285,232	5,17
285,492	7,29
285,752	5,03
286,012	11,43
286,272	13,16
286,532	11,6
286,792	12,38
287,052	14,77
287,312	16,04
287,571	15,2
287,831	16,12
288,091	12,48
288,351	13,33
288,611	17,15
288,871	16,97
289,13	16,64
289,39	13,95
289,65	15,15
289,91	12,3
290,17	14,39
290,429	16,61
290,689	13,79
290,949	11,33
291,208	12,99
291,468	15,23
291,728	17,58
291,987	20,52
292,247	18,54
292,506	21,53
292,766	23,84
293,026	21,95
293,285	23,69
293,545	25,29
293,804	26,16
294,064	22,18
294,323	18,89
294,583	19,17
294,842	19,21
295,102	20,55
295,361	21,16
295,621	21,98
295,88	21,45
296,139	21,95
296,399	22,93
296,658	18,67
296,917	17,73
297,177	15,73
297,436	17,54
297,695	15,69
297,955	17,56
298,214	14,78
298,473	16,59
298,732	18,28
298,992	20,93
299,251	20,08
299,51	15,87
299,769	16,82
300,028	15,43
300,287	16,19
300,547	15,31
300,806	13,16
301,065	17,41
301,324	18,76
301,583	14,92
301,842	11,1
302,101	9,18
302,36	9,88
302,619	8,01
302,878	8,15
303,137	4,18
303,396	5,42
303,655	6,75
303,914	4,2
304,173	4,62
304,432	5,08
304,691	8,11
304,95	6,29
305,208	12,24
305,467	12,9
305,726	12,29
305,985	14,06
306,244	16,37
306,503	14,93
306,761	13,02
307,02	10,14
307,279	12,1
307,537	14,43
307,796	10,16
308,055	7,48
308,314	10
308,572	8,55
308,831	10,78
309,09	11,29
309,348	11,34
309,607	10,44
309,865	13,6
310,124	12,91
310,382	14,47
310,641	17,05
310,9	14,8
311,158	17,36
311,417	16,51
311,675	16,41
311,933	16,75
312,192	19,04
312,45	17,05
312,709	17,88
312,967	17,4
313,226	15,42
313,484	13,63
313,742	12,91
314,001	10,36
314,259	8,38
314,517	8,79
314,776	12,48
315,034	14,47
315,292	11,26
315,55	8,45
315,809	9,32
316,067	10,28
316,325	7,72
316,583	8,24
316,841	6,02
317,1	3,32
317,358	0,76
317,616	0,96
317,874	0,4
318,132	0,09
318,39	-0,94
318,648	-3,6
318,906	-2,39
319,164	-3,89
319,422	-6,18
319,68	-6,99
319,938	-5,53
320,196	-7,61
320,454	-4,84
320,712	-6,44
320,97	-6,1
321,228	-8,68
321,486	-5,11
321,744	-3,86
322,002	-2,01
322,26	-3,38
322,517	-2,92
322,775	-7,2
323,033	-8,62
323,291	-6
323,549	-2,79
323,806	-1,31
324,064	0,12
324,322	2,22
324,58	1,22
324,837	4,01
325,095	1,5
325,353	2,08
325,61	4,48
325,868	3,26
326,126	5,74
326,383	5,51
326,641	5,44
326,898	5,82
327,156	6,83
327,413	8,34
327,671	8,78
327,928	10,36
328,186	12,36
328,443	11,14
328,701	14,51
328,958	16,33
329,216	17,76
329,473	14,34
329,731	16
329,988	16,47
330,245	19,63
330,503	20,39
330,76	21,59
331,017	24,27
331,275	21,49
331,532	20,71
331,789	18,04
332,047	16,88
332,304	12,42
332,561	12,4
332,818	10,07
333,076	13,95
333,333	16,12
333,59	15,96
333,847	17,65
334,104	16,7
334,361	15,9
334,618	15,39
334,876	14,3
335,133	14,6
335,39	13,6
335,647	13,91
335,904	10,67
336,161	9,15
336,418	8,61
336,675	4,36
336,932	6
337,189	5,62
337,446	6,68
337,703	4,75
337,96	1,21
338,216	2,18
338,473	-1,26
338,73	-1,47
338,987	-1,88
339,244	1,67
339,501	0,34
339,757	2,47
340,014	4,11
340,271	7,61
340,528	8,56
340,785	13,42
341,041	13,23
341,298	10
341,555	10,21
341,811	9,82
342,068	6,57
342,325	6,17
342,581	8,87
342,838	10,24
343,094	9,87
343,351	9,67
343,608	7,61
343,864	9,62
344,121	10,23
344,377	10,84
344,634	10,79
344,89	8,94
345,147	8,41
345,403	6,82
345,66	7,08
345,916	7,97
346,172	5,07
346,429	4,46
346,685	2,86
346,942	1,99
347,198	-1,23
347,454	-0,41
347,711	-1,43
347,967	-4,25
348,223	-5,56
348,48	-5,4
348,736	-2,87
348,992	-3,87
349,248	-0,42
349,504	-0,62
349,761	-0,84
350,017	0,32
350,273	1,19
350,529	0,28
350,785	-0,25
351,041	-0,88
351,297	0,37
351,554	-1,36
351,81	-3,73
352,066	-5,35
352,322	-6,31
352,578	-5,42
352,834	-5,73
353,09	-6,25
353,346	-5,22
353,602	-7,22
353,858	-6,83
354,114	-7,54
354,369	-5,17
354,625	-1,29
354,881	-3,52
355,137	-1,15
355,393	-0,71
355,649	2,01
355,905	1,82
356,16	2,19
356,416	1,57
356,672	-5,63
356,928	-5,4
357,183	-6,85
357,439	-7,37
357,695	-8,54
357,951	-3,95
358,206	-4,71
358,462	-5,34
358,718	-7,28
358,973	-5,92
359,229	-5,01
359,484	-2,5
359,74	1
359,996	2,04
360,251	6,51
360,507	6,38
360,762	6,88
361,018	11,45
361,273	10,68
361,529	13,62
361,784	14,78
362,04	17,79
362,295	18,15
362,55	19,19
362,806	23,91
363,061	25,5
363,316	26,44
363,572	25,42
363,827	27,67
364,082	25,48
364,338	25,9
364,593	27,47
364,848	29,42
365,104	27,94
365,359	30,53
365,614	31,11
365,869	28,21
366,124	29,45
366,38	28,25
366,635	31
366,89	31,92
367,145	31,58
367,4	34,72
367,655	32,89
367,91	32,69
368,165	29,97
368,42	27,15
368,675	27,94
368,93	26,59
369,185	23,34
369,44	22,07
369,695	23,15
369,95	20,78
370,205	18,84
370,46	15,51
370,715	13,54
370,97	13,11
371,225	13,68
371,48	14,49
371,734	14,84
371,989	16,2
372,244	16,22
372,499	16,58
372,754	14,56
373,008	13,03
373,263	9,13
373,518	11,55
373,773	8,95
374,027	7,74
374,282	10,65
374,537	10,36
374,791	11,13
375,046	9,54
375,301	8,23
375,555	7
375,81	8,41
376,064	8,37
376,319	11,14
376,573	9,45
376,828	6,14
377,082	11,89
377,337	10,54
377,591	7,81
377,846	8,58
378,1	11,45
378,355	13,28
378,609	11,6
378,863	7,32
379,118	8,32
379,372	7,44
379,627	5,93
379,881	5,35
380,135	4,59
380,389	5,06
380,644	6,94
380,898	7,6
381,152	9,35
381,407	8,36
381,661	10,97
381,915	13,14
382,169	13,02
382,423	12,79
382,677	9,83
382,932	9,87
383,186	10,5
383,44	12,72
383,694	14,77
383,948	13,36
384,202	12,29
384,456	15,5
384,71	16,2
384,964	14,44
385,218	15,14
385,472	15,33
385,726	14,95
385,98	14,69
386,234	13,05
386,488	11,8
386,742	14,6
386,996	11,08
387,249	12,34
387,503	14,12
387,757	14,7
388,011	16,49
388,265	15,9
388,518	15,27
388,772	18,14
389,026	19,1
389,28	18,1
389,533	16,56
389,787	17,55
390,041	16,13
390,295	15,61
390,548	16,42
390,802	19,97
391,055	17,88
391,309	15,89
391,563	13,86
391,816	14,63
392,07	15,1
392,323	14,83
392,577	16,82
392,83	17,21
393,084	23,48
393,337	26,33
393,591	27,48
393,844	28,04
394,098	31,84
394,351	35,61
394,604	38,51
394,858	41,15
395,111	40,87
395,364	38,24
395,618	40,99
395,871	38,62
396,124	38,39
396,378	37,5
396,631	36,99
396,884	34,03
397,137	34,27
397,391	36,59
397,644	33,54
397,897	33,93
398,15	34,81
398,403	35,09
398,657	33,71
398,91	33,43
399,163	34,27
399,416	33,76
399,669	33,08
399,922	32,55
400,175	33,03
400,428	36,61
400,681	44,9
400,934	50,22
401,187	59,82
401,44	69,42
401,693	73,23
401,946	75,47
402,199	74,94
402,452	74,7
402,704	71,12
402,957	70,15
403,21	72,85
403,463	70,93
403,716	72,66
403,969	74,04
404,221	74,75
404,474	77,49
404,727	80,86
404,98	82,03
405,232	82,57
405,485	84,08
405,738	85,08
405,99	84,96
406,243	87,62
406,496	89,85
406,748	90,99
407,001	90,98
407,253	91,9
407,506	91,58
407,759	92,98
408,011	88,24
408,264	83,99
408,516	76,35
408,769	64,27
409,021	55,49
409,274	45,04
409,526	41,25
409,778	34,63
410,031	34,44
410,283	31,97
410,536	36,36
410,788	34,78
411,04	34,27
411,293	36,15
411,545	35,89
411,797	33,99
412,049	32,22
412,302	30,48
412,554	31,88
412,806	31
413,058	28,48
413,311	29,33
413,563	27,79
413,815	27,86
414,067	24,56
414,319	23,19
414,571	23,56
414,823	21
415,075	20,06
415,328	20,91
415,58	22,72
415,832	24,5
416,084	25,03
416,336	23,41
416,588	27,9
416,84	25,28
417,091	29,07
417,343	24,19
417,595	26,91
417,847	26,53
418,099	27,71
418,351	27,19
418,603	30,21
418,855	31,17
419,106	30,4
419,358	31,79
419,61	33,69
419,862	35,04
420,114	33,52
420,365	32,72
420,617	33,33
420,869	32,48
421,12	31,47
421,372	33,48
421,624	32,94
421,875	32,86
422,127	28,53
422,379	27,71
422,63	30,81
422,882	30,08
423,133	30,65
423,385	30,22
423,636	30,28
423,888	31,16
424,139	33,35
424,391	29,38
424,642	27,01
424,894	23,05
425,145	23,71
425,396	21,26
425,648	24,89
425,899	21,96
426,151	21,09
426,402	19,29
426,653	19,8
426,905	18,44
427,156	15,67
427,407	14,64
427,658	15,03
427,91	13,32
428,161	11,68
428,412	14,64
428,663	15,2
428,914	16,26
429,166	16,97
429,417	17,83
429,668	16,95
429,919	16,2
430,17	15,68
430,421	16,34
430,672	18,87
430,923	18,39
431,174	19,73
431,425	29,46
431,676	45,46
431,927	64,79
432,178	93,12
432,429	123,45
432,68	151,42
432,931	175,72
433,182	193,22
433,433	199,55
433,683	209,44
433,934	213,49
434,185	213,78
434,436	211,76
434,687	215,3
434,937	217,98
435,188	216,58
435,439	214,58
435,69	215,84
435,94	215,66
436,191	214,26
436,442	213,8
436,692	212,04
436,943	208,15
437,194	206,17
437,444	210,59
437,695	215,35
437,945	216,74
438,196	214,34
438,447	213,14
438,697	213,2
438,948	208,49
439,198	197,36
439,449	176,24
439,699	154,07
439,949	127,65
440,2	98,04
440,45	70,96
440,701	50,04
440,951	34,43
441,201	25,14
441,452	16,22
441,702	12,5
441,952	11,77
442,203	11,44
442,453	6,55
442,703	6,37
442,953	7,23
443,204	8,02
443,454	5,87
443,704	4,77
443,954	1,24
444,204	2,17
444,455	4,3
444,705	6,88
444,955	6,48
445,205	3,02
445,455	-1,11
445,705	-1,28
445,955	-1,56
446,205	-2,6
446,455	-2,43
446,705	-0,78
446,955	-1,67
447,205	1,46
447,455	3,25
447,705	0,27
447,955	-1,21
448,205	-0,32
448,454	-2,91
448,704	-1,39
448,954	-3,7
449,204	-3,1
449,454	-3,89
449,704	-5,97
449,953	-5,65
450,203	-2,41
450,453	-5,39
450,703	-3,76
450,952	-5,26
451,202	-3,54
451,452	-4,48
451,701	-1,39
451,951	2,43
452,201	1,15
452,45	-0,89
452,7	0,15
452,949	0,19
453,199	0,98
453,448	1,28
453,698	3,87
453,947	3,05
454,197	1,89
454,446	0,75
454,696	4,8
454,945	4,03
455,195	1,54
455,444	3,28
455,693	8,53
455,943	6,55
456,192	8,4
456,442	6,78
456,691	7,72
456,94	5,69
457,189	4,99
457,439	7,89
457,688	9,38
457,937	7,93
458,186	8,5
458,436	7,76
458,685	10,28
458,934	8,59
459,183	9,23
459,432	10,79
459,681	10,51
459,93	8,56
460,179	9,11
460,429	7,51
460,678	10,71
460,927	12,53
461,176	12,03
461,425	10,54
461,674	12,19
461,923	12,49
462,172	12,6
462,42	11,31
462,669	13,2
462,918	14,08
463,167	14,56
463,416	11,6
463,665	13,34
463,914	14,62
464,162	14,02
464,411	14,58
464,66	17,32
464,909	16,43
465,158	18,16
465,406	16,77
465,655	19,69
465,904	21,93
466,152	22,28
466,401	22,59
466,65	25,34
466,898	24,87
467,147	21,42
467,395	20,12
467,644	23,12
467,893	21,43
468,141	22,54
468,39	20,08
468,638	19,62
468,887	18,48
469,135	17,61
469,384	18,22
469,632	18,41
469,88	17,77
470,129	19,64
470,377	16,45
470,626	19,72
470,874	20,95
471,122	21,12
471,371	18,76
471,619	16,11
471,867	18,26
472,115	18,36
472,364	15,95
472,612	17,98
472,86	15,99
473,108	17,67
473,356	16,16
473,605	16,33
473,853	13,63
474,101	11,62
474,349	9,53
474,597	11,63
474,845	11,05
475,093	9,38
475,341	7,13
475,589	9,76
475,837	10,64
476,085	13,05
476,333	11,21
476,581	12,4
476,829	12,85
477,077	16,03
477,325	15,95
477,573	17,38
477,821	15,63
478,069	17,9
478,317	17,53
478,564	20,04
478,812	18,6
479,06	17,48
479,308	17,49
479,555	19,1
479,803	19,82
480,051	24,08
480,299	26,83
480,546	29,39
480,794	29,88
481,042	33,59
481,289	35,57
481,537	41,75
481,784	45,99
482,032	54,89
482,28	58,83
482,527	63,37
482,775	68,8
483,022	76,61
483,27	83,74
483,517	92,77
483,765	95,79
484,012	101,7
484,259	104,99
484,507	113,43
484,754	117,33
485,002	122,41
485,249	127,44
485,496	136,3
485,744	140,84
485,991	144,18
486,238	145,8
486,486	153,89
486,733	160,2
486,98	166,39
487,227	166,88
487,474	171,91
487,722	177,4
487,969	176,4
488,216	177,44
488,463	178,34
488,71	176,2
488,957	176,09
489,204	173,99
489,451	175,25
489,699	173,08
489,946	170,12
490,193	166,95
490,44	164,82
490,687	162,18
490,934	155,21
491,18	147,95
491,427	147,54
491,674	145,98
491,921	143,62
492,168	138,16
492,415	132,53
492,662	130,01
492,909	128,12
493,155	122,81
493,402	116,89
493,649	112,31
493,896	110,56
494,142	104,22
494,389	99,85
494,636	95,55
494,883	92,38
495,129	87,04
495,376	80,32
495,623	79,65
495,869	78,08
496,116	76,72
496,362	76,34
496,609	76,92
496,855	80,09
497,102	75,57
497,348	71,9
497,595	71,24
497,841	73,14
498,088	69,36
498,334	65,46
498,581	62,95
498,827	61,4
499,074	58,98
499,32	59,41
499,566	61,7
499,813	59,63
500,059	56,46
500,305	54,61
500,552	51,54
500,798	48,26
501,044	51,5
501,29	48,84
501,537	44,64
501,783	45,05
502,029	47,38
502,275	43,55
502,521	39,34
502,767	38,29
503,013	39,67
503,26	35,19
503,506	30,23
503,752	28,93
503,998	25,79
504,244	23,85
504,49	20,37
504,736	22,22
504,982	19,74
505,228	20,16
505,474	19,37
505,72	19,16
505,966	19,01
506,211	22,04
506,457	22,29
506,703	19,04
506,949	16,12
507,195	12,19
507,441	9,26
507,686	11,17
507,932	10,7
508,178	13,16
508,424	11,11
508,669	7,94
508,915	8,47
509,161	9,78
509,406	10,86
509,652	10,04
509,898	13,71
510,143	14,71
510,389	14,17
510,634	11,21
510,88	16,01
511,125	17,98
511,371	19,02
511,616	20,88
511,862	16,18
512,107	12,58
512,353	11,99
512,598	12,33
512,844	9,59
513,089	7,68
513,335	9,64
513,58	8,33
513,825	7,76
514,071	5,22
514,316	5,01
514,561	5,37
514,806	4,85
515,052	7,3
515,297	5,6
515,542	5,71
515,787	5,66
516,033	7,26
516,278	8,08
516,523	7,4
516,768	6,37
517,013	2,95
517,258	1,99
517,503	1,06
517,748	2,42
517,993	1,53
518,238	1,07
518,483	-1,34
518,728	-1,07
518,973	-3,45
519,218	-5,05
519,463	-2,33
519,708	-3,55
519,953	-5,02
520,198	-4,42
520,443	-2,98
520,688	-0,89
520,933	-2,32
521,177	-2,29
521,422	-5,27
521,667	-1,77
521,912	-1,62
522,157	-5,23
522,401	-2,19
522,646	-1,46
522,891	-0,61
523,135	0,61
523,38	0,11
523,625	-1,29
523,869	0,94
524,114	2,41
524,358	2,12
524,603	2,46
524,848	-0,95
525,092	-1,97
525,337	0,03
525,581	2,87
525,826	5,93
526,07	6,02
526,315	7,71
526,559	7,54
526,803	6,74
527,048	10,82
527,292	12,51
527,537	12,64
527,781	13,32
528,025	12,34
528,269	12,8
528,514	13,57
528,758	13,15
529,002	14,31
529,247	19,05
529,491	17,99
529,735	24,01
529,979	24,47
530,223	25,77
530,467	25,48
530,712	25,06
530,956	24,56
531,2	27,94
531,444	25,82
531,688	27,97
531,932	28,7
532,176	31,6
532,42	35,46
532,664	38,14
532,908	37,45
533,152	36,05
533,396	35,41
533,64	36,81
533,884	36,26
534,128	38,97
534,371	43,78
534,615	49,08
534,859	52,89
535,103	57,3
535,347	60,8
535,59	67,04
535,834	70,88
536,078	79,73
536,322	87,96
536,565	100,74
536,809	108,01
537,053	123,24
537,296	137,1
537,54	154,94
537,784	175,09
538,027	202,2
538,271	228,84
538,514	256,55
538,758	285,57
539,001	311,94
539,245	340,38
539,488	367,19
539,732	395,79
539,975	421,01
540,219	448,91
540,462	473,51
540,706	500,38
540,949	522,78
541,192	546,05
541,436	575
541,679	605,43
541,922	638,02
542,166	669,52
542,409	711,62
542,652	758,88
542,895	806,84
543,139	848,46
543,382	886,67
543,625	916,09
543,868	943,24
544,111	963,28
544,354	979,2
544,598	989,4
544,841	994,46
545,084	993,56
545,327	987,37
545,57	977,52
545,813	965,18
546,056	948,01
546,299	929,93
546,542	915,68
546,785	898,18
547,028	881,8
547,271	861,58
547,514	844,31
547,756	822,19
547,999	805,1
548,242	787,25
548,485	767,36
548,728	749,33
548,971	724,49
549,213	702,78
549,456	671,85
549,699	636,22
549,942	594,68
550,184	545,88
550,427	496,84
550,67	454,23
550,912	412,31
551,155	379,2
551,398	346,72
551,64	317,45
551,883	291,25
552,125	267,75
552,368	247,73
552,61	227,86
552,853	214,59
553,095	198,58
553,338	183,53
553,58	172,52
553,823	159,32
554,065	150,62
554,308	137,11
554,55	125,26
554,792	115,26
555,035	107,29
555,277	99,31
555,519	92,1
555,762	83,88
556,004	79,42
556,246	70,05
556,488	66,01
556,731	56,04
556,973	53,46
557,215	48,67
557,457	45,82
557,699	45,79
557,941	40,6
558,183	36,23
558,426	35,9
558,668	29,86
558,91	30,67
559,152	27,82
559,394	25,16
559,636	26,24
559,878	25,38
560,12	22,97
560,362	23,71
560,604	21,78
560,845	21,66
561,087	20,57
561,329	22,46
561,571	19,42
561,813	20,29
562,055	19,88
562,297	20,63
562,538	19,9
562,78	22
563,022	18,97
563,264	18,25
563,505	17,32
563,747	18,39
563,989	16,36
564,23	16,38
564,472	13,45
564,714	14,37
564,955	14,04
565,197	9,88
565,438	12,53
565,68	15,79
565,921	14,83
566,163	14,9
566,404	11,98
566,646	15,22
566,887	16,3
567,129	16,97
567,37	15,26
567,612	17,79
567,853	13,41
568,094	15,32
568,336	15,17
568,577	14,83
568,818	15,09
569,06	12,66
569,301	10,52
569,542	11,13
569,783	11,62
570,025	11,57
570,266	11,36
570,507	12,23
570,748	12,94
570,989	14,53
571,23	17,03
571,472	16,37
571,713	14,26
571,954	15,58
572,195	14,63
572,436	15,43
572,677	18,77
572,918	21,5
573,159	23,06
573,4	23,85
573,641	29,37
573,882	35,13
574,123	37,1
574,364	36,74
574,604	39,56
574,845	43,3
575,086	48,14
575,327	56,73
575,568	62,49
575,809	68,98
576,049	75,38
576,29	78,65
576,531	89,62
576,771	98,71
577,012	107,59
577,253	112,95
577,494	117,3
577,734	122,3
577,975	128,11
578,215	131,86
578,456	133,97
578,697	136,84
578,937	145,08
579,178	149,98
579,418	153,58
579,659	158,81
579,899	162,27
580,14	165,61
580,38	166,58
580,62	168,12
580,861	173,85
581,101	173,64
581,342	173,46
581,582	169,43
581,822	174,48
582,063	175,36
582,303	177,69
582,543	178,21
582,783	177,95
583,024	179,41
583,264	181,97
583,504	181,08
583,744	184,53
583,984	184,33
584,224	186,12
584,465	185,13
584,705	186,45
584,945	188,34
585,185	189,62
585,425	191,21
585,665	191,78
585,905	191,67
586,145	192,38
586,385	190,02
586,625	192,83
586,865	190,39
587,105	187,69
587,345	185,93
587,585	184,68
587,824	183,8
588,064	182,03
588,304	176,83
588,544	175,27
588,784	172,74
589,024	176,22
589,263	175,94
589,503	175,45
589,743	178,88
589,982	179,74
590,222	181,58
590,462	179,22
590,701	176,1
590,941	177,26
591,181	174,01
591,42	169,47
591,66	168,34
591,899	168,56
592,139	164,34
592,378	161,65
592,618	156,56
592,857	152,78
593,097	151,94
593,336	150,14
593,576	147,87
593,815	147,6
594,055	144,53
594,294	145,47
594,533	144,3
594,773	142,75
595,012	143,96
595,251	144,79
595,491	148,52
595,73	151,42
595,969	153,07
596,208	154,45
596,447	158,86
596,687	157,51
596,926	157,5
597,165	151,08
597,404	150,8
597,643	146
597,882	141,11
598,121	140,31
598,36	137,84
598,599	135,7
598,838	132,82
599,077	127,07
599,316	124,04
599,555	121,21
599,794	120,07
600,033	120,95
600,272	122,38
600,511	118,19
600,75	119,72
600,989	121,74
601,228	119,69
601,466	119,88
601,705	118,59
601,944	119,15
602,183	121,67
602,422	119,29
602,66	116,95
602,899	113,34
603,138	111,7
603,376	109,05
603,615	108,12
603,854	104,17
604,092	103,31
604,331	102,93
604,569	103,75
604,808	103,06
605,047	105,4
605,285	109,68
605,524	111,36
605,762	114,72
606	122,22
606,239	131,33
606,477	142,4
606,716	154
606,954	174,94
607,193	200,61
607,431	236,11
607,669	282,37
607,908	339,84
608,146	401,55
608,384	460,97
608,622	521,2
608,861	577,64
609,099	630,26
609,337	676,67
609,575	718,03
609,813	759,01
610,052	793,49
610,29	819,32
610,528	846,42
610,766	870,66
611,004	892,97
611,242	910,82
611,48	929,11
611,718	941,06
611,956	956,61
612,194	966,93
612,432	976,41
612,67	983,01
612,908	990,75
613,146	992,09
613,384	992,67
613,621	989,4
613,859	985,66
614,097	974,63
614,335	959,58
614,573	936,83
614,811	903,96
615,048	857,57
615,286	802,94
615,524	744,32
615,761	682,82
615,999	624,48
616,237	568,94
616,474	519,91
616,712	476,64
616,95	434,82
617,187	396,68
617,425	365,22
617,662	337,22
617,9	308,67
618,137	283,93
618,375	261,78
618,612	240,77
618,85	225,28
619,087	213,97
619,325	198,4
619,562	184,02
619,799	172,31
620,037	162,12
620,274	152,6
620,511	148,52
620,749	140,97
620,986	136,36
621,223	130,4
621,461	129,09
621,698	127,85
621,935	126,72
622,172	123,65
622,409	125,09
622,647	126,89
622,884	125,28
623,121	129,1
623,358	128,88
623,595	130,31
623,832	132,24
624,069	132,3
624,306	133,43
624,543	134,26
624,78	135,82
625,017	137,01
625,254	141,03
625,491	144,19
625,728	145,83
625,965	147,32
626,202	146,2
626,438	145,56
626,675	147,08
626,912	151,87
627,149	155,28
627,386	159,29
627,622	162,76
627,859	164,38
628,096	168,5
628,333	172,49
628,569	174,91
628,806	178,17
629,043	179,62
629,279	180,18
629,516	182,06
629,752	177,65
629,989	175,37
630,225	171,85
630,462	167,88
630,699	164,52
630,935	160,06
631,171	151,56
631,408	147,28
631,644	142,78
631,881	137,5
632,117	130,79
632,354	129,21
632,59	124,61
632,826	120,28
633,063	115,42
633,299	113,72
633,535	108,22
633,771	103,71
634,008	101,82
634,244	97,16
634,48	88,78
634,716	84,26
634,953	75,98
635,189	71,62
635,425	65,84
635,661	61,41
635,897	54,99
636,133	49,59
636,369	42,56
636,605	35,61
636,841	32,17
637,077	31,71
637,313	29,08
637,549	27,54
637,785	25,36
638,021	25,8
638,257	23,62
638,493	27,75
638,729	24,63
638,965	27,86
639,2	29,56
639,436	29,02
639,672	26,75
639,908	23,27
640,144	29,25
640,379	32,27
640,615	28,82
640,851	31,61
641,086	32,69
641,322	30,15
641,558	28,84
641,793	30,98
642,029	28,61
642,264	27,61
642,5	27
642,736	22,49
642,971	24,02
643,207	23,66
643,442	20,22
643,678	20,74
643,913	22,43
644,148	21,49
644,384	22,87
644,619	24,38
644,855	25,33
645,09	26,6
645,325	25,13
645,561	26,46
645,796	22,78
646,031	27,47
646,266	25,71
646,502	23,82
646,737	27,15
646,972	28,76
647,207	32,89
647,442	29,03
647,678	27,53
647,913	33,2
648,148	34,12
648,383	34,15
648,618	35,91
648,853	38,96
649,088	41,12
649,323	45,93
649,558	48,62
649,793	49,24
650,028	51,38
650,263	47,42
650,498	49,16
650,733	50,45
650,968	49,95
651,202	51,12
651,437	49,13
651,672	47,26
651,907	45,47
652,142	46,97
652,376	47,58
652,611	52,1
652,846	53,88
653,081	54,63
653,315	53,26
653,55	52
653,785	52,22
654,019	53,74
654,254	51,54
654,488	49,56
654,723	44,86
654,958	41,29
655,192	38,3
655,427	34,97
655,661	35,5
655,896	36,96
656,13	35,58
656,364	31,41
656,599	26,36
656,833	27,28
657,068	29,69
657,302	31,09
657,536	29,23
657,771	30,9
658,005	30,28
658,239	31,59
658,474	29,75
658,708	31,71
658,942	31,5
659,176	30,01
659,41	26,43
659,645	26,14
659,879	24,46
660,113	21,6
660,347	22,04
660,581	20,11
660,815	20,64
661,049	19,79
661,283	16,58
661,517	14,79
661,751	14,51
661,985	14,9
662,219	17,16
662,453	15,33
662,687	16,8
662,921	14,44
663,155	13,63
663,389	9,12
663,622	9,18
663,856	11,5
664,09	8,38
664,324	5,57
664,558	5,14
664,791	3,41
665,025	2,03
665,259	4,46
665,492	3,97
665,726	5,52
665,96	5,34
666,193	4,1
666,427	5,85
666,661	5,93
666,894	3,73
667,128	2,05
667,361	4,22
667,595	2,99
667,828	2,7
668,062	1,22
668,295	1,23
668,529	1,22
668,762	3,1
668,995	1,81
669,229	5,3
669,462	6,06
669,695	6,35
669,929	4,24
670,162	4,03
670,395	0,19
670,629	1,84
670,862	3,26
671,095	-0,71
671,328	0,09
671,561	-2,69
671,795	-1,84
672,028	0,8
672,261	0,96
672,494	1,52
672,727	-0,87
672,96	1,1
673,193	0,34
673,426	4,71
673,659	4,93
673,892	5,92
674,125	6,09
674,358	6,05
674,591	3,61
674,824	3,55
675,057	1,9
675,29	1,23
675,523	3,32
675,755	2,5
675,988	3,84
676,221	6,69
676,454	5,07
676,687	4,9
676,919	4,94
677,152	5,68
677,385	5,66
677,617	7,11
677,85	8,34
678,083	6,66
678,315	10,04
678,548	8,06
678,78	7,24
679,013	5,36
679,246	5,94
679,478	6,27
679,711	3,29
679,943	5,6
680,175	1,97
680,408	5,67
680,64	2,08
680,873	2,92
681,105	3,07
681,338	7
681,57	6,95
681,802	8,61
682,034	8,14
682,267	12,89
682,499	14,87
682,731	11,43
682,964	10,5
683,196	7,74
683,428	6,45
683,66	5,14
683,892	8,73
684,124	11,52
684,356	14,12
684,589	14,56
684,821	14,91
685,053	15,17
685,285	15,99
685,517	18,5
685,749	22,13
685,981	24,56
686,213	26,22
686,445	27,9
686,676	26,42
686,908	29,23
687,14	28,41
687,372	29,17
687,604	25,62
687,836	26,88
688,068	28,17
688,299	27,82
688,531	24,5
688,763	29,95
688,995	28,34
689,226	31,76
689,458	29,5
689,69	27,74
689,921	26,51
690,153	26,79
690,384	29,54
690,616	28,4
690,848	30,14
691,079	25,85
691,311	23,48
691,542	19,86
691,774	18,63
692,005	20,54
692,237	23,42
692,468	22,7
692,699	20,05
692,931	18,19
693,162	15,87
693,393	14,84
693,625	12,2
693,856	12,74
694,087	11,8
694,319	13,32
694,55	13,95
694,781	12,94
695,012	12,43
695,243	9,59
695,475	9,87
695,706	8,28
695,937	5,13
696,168	5,19
696,399	3,19
696,63	2,31
696,861	3,27
697,092	10,17
697,323	13,35
697,554	13,24
697,785	13,8
698,016	14,36
698,247	13,53
698,478	13,48
698,709	15,47
698,94	17,74
699,171	17,11
699,401	12,42
699,632	14,03
699,863	11,38
700,094	10,42
700,325	14,05
700,555	15,96
700,786	18,58
701,017	19,85
701,247	18,89
701,478	18,16
701,709	18,26
701,939	17,77
702,17	20,8
702,401	23,12
702,631	23,76
702,862	24,37
703,092	21,84
703,323	26,69
703,553	28,15
703,784	30,29
704,014	32,82
704,244	28,4
704,475	28,51
704,705	29,32
704,936	30,99
705,166	32,36
705,396	35,88
705,627	38,54
705,857	41,55
706,087	43,37
706,317	42,56
706,548	42,99
706,778	42,89
707,008	44,99
707,238	48,09
707,468	45,8
707,698	43,9
707,928	43,46
708,158	41,64
708,389	43,2
708,619	43,35
708,849	43,94
709,079	46,02
709,309	44,14
709,539	41,93
709,768	43,37
709,998	47,32
710,228	47,96
710,458	44,97
710,688	43,33
710,918	41,58
711,148	38,43
711,378	38,5
711,607	35,22
711,837	35,11
712,067	34,11
712,297	30,47
712,526	27,67
712,756	26,22
712,986	21,02
713,215	16,51
713,445	15,58
713,674	16,1
713,904	14,95
714,134	17,47
714,363	14,9
714,593	14,74
714,822	13,7
715,052	12,58
715,281	13,65
715,511	10,49
715,74	10,62
715,969	6,89
716,199	5,06
716,428	4,71
716,657	4,83
716,887	5,85
717,116	1,3
717,345	2,61
717,575	2,58
717,804	2,93
718,033	1,45
718,262	0,54
718,492	0,85
718,721	2,53
718,95	1,5
719,179	-1,18
719,408	0,6
719,637	-1,75
719,866	-2,83
720,095	-1,34
720,324	-0,81
720,553	-3,68
720,782	-5,16
721,011	-5,11
721,24	-7,8
721,469	-8,15
721,698	-8,75
721,927	-7,89
722,156	-8,89
722,385	-10,81
722,613	-6,88
722,842	-8,11
723,071	-4,37
723,3	-2,82
723,529	-5,62
723,757	-5,67
723,986	-9,73
724,215	-9,16
724,443	-8,71
724,672	-6,85
724,901	-6,8
725,129	-4,05
725,358	0,59
725,586	-2,83
725,815	-3,38
726,043	-5,1
726,272	-6,1
726,5	-6,71
726,729	-5,61
726,957	-9,29
727,186	-9,92
727,414	-9,45
727,642	-7,08
727,871	-5,11
728,099	-4,53
728,327	-4,44
728,556	-2,14
728,784	-0,79
729,012	-2,99
729,241	-1,61
729,469	-0,84
729,697	-4,59
729,925	-2,94
730,153	-4,49
730,381	-5,16
730,61	-3,55
730,838	-5,73
731,066	-4,8
731,294	-4,23
731,522	-7,3
731,75	-10,91
731,978	-12,12
732,206	-13,59
732,434	-17,13
732,662	-14,55
732,89	-16,61
733,118	-17,04
733,346	-16,33
733,573	-15,46
733,801	-15,22
734,029	-8,27
734,257	-8,58
734,485	-4,24
734,712	-3,18
734,94	-5,87
735,168	-3,46
735,396	-4,04
735,623	-6,28
735,851	-4,93
736,078	-3,43
736,306	-2,23
736,534	-3,28
736,761	-2,89
736,989	-4,68
737,216	-4,49
737,444	-6,37
737,671	-6,22
737,899	-0,59
738,126	-0,64
738,354	-1,04
738,581	0,03
738,809	0,57
739,036	-2,34
739,263	-1,91
739,491	-4,11
739,718	-4,11
739,945	1,74
740,173	5,54
740,4	5,53
740,627	3,36
740,854	4,18
741,081	1,46
741,309	-0,24
741,536	-5,01
741,763	-6,39
741,99	-3,73
742,217	-4,3
742,444	-3,5
742,671	-1,62
742,898	-1,54
743,125	-3,43
743,352	-5,03
743,579	-4,46
743,806	-3,35
744,033	-1,38
744,26	-1,5
744,487	-0,95
744,714	0,17
744,941	-1,72
745,167	1,67
745,394	0,28
745,621	0,93
745,848	1,63
746,075	5,92
746,301	9,99
746,528	14,74
746,755	13,18
746,981	11,61
747,208	11,43
747,435	15,26
747,661	15,73
747,888	17,03
748,114	14,04
748,341	17,25
748,567	18,66
748,794	17,74
749,02	16,72
749,247	14,26
749,473	13,27
749,7	12,26
749,926	10,61
750,152	15,33
750,379	14,99
750,605	15,92
750,831	14,36
751,058	13,18
751,284	12,99
751,51	16,47
751,737	17,44
751,963	15,89
752,189	13,83
752,415	14,31
752,641	12,55
752,867	12,04
753,094	10,24
753,32	7,58
753,546	6,55
753,772	7,65
753,998	5,07
754,224	5,77
754,45	3,44
754,676	4,65
754,902	2,34
755,128	4,49
755,354	2,96
755,579	5,32
755,805	6,44
756,031	4,83
756,257	4,05
756,483	3,12
756,709	2,09
756,934	2,57
757,16	0,15
757,386	0,17
757,612	-3,39
757,837	-3,72
758,063	-0,42
758,289	3,1
758,514	0,7
758,74	-3,05
758,965	-4,81
759,191	-3,1
759,416	-1,35
759,642	-0,16
759,868	-0,48
760,093	2,26
760,318	0,07
760,544	0,23
760,769	-0,37
760,995	-0,05
761,22	-1,71
761,445	1,04
761,671	3
761,896	6,9
762,121	6,63
762,347	6,44
762,572	2,53
762,797	2,77
763,022	3,27
763,248	7,77
763,473	9,23
763,698	8,24
763,923	8,8
764,148	7,46
764,373	6,02
764,598	8,83
764,823	10,74
765,048	5,59
765,273	1,39
765,498	0,85
765,723	1,38
765,948	3,25
766,173	2,44
766,398	1,72
766,623	0,79
766,848	1,06
767,073	-1,01
767,298	-0,87
767,522	-1,46
767,747	0,25
767,972	0,31
768,197	0,77
768,421	-1,52
768,646	-5,18
768,871	-8,55
769,095	-8,49
769,32	-6,23
769,545	-6,69
769,769	-5,37
769,994	-3,38
770,218	-6,34
770,443	-5,69
770,667	-4,2
770,892	-4,45
771,116	-4,66
771,341	-1,32
771,565	-1,63
771,79	-1,71
772,014	-1,15
772,238	-2,47
772,463	0,43
772,687	0,5
772,911	-1,57
773,136	-3,01
773,36	-1,19
773,584	0,2
773,808	-2
774,033	-2,21
774,257	-1,02
774,481	-2,56
774,705	-4,07
774,929	-4,65
775,153	-5,59
775,377	-3,77
775,602	-4,72
775,826	-4,48
776,05	-2,92
776,274	-3,77
776,498	-1,9
776,722	-3,94
776,945	-3,58
777,169	-3,7
777,393	-5,48
777,617	-6,21
777,841	-6,18
778,065	-4,11
778,289	-5,79
778,512	-7,11
778,736	-6,74
778,96	-6,19
779,184	-3,47
779,407	-6,02
779,631	-4,89
779,855	-5,43
780,078	-4,45
780,302	-7,29
780,526	-9,97
780,749	-8,34
780,973	-6,65
781,196	-6,26
781,42	-8,25
781,643	-8,07
781,867	-6,95
782,09	-8,62
782,314	-10,01
782,537	-9,98
782,76	-9,91
782,984	-9,37
783,207	-10,88
783,431	-10,87
783,654	-12,72
783,877	-15,59
784,1	-18,01
784,324	-18,34
784,547	-18,47
784,77	-22,02
784,993	-23,4
785,216	-24,68
785,44	-23,26
785,663	-24,38
785,886	-22,8
786,109	-23,77
786,332	-22,75
786,555	-22,38
786,778	-19,89
787,001	-21,04
787,224	-19,16
787,447	-17,96
787,67	-17,53
787,893	-17,74
788,116	-17,62
788,339	-15,14
788,561	-14,74
788,784	-18,66
789,007	-20,21
789,23	-22,04
789,453	-22,01
789,675	-24,45
789,898	-26,29
790,121	-28,01
790,344	-30,33
790,566	-28,1
790,789	-26,85
791,012	-25,16
791,234	-21,33
791,457	-18,04
791,679	-15,77
791,902	-15,95
792,124	-15,34
792,347	-17,7
792,569	-18,33
792,792	-21,38
793,014	-18,79
793,237	-18,22
793,459	-17,51
793,681	-16,87
793,904	-17,48
794,126	-17,88
794,348	-17,37
794,571	-16,47
794,793	-17,01
795,015	-16,65
795,237	-17,12
795,46	-16,8
795,682	-14,84
795,904	-10,82
796,126	-11,29
796,348	-11,27
796,57	-7,09
796,792	-6,83
797,014	-2,52
797,237	0,76
797,459	3,88
797,681	3,59
797,903	2,99
798,124	2,61
798,346	13,54
798,568	13,68
798,79	16,81
799,012	18,05
799,234	20,51
799,456	22,54
799,678	26,18
799,899	24,98
800,121	22,95
800,343	21,71
800,565	21,17
800,786	22,22
801,008	22,76
801,23	22,28
801,451	23,71
801,673	21,1
801,895	19,48
802,116	20,85
802,338	22,24
802,559	21,6
802,781	19,28
803,002	21,15
803,224	23,39
803,445	21,36
803,667	23,78
803,888	21,69
804,109	21,26
804,331	19,04
804,552	19,91
804,773	21,54
804,995	18,18
805,216	2,47
805,437	0,5
805,658	-2,73
805,88	-3,8
806,101	-2,86
806,322	-2,68
806,543	-4,39
806,764	-8,1
806,985	-6,9
807,207	-5,5
807,428	-4,82
807,649	-8,51
807,87	-10,27
808,091	-10,17
808,312	-10,69
808,533	-4,75
808,754	-2,57
808,975	-4,53
809,195	-2,58
809,416	-0,91
809,637	-0,95
809,858	-1,12
810,079	-2,34
810,3	-0,12
810,52	-1,1
810,741	-3,52
810,962	-5,79
811,183	-6,17
811,403	-6,66
811,624	-6,61
811,845	-4,55
812,065	-1,23
812,286	1,23
812,506	2,27
812,727	2,23
812,948	3,19
813,168	4,19
813,389	2,59
813,609	6,26
813,83	5,88
814,05	3,41
814,27	2,83
814,491	8
814,711	8,06
814,931	6
815,152	5,88
815,372	3,09
815,592	1,62
815,813	0,61
816,033	-2,39
816,253	-2,03
816,473	-3,07
816,694	-4,01
816,914	-4,18
817,134	-5,25
817,354	-7,42
817,574	-5,37
817,794	-6,06
818,014	-7,78
818,234	-7,18
818,454	-8,51
818,674	-10,99
818,894	-13,29
819,114	-10,93
819,334	-10,16
819,554	-8,89
819,774	-7,93
819,994	-10,7
820,214	-11,72
820,433	-12,67
820,653	-12,53
820,873	-10,1
821,093	-9,76
821,312	-11,99
821,532	-9,84
821,752	-7,57
821,972	-9,35
822,191	-7,93
822,411	-9,13
822,63	-8
822,85	-6,32
823,07	-8,32
823,289	-6,96
823,509	-6,92
823,728	-4,31
823,948	-6,64
824,167	-7,31
824,387	-7,87
824,606	-5,25
824,825	-5,53
825,045	-6,28
825,264	-6,86
825,483	-4,32
825,703	-2,53
825,922	-5,27
826,141	-7,11
826,361	-8,67
826,58	-12,71
826,799	-14,09
827,018	-12,2
827,237	-11,78
827,456	-10
827,676	-9,29
827,895	-8,43
828,114	-7,07
828,333	-7,44
828,552	-6,66
828,771	-4,83
828,99	-7,25
829,209	-5,23
829,428	-2,38
829,647	-4,1
829,866	-3,33
830,084	-4,33
830,303	-4,73
830,522	-6,4
830,741	-5,28
830,96	-4,02
831,179	-3,38
831,397	-4,96
831,616	-4,39
831,835	-3,36
832,053	-2,68
832,272	-3,89
832,491	-3,73
832,709	-4,24
832,928	-3,73
833,147	-1,22
833,365	-0,76
833,584	3,22
833,802	4,84
834,021	4,16
834,239	4,62
834,458	3,28
834,676	-0,94
834,894	-1,79
835,113	-3,2
835,331	-3,86
835,55	-4,13
835,768	-4,01
835,986	-4,21
836,204	-7,56
836,423	-6,79
836,641	-8,56
836,859	-9,89
837,077	-8,47
837,296	-8,03
837,514	-8,45
837,732	-9,52
837,95	-9,99
838,168	-5,87
838,386	-5,84
838,604	-4,6
838,822	-2,87
839,04	-2,38
839,258	-1,57
839,476	0,36
839,694	0,85
839,912	-1,15
840,13	0,19
840,348	2,08
840,566	-1
840,783	1,34
841,001	-0,41
841,219	-0,26
841,437	1,52
841,655	0,6
841,872	1,49
842,09	0,61
842,308	0,36
842,525	0,64
842,743	1,38
842,961	1,26
843,178	0,2
843,396	4,74
843,613	6,74
843,831	7,48
844,048	6,87
844,266	5,74
844,483	6,43
844,701	4,66
844,918	2,87
845,136	1,77
845,353	-0,06
845,57	-0,34
845,788	1,96
846,005	-0,36
846,222	-2,05
846,439	-1,63
846,657	-1,7
846,874	-2,07
847,091	-4,66
847,308	-1,9
847,526	-3,63
847,743	-3,98
847,96	-5,39
848,177	-5,02
848,394	-4,75
848,611	-6,45
848,828	-6,87
849,045	-7,33
849,262	-7,26
849,479	-7,2
849,696	-8,24
849,913	-10,6
850,13	-15,16
850,347	-12,73
850,564	-13,4
850,78	-15,18
850,997	-15,77
851,214	-15,61
851,431	-14,38
851,647	-17,75
851,864	-15,58
852,081	-13,48
852,298	-17,75
852,514	-19,99
852,731	-17,64
852,948	-15,89
853,164	-14,9
853,381	-14,31
853,597	-14,39
853,814	-16,55
854,03	-19,43
854,247	-18,76
854,463	-18,66
854,68	-19,69
854,896	-19,18
855,113	-18,44
855,329	-16,86
855,545	-14,83
855,762	-16,18
855,978	-18,39
856,194	-20,52
856,411	-16,54
856,627	-13,08
856,843	-12,16
857,059	-10,19
857,275	-11,82
857,492	-10,22
857,708	-6,49
857,924	-7,05
858,14	-4,08
858,356	-4,4
858,572	-4,67
858,788	-6,78
859,004	-4,22
859,22	-5,85
859,436	-5,93
859,652	-6,65
859,868	-7,31
860,084	-8,59
860,3	-8,75
860,516	-7,86
860,731	-7,94
860,947	-10,39
861,163	-8,27
861,379	-6,68
861,595	-5,09
861,81	-3,55
862,026	-4,07
862,242	-4,4
862,457	-4,77
862,673	-4,02
862,889	-4,02
863,104	-5
863,32	-5,58
863,535	-4,7
863,751	-8,88
863,966	-6,23
864,182	-5,23
864,397	-7,06
864,613	-7,97
864,828	-11,09
865,044	-9,73
865,259	-8,08
865,474	-8,53
865,69	-7,51
865,905	-5,87
866,12	-8,86
866,336	-9,88
866,551	-9,1
866,766	-8,88
866,981	-10,14
867,196	-11,17
867,412	-10,12
867,627	-9,33
867,842	-11,73
868,057	-12,07
868,272	-13,02
868,487	-15,12
868,702	-16,51
868,917	-17,11
869,132	-14,69
869,347	-12,79
869,562	-13,29
869,777	-13,54
869,992	-14,36
870,207	-14,04
870,422	-14,86
870,636	-16,02
870,851	-16,5
871,066	-17,33
871,281	-16,7
871,495	-17,03
871,71	-14,37
871,925	-17,97
872,14	-18,04
872,354	-19,3
872,569	-20,56
872,783	-17,83
872,998	-18,09
873,213	-18,89
873,427	-16,53
873,642	-15,16
873,856	-14,97
874,071	-15,48
874,285	-16,7
874,5	-18,06
874,714	-19,8
874,928	-21,69
875,143	-21,73
875,357	-22,15
875,571	-22,79
875,786	-22,11
876	-19,04
876,214	-16,75
876,429	-18,48
876,643	-17,87
876,857	-17,33
877,071	-16,33
877,285	-17,56
877,499	-20,83
877,714	-18,26
877,928	-15,89
878,142	-18,01
878,356	-20,43
878,57	-18,47
878,784	-18,17
878,998	-19,43
879,212	-15,89
879,426	-17,8
879,639	-15,64
879,853	-16,72
880,067	-17,46
880,281	-18,44
880,495	-14,84
880,709	-11,93
880,922	-10,08
881,136	-7,9
881,35	-5,74
881,564	-4,76
881,777	-6,94
881,991	-4,5
882,205	-1,49
882,418	-2,24
882,632	-5,99
882,845	-7,13
883,059	-6,89
883,273	-7,09
883,486	-8,81
883,7	-6,29
883,913	-5,96
884,126	-4,1
884,34	-7,42
884,553	-10,53
884,767	-7,23
884,98	-7,03
885,193	-8,97
885,407	-9,28
885,62	-6,61
885,833	-7,48
886,046	-5,54
886,26	-7,73
886,473	-7,83
886,686	-8,83
886,899	-7,6
887,112	-9,64
887,326	-13,06
887,539	-11,73
887,752	-11,52
887,965	-13,91
888,178	-11,83
888,391	-9,64
888,604	-10,06
888,817	-12,22
889,03	-10,26
889,243	-11,8
889,455	-13,33
889,668	-12,88
889,881	-10,17
890,094	-10,77
890,307	-14,6
890,52	-14,61
890,732	-14,13
890,945	-14,62
891,158	-13,1
891,37	-14,58
891,583	-15,12
891,796	-12,71
892,008	-13,54
892,221	-15,64
892,434	-20,42
892,646	-22,22
892,859	-22,06
893,071	-20,94
893,284	-18,63
893,496	-19,65
893,709	-20,73
893,921	-19,4
894,133	-20,49
894,346	-20,37
894,558	-19,31
894,771	-20,51
894,983	-19,27
895,195	-19,72
895,407	-19,39
895,62	-23,7
895,832	-22,06
896,044	-19,36
896,256	-19,45
896,468	-22,13
896,681	-19,88
896,893	-17,77
897,105	-16,69
897,317	-17,58
897,529	-15,85
897,741	-15,53
897,953	-12,24
898,165	-12,65
898,377	-15,09
898,589	-13,57
898,801	-14,06
899,013	-10,74
899,224	-7,82
899,436	-5,99
899,648	-7,6
899,86	-10,19
900,072	-7,94
900,283	-6,01
900,495	-3,94
900,707	-4,07
900,919	-6,37
901,13	-4,11
901,342	-6,37
901,554	-7,91
901,765	-6,95
901,977	-9,21
902,188	-8,84
902,4	-10,01
902,611	-11,82
902,823	-14,62
903,034	-16,72
903,246	-18,87
903,457	-20,52
903,669	-22,52
903,88	-22,44
904,091	-20,88
904,303	-20,5
904,514	-22,07
904,725	-19,48
904,936	-18,33
905,148	-17,67
905,359	-15,92
905,57	-15,49
905,781	-18,17
905,992	-18,96
906,204	-17,23
906,415	-16,61
906,626	-18,37
906,837	-15,94
907,048	-17,38
907,259	-17,24
907,47	-18,33
907,681	-20,18
907,892	-16,86
908,103	-16,89
908,314	-18,61
908,525	-15,52
908,735	-15,46
908,946	-15,83
909,157	-17,05
909,368	-13,42
909,579	-10,42
909,789	-11,11
910	-10,91
910,211	-8,55
910,421	-9,38
910,632	-9,16
910,843	-11,05
911,053	-8,14
911,264	-5,06
911,475	-6,3
911,685	-6,69
911,896	-5,24
912,106	-4,98
912,317	-5,26
912,527	-4,6
912,737	-6,04
912,948	-5,59
913,158	-4,81
913,369	-8,58
913,579	-6,8
913,789	-7,01
914	-2,79
914,21	-3,38
914,42	-3,85
914,63	-4,49
914,841	-4,48
915,051	-3,82
915,261	-2,84
915,471	-0,41
915,681	-0,08
915,891	-0,14
916,101	-2,79
916,311	-2,7
916,521	-1,26
916,731	0,52
916,941	3,2
917,151	1,12
917,361	3,47
917,571	-0,48
917,781	-4,24
917,991	-5,26
918,201	-5,61
918,411	-8,94
918,621	-10,05
918,83	-9,97
919,04	-11,24
919,25	-7,46
919,46	-5,11
919,669	-6,85
919,879	-6,87
920,089	-9,06
920,298	-10,09
920,508	-10,73
920,717	-8,19
920,927	-10,83
921,136	-9,73
921,346	-10,82
921,555	-13,91
921,765	-13,52
921,974	-15,86
922,184	-18,44
922,393	-18,39
922,603	-18,82
922,812	-16,71
923,021	-18,08
923,23	-20,32
923,44	-23,22
923,649	-23,08
923,858	-23,56
924,067	-24,33
924,277	-26,19
924,486	-23,55
924,695	-23,31
924,904	-20,28
925,113	-19,48
925,322	-17,79
925,531	-16,32
925,74	-20,2
925,949	-22,32
926,158	-19,83
926,367	-19,78
926,576	-18,16
926,785	-17,81
926,994	-19,09
927,203	-19,71
927,412	-18,96
927,621	-20,12
927,83	-17,13
928,038	-17,74
928,247	-18,66
928,456	-17,37
928,665	-14,29
928,873	-12,51
929,082	-9,01
929,291	-8,61
929,499	-7,33
929,708	-8,94
929,916	-7,57
930,125	-7,84
930,333	-9,71
930,542	-6,34
930,75	-2,62
930,959	-3,15
931,167	-4,72
931,376	-5,5
931,584	-4,73
931,793	-3,89
932,001	-4,42
932,209	-5,59
932,418	-7,25
932,626	-9,63
932,834	-11,47
933,042	-15,41
933,251	-15,39
933,459	-15,23
933,667	-15,16
933,875	-14,63
934,083	-12,03
934,291	-12,41
934,499	-10,13
934,707	-10,68
934,915	-11,87
935,123	-9,62
935,331	-11,18
935,539	-14,18
935,747	-17,22
935,955	-17,89
936,163	-17,3
936,371	-17,49
936,579	-15,82
936,787	-15,29
936,995	-17,51
937,202	-19,81
937,41	-18,91
937,618	-18,22
937,826	-18,01
938,033	-22,5
938,241	-25,49
938,449	-24,37
938,656	-21,27
938,864	-22,18
939,071	-22,3
939,279	-18,8
939,486	-15,38
939,694	-15,64
939,901	-18,14
940,109	-18,34
940,316	-18,66
940,524	-20,59
940,731	-20,45
940,939	-19,79
941,146	-20
941,353	-19,88
941,561	-20,81
941,768	-22,02
941,975	-20,85
942,182	-19,49
942,39	-18,6
942,597	-15,85
942,804	-16,18
943,011	-16,58
943,218	-14,48
943,425	-14,03
943,632	-12,67
943,839	-13,77
944,046	-14,28
944,253	-13,55
944,46	-11,68
944,667	-8,97
944,874	-8,78
945,081	-6,92
945,288	-4,45
945,495	-1,8
945,702	-1,66
945,909	-4,74
946,115	-3,9
946,322	-3,47
946,529	-5,46
946,736	-5,06
946,942	-3,38
947,149	-5,1
947,356	-7,13
947,562	-8,58
947,769	-8,55
947,976	-9,27
948,182	-8,35
948,389	-8,92
948,595	-8,95
948,802	-9,09
949,008	-10,61
949,215	-8,58
949,421	-8,84
949,628	-11,53
949,834	-11,14
950,04	-12,58
950,247	-8,58
950,453	-6,91
950,659	-10,67
950,865	-9,06
951,072	-12,43
951,278	-11,3
951,484	-13,72
951,69	-17,46
951,896	-18,92
952,103	-20,46
952,309	-17,49
952,515	-18,13
952,721	-15,76
952,927	-13,61
953,133	-15,51
953,339	-17,02
953,545	-17,16
953,751	-15,57
953,957	-12,05
954,163	-14,37
954,369	-14,78
954,574	-16,09
954,78	-15,57
954,986	-14,47
955,192	-12,72
955,398	-13,33
955,603	-16,55
955,809	-15,74
956,015	-13,75
956,22	-13,5
956,426	-13,26
956,632	-17,18
956,837	-17,97
957,043	-15,96
957,248	-15,55
957,454	-13,58
957,66	-15,59
957,865	-17,36
958,07	-14,97
958,276	-16,86
958,481	-18,74
958,687	-20,48
958,892	-19,77
959,097	-19,82
959,303	-20,83
959,508	-20,52
959,713	-20,51
959,919	-20,83
960,124	-22,16
960,329	-22,2
960,534	-17,81
960,739	-15,99
960,945	-13,96
961,15	-14,62
961,355	-15,48
961,56	-19,6
961,765	-21,28
961,97	-20,51
962,175	-19,66
962,38	-23,93
962,585	-23,26
962,79	-24,7
962,995	-25,49
963,2	-27,29
963,404	-27,18
963,609	-32,05
963,814	-33,83
964,019	-36,68
964,224	-37,61
964,428	-35,63
964,633	-34,08
964,838	-32,52
965,042	-33,22
965,247	-35,36
965,452	-36,04
965,656	-34,27
965,861	-33,69
966,066	-35,13
966,27	-31,95
966,475	-27,34
966,679	-32,42
966,884	-32,12
967,088	-34,35
967,292	-35,73
967,497	-34,25
967,701	-34,77
967,906	-33,54
968,11	-29,65
968,314	-24,65
968,518	-25,26
968,723	-21,61
968,927	-20,43
969,131	-18,52
969,335	-15,22
969,539	-13,46
969,744	-12,67
969,948	-7,4
970,152	-6,54
970,356	-5,2
970,56	-4,47
970,764	-6,49
970,968	-2,75
971,172	-2,12
971,376	-1,15
971,58	0,69
971,784	1,13
971,988	-0,6
972,192	1,99
972,395	2,09
972,599	-0,74
972,803	-3,22
973,007	0,54
973,21	1,06
973,414	0,72
973,618	0,64
973,822	-0,27
974,025	0,33
974,229	0,75
974,432	-4,87
974,636	-7,12
974,84	-6,3
975,043	-7,67
975,247	-10,01
975,45	-11
975,654	-10,94
975,857	-10,06
976,06	-9,81
976,264	-11,43
976,467	-9,3
976,671	-10,09
976,874	-8,51
977,077	-9,81
977,28	-12,49
977,484	-14,84
977,687	-14,78
977,89	-12,81
978,093	-12,49
978,297	-11,82
978,5	-14,57
978,703	-13,53
978,906	-12,55
979,109	-12,71
979,312	-10,91
979,515	-12,95
979,718	-13,68
979,921	-13,03
980,124	-14,12
980,327	-14,29
980,53	-14,51
980,733	-10,86
980,936	-9,93
981,138	-10,36
981,341	-8,45
981,544	-7,85
981,747	-8,59
981,949	-10,49
982,152	-10,27
982,355	-11,94
982,558	-8,72
982,76	-11,65
982,963	-10,47
983,165	-10,38
983,368	-9,29
983,571	-10,43
983,773	-6,3
983,976	-6,82
984,178	-7,09
984,381	-7,64
984,583	-9,41
984,785	-9,13
984,988	-6,1
985,19	-4,74
985,392	-7,06
985,595	-10,85
985,797	-11,2
985,999	-8,38
986,202	-6,45
986,404	-7,09
986,606	-4,83
986,808	-5,71
987,01	-4,11
987,212	-4,99
987,415	-8,99
987,617	-9,4
987,819	-10,77
988,021	-9,32
988,223	-10,76
988,425	-10,78
988,627	-10,91
988,829	-16,1
989,031	-13,98
989,232	-14,92
989,434	-13,38
989,636	-13,4
989,838	-12,9
990,04	-12,57
990,242	-12,92
990,443	-14,35
990,645	-12,72
990,847	-10,43
991,048	-9,24
991,25	-12,2
991,452	-13,97
991,653	-14,09
991,855	-13,23
992,057	-13,7
992,258	-12,79
992,46	-13,8
992,661	-12,23
992,863	-13,49
993,064	-12,05
993,265	-13,81
993,467	-16,07
993,668	-12,17
993,87	-11,03
994,071	-10,6
994,272	-11,11
994,473	-9,09
994,675	-8,45
994,876	-7,46
995,077	-6,7
995,278	-6,66
995,48	-5,5
995,681	-8
995,882	-5,95
996,083	-5,74
996,284	-10,12
996,485	-9,13
996,686	-11,31
996,887	-12,17
997,088	-15,38
997,289	-17,23
997,49	-16,81
997,691	-15,22
997,892	-14,67
998,092	-10,79
998,293	-10,6
998,494	-11,97
998,695	-12,73
998,896	-11,24
999,096	-12,5
999,297	-12,15
999,498	-13,74
999,698	-16,12
999,899	-18,53
1000,1	-21,27
1000,3	-20,68
1000,501	-21,14
1000,701	-21,16
1000,902	-22,33
1001,102	-22,06
1001,303	-19,97
1001,503	-22,71
1001,704	-23,17
1001,904	-23,5
1002,105	-25,36
1002,305	-25,08
1002,505	-25,04
1002,706	-25,6
1002,906	-24,91
1003,106	-25,91
1003,306	-25,74
1003,507	-23,47
1003,707	-24,26
1003,907	-23,53
1004,107	-22,55
1004,307	-24,74
1004,507	-22,66
1004,707	-24,19
1004,907	-25,85
1005,107	-27,05
1005,308	-25,36
1005,507	-26,67
1005,707	-23,33
1005,907	-21,54
1006,107	-19,22
1006,307	-19,36
1006,507	-20,04
1006,707	-19,6
1006,907	-19,2
1007,106	-20,15
1007,306	-20,8
1007,506	-21,54
1007,706	-20,92
1007,905	-23
1008,105	-21,73
1008,305	-21,18
1008,504	-20,93
1008,704	-15,66
1008,903	-15,05
1009,103	-12,99
1009,303	-14,45
1009,502	-12,28
1009,702	-13,17
1009,901	-12,66
1010,1	-15,03
1010,3	-12,67
1010,499	-14,31
1010,699	-16,52
1010,898	-16,45
1011,097	-15,07
1011,296	-14,22
1011,496	-16,39
1011,695	-17,16
1011,894	-19,96
1012,093	-17,75
1012,293	-17,85
1012,492	-15,79
1012,691	-15,84
1012,89	-15,84
1013,089	-19,42
1013,288	-17,77
1013,487	-17,12
1013,686	-16,9
1013,885	-17,04
1014,084	-15,04
1014,283	-17,14
1014,482	-17,33
1014,681	-18,07
1014,88	-22,75
1015,078	-21,08
1015,277	-22,66
1015,476	-23,4
1015,675	-23,99
1015,873	-24,05
1016,072	-25,59
1016,271	-22,04
1016,47	-26,69
1016,668	-25,07
1016,867	-25,76
1017,065	-27,4
1017,264	-28,68
1017,463	-29,59
1017,661	-29,33
1017,86	-29,55
1018,058	-28,25
1018,256	-30,37
1018,455	-32,62
1018,653	-33,45
1018,852	-31,78
1019,05	-33
1019,248	-32,73
1019,447	-34,33
1019,645	-35,54
1019,843	-37,16
1020,041	-36,21
1020,24	-36,95
1020,438	-31,71
1020,636	-32,21
1020,834	-34,35
1021,032	-31,76
1021,23	-34,37
1021,428	-33,51
1021,626	-28,9
1021,824	-27,73
1022,022	-29,09
1022,22	-26,09
1022,418	-25,51
1022,616	-25,97
1022,814	-26,41
1023,012	-25,25
1023,21	-22,65
1023,408	-22,19
1023,606	-22,65
1023,803	-16,43
1024,001	-14,97
1024,199	-17,72
1024,397	-15,4
1024,594	-13,6
1024,792	-14,46
1024,99	-14,78
1025,187	-14,24
1025,385	-9,85
1025,582	-9,05
1025,78	-9,67
1025,977	-8,21
1026,175	-8,37
1026,372	-7,08
1026,57	-9,99
1026,767	-8,18
1026,965	-7,52
1027,162	-7,61
1027,359	-6,7
1027,557	-6,06
1027,754	-10,32
1027,951	-11,85
1028,148	-9,4
1028,346	-11,96
1028,543	-15,4
1028,74	-16,2
1028,937	-19,19
1029,134	-19,86
1029,331	-21,81
1029,528	-21,16
1029,725	-22,31
1029,923	-26,85
1030,12	-23,3
1030,317	-21,09
1030,513	-19,79
1030,71	-19,32
1030,907	-16,81
1031,104	-17,49
1031,301	-19,28
1031,498	-19,54
1031,695	-19,78
1031,892	-18,26
1032,088	-19,19
1032,285	-19,8
1032,482	-21,41
1032,678	-23,99
1032,875	-25,29
1033,072	-25,28
1033,268	-25,77
1033,465	-27,35
1033,662	-29,07
1033,858	-27,69
1034,055	-28,04
1034,251	-26,14
1034,448	-26,29
1034,644	-25,85
1034,84	-22,41
1035,037	-20,03
1035,233	-20,35
1035,43	-18,19
1035,626	-19,02
1035,822	-16,72
1036,019	-17,8
1036,215	-22,03
1036,411	-23,33
1036,607	-25,56
1036,803	-29,34
1037	-30,51
1037,196	-31,79
1037,392	-30,9
1037,588	-34,14
1037,784	-33,32
1037,98	-34,06
1038,176	-32,47
1038,372	-32,56
1038,568	-29,85
1038,764	-27,27
1038,96	-25,55
1039,156	-25,8
1039,352	-26,31
1039,547	-22,96
1039,743	-22,58
1039,939	-20,61
1040,135	-20,59
1040,331	-22,43
1040,526	-19,61
1040,722	-21,42
1040,918	-22,46
1041,113	-23,73
1041,309	-23,9
1041,505	-26,68
1041,7	-25,69
1041,896	-26,6
1042,091	-26,4
1042,287	-25,79
1042,482	-24,4
1042,678	-24,69
1042,873	-22,02
1043,069	-22,66
1043,264	-21,53
1043,459	-20,34
1043,655	-18,33
1043,85	-19,23
1044,045	-18,25
1044,24	-19,24
1044,436	-17,68
1044,631	-20,62
1044,826	-22,35
1045,021	-25,5
1045,216	-23,68
