Data from FLMT021711__10__18-14-47-688.txt Node

Date: Tue Nov 05 18:14:47 CET 2024
User: Etudiants TP
Spectrometer: FLMT02171
Trigger mode: 0
Integration Time (sec): 1,000000E-1
Scans to average: 5
Electric dark correction enabled: true
Nonlinearity correction enabled: false
Boxcar width: 15
XAxis mode: Wavelengths
Number of Pixels in Spectrum: 3648
>>>>>Begin Spectral Data<<<<<
194,658	-59,06
194,923	-57,4
195,188	-48,85
195,453	-50,47
195,717	-43,81
195,982	-42,86
196,247	-39,97
196,512	-42,26
196,777	-40,41
197,042	-39,72
197,307	-40,24
197,572	-34,54
197,837	-34,37
198,101	-32,28
198,366	-31,01
198,631	-29,41
198,896	-23,88
199,161	-17,06
199,425	-8,69
199,69	1,74
199,955	0,34
200,22	-2,53
200,484	-3,18
200,749	-4,49
201,014	-3,02
201,278	-2,19
201,543	-0,83
201,807	-0,86
202,072	0,35
202,337	0,71
202,601	-1,34
202,866	-3,11
203,13	-0,53
203,395	-3,21
203,659	-2,24
203,924	-5,31
204,189	-4,59
204,453	-4,04
204,717	-2,01
204,982	-1,49
205,246	1,21
205,511	4,19
205,775	2,42
206,04	7,99
206,304	8,38
206,568	11,01
206,833	11,6
207,097	12,28
207,361	13,62
207,626	15,81
207,89	16,26
208,154	16,16
208,419	18,13
208,683	18,58
208,947	21,54
209,211	21,36
209,476	20,4
209,74	19,94
210,004	20,28
210,268	20,47
210,532	23,59
210,796	25,28
211,061	26,39
211,325	26,5
211,589	24,57
211,853	25,63
212,117	27,05
212,381	28,14
212,645	28,52
212,909	30,25
213,173	28,66
213,437	28,33
213,701	27,83
213,965	28,92
214,229	23,88
214,493	23,79
214,757	22,92
215,021	21,97
215,285	27,1
215,549	29,87
215,813	27,45
216,077	26,66
216,34	29,43
216,604	29,3
216,868	28,95
217,132	29,32
217,396	28,9
217,659	30,18
217,923	27,12
218,187	27,64
218,451	27,22
218,714	25,13
218,978	25,39
219,242	26,6
219,505	25,91
219,769	28
220,033	28,59
220,296	30,18
220,56	29,73
220,824	27,41
221,087	26,54
221,351	26,32
221,614	25,84
221,878	28,68
222,142	26,8
222,405	27,02
222,669	30,22
222,932	27,83
223,196	26
223,459	22,15
223,722	22,9
223,986	21,1
224,249	19,09
224,513	19,62
224,776	20,15
225,04	20,22
225,303	20,24
225,566	20,08
225,83	20,5
226,093	24,79
226,356	21,87
226,62	20,18
226,883	20,94
227,146	21,34
227,409	20,47
227,673	19,77
227,936	18,79
228,199	20,03
228,462	17,38
228,725	16,6
228,989	15,77
229,252	17,75
229,515	22,95
229,778	22,3
230,041	19,22
230,304	17,49
230,567	18,71
230,83	15,93
231,093	17,34
231,356	18,06
231,619	24,47
231,882	22,18
232,145	25,25
232,408	25,66
232,671	23,62
232,934	23,25
233,197	21,4
233,46	19,53
233,723	21,08
233,986	20,51
234,249	17,19
234,512	20,18
234,775	23,71
235,037	22,21
235,3	22,69
235,563	23,18
235,826	22,29
236,089	24,67
236,351	23,68
236,614	26,15
236,877	26,96
237,14	29,89
237,402	28,75
237,665	22,64
237,928	21,57
238,19	19,79
238,453	21,43
238,716	19
238,978	18,91
239,241	17,31
239,503	19,85
239,766	13,89
240,029	12,46
240,291	14,99
240,554	15,35
240,816	14,62
241,079	14,95
241,341	15,33
241,604	14,47
241,866	11,19
242,129	11,77
242,391	15,72
242,653	14,18
242,916	14,04
243,178	15,03
243,441	15,16
243,703	14,19
243,965	12,99
244,228	12,73
244,49	12,59
244,752	11,83
245,015	12,79
245,277	15,47
245,539	13,63
245,801	14,45
246,064	14,38
246,326	13,7
246,588	14,65
246,85	17,94
247,112	17,94
247,374	21,01
247,637	22,54
247,899	23,5
248,161	24,01
248,423	19,75
248,685	19,11
248,947	19,7
249,209	19,09
249,471	20,54
249,733	21,11
249,995	20,54
250,257	20,04
250,519	17,49
250,781	21,21
251,043	18,47
251,305	19,06
251,567	20,94
251,829	21,75
252,091	22,49
252,353	19,17
252,615	17,98
252,876	16,37
253,138	14,03
253,4	9,32
253,662	11,8
253,924	14,72
254,185	15,84
254,447	16,77
254,709	15,1
254,971	16,15
255,232	18,24
255,494	16,78
255,756	15,14
256,017	15,5
256,279	16,63
256,541	16,88
256,802	17,44
257,064	17,75
257,326	17,81
257,587	18,87
257,849	21,83
258,11	24,97
258,372	25,72
258,633	25,74
258,895	24,57
259,156	24
259,418	23,51
259,679	19,59
259,941	17,85
260,202	20,33
260,464	22,72
260,725	23,25
260,987	22,47
261,248	22,61
261,509	23,27
261,771	21,07
262,032	22,46
262,293	22,76
262,555	22,64
262,816	21,35
263,077	19,19
263,338	16,8
263,6	16,27
263,861	15,53
264,122	14,29
264,383	14,87
264,645	15,49
264,906	14,84
265,167	15,04
265,428	14,47
265,689	15,49
265,95	12,8
266,211	14,24
266,473	12,55
266,734	8,72
266,995	4,84
267,256	6,54
267,517	8,15
267,778	11,08
268,039	11,94
268,3	10,28
268,561	7,94
268,822	11,04
269,083	9,55
269,344	6,73
269,604	6,21
269,865	7,24
270,126	3,64
270,387	3,15
270,648	4,2
270,909	4,67
271,17	3,64
271,43	-0,46
271,691	-2,42
271,952	-4,48
272,213	-3,67
272,473	-5,88
272,734	-4,58
272,995	-3,59
273,256	-3,47
273,516	-0,87
273,777	-4,02
274,038	-2,41
274,298	-5,67
274,559	-5,56
274,82	1,05
275,08	4,27
275,341	5,08
275,601	3,85
275,862	2
276,122	3,77
276,383	3,99
276,643	5,19
276,904	3,21
277,164	8,15
277,425	9,81
277,685	14,46
277,946	14,58
278,206	14,87
278,467	17,12
278,727	17,75
278,987	17,37
279,248	16,97
279,508	19,6
279,768	21,16
280,029	23,71
280,289	21,95
280,549	21,54
280,81	21,36
281,07	21,68
281,33	24,13
281,59	22,36
281,851	23,87
282,111	22,66
282,371	23,53
282,631	25,33
282,891	23,27
283,151	21,63
283,412	19,19
283,672	19,27
283,932	19,54
284,192	19,9
284,452	17,29
284,712	15,51
284,972	14,74
285,232	11,01
285,492	13,18
285,752	11,07
286,012	17,49
286,272	19,23
286,532	16,72
286,792	16,41
287,052	17,14
287,312	17,58
287,571	17,74
287,831	18,28
288,091	14,71
288,351	15,69
288,611	19,89
288,871	18,74
289,13	17,28
289,39	13,83
289,65	13,54
289,91	11,08
290,17	14,11
290,429	15,59
290,689	12,92
290,949	9,58
291,208	11,43
291,468	16,17
291,728	17,34
291,987	20,15
292,247	17,85
292,506	20,82
292,766	24,13
293,026	22,22
293,285	24,69
293,545	27,57
293,804	25,77
294,064	21,67
294,323	20,05
294,583	21,23
294,842	21,09
295,102	22,63
295,361	23,64
295,621	23,56
295,88	23,57
296,139	24,52
296,399	24,97
296,658	18,78
296,917	19,12
297,177	17,44
297,436	17,74
297,695	15,96
297,955	17,66
298,214	15,99
298,473	17,33
298,732	20,3
298,992	23,01
299,251	21,95
299,51	16,65
299,769	17,23
300,028	15,42
300,287	16,43
300,547	16,53
300,806	13,85
301,065	17,84
301,324	18,04
301,583	13,66
301,842	11,81
302,101	9,06
302,36	9,95
302,619	8,63
302,878	10,68
303,137	7,87
303,396	8,75
303,655	11,74
303,914	9,65
304,173	10,6
304,432	9,85
304,691	14,61
304,95	12,51
305,208	17,47
305,467	17,37
305,726	18,02
305,985	19,1
306,244	19,82
306,503	18,5
306,761	16,78
307,02	14,18
307,279	15,42
307,537	17,53
307,796	14,11
308,055	11,95
308,314	13,29
308,572	10,9
308,831	12,3
309,09	11,56
309,348	12,67
309,607	13,25
309,865	16,18
310,124	15,94
310,382	17,04
310,641	18,18
310,9	15,47
311,158	18,6
311,417	17,89
311,675	17,79
311,933	19,22
312,192	19,91
312,45	19,47
312,709	18,14
312,967	17,31
313,226	16,61
313,484	16,65
313,742	15,2
314,001	13,55
314,259	13,06
314,517	14,13
314,776	15,2
315,034	18,02
315,292	15,52
315,55	13,17
315,809	13,09
316,067	13,7
316,325	11,6
316,583	13,85
316,841	13,74
317,1	11,16
317,358	7,25
317,616	6,82
317,874	5,94
318,132	6,1
318,39	6,99
318,648	6,79
318,906	7,43
319,164	4,76
319,422	3,36
319,68	1,15
319,938	0,61
320,196	0,48
320,454	2,64
320,712	2,03
320,97	3,32
321,228	0,55
321,486	3,71
321,744	6,8
322,002	9,56
322,26	6,75
322,517	6,12
322,775	3,34
323,033	2,07
323,291	3,97
323,549	6,62
323,806	9,16
324,064	9,36
324,322	10,67
324,58	8,51
324,837	9,63
325,095	8,77
325,353	10,53
325,61	11,94
325,868	11,46
326,126	13,5
326,383	10,94
326,641	8,04
326,898	9,23
327,156	10,38
327,413	11,04
327,671	10,77
327,928	13,16
328,186	13,31
328,443	10,36
328,701	15,12
328,958	16,22
329,216	17,65
329,473	15,49
329,731	13,94
329,988	13,28
330,245	16,27
330,503	17,31
330,76	19,19
331,017	20,99
331,275	19,01
331,532	17,67
331,789	14,12
332,047	15,05
332,304	11,22
332,561	12,62
332,818	11,9
333,076	13,75
333,333	15,79
333,59	16,41
333,847	18,67
334,104	16,84
334,361	15,74
334,618	14,91
334,876	11,13
335,133	10,33
335,39	8,96
335,647	11,5
335,904	8,29
336,161	6,54
336,418	7,13
336,675	2,91
336,932	4,25
337,189	3,76
337,446	3,77
337,703	4,07
337,96	1,11
338,216	1,6
338,473	-1,58
338,73	-1,28
338,987	-1,78
339,244	2,01
339,501	0,46
339,757	3,28
340,014	3,88
340,271	6,38
340,528	8,15
340,785	11,99
341,041	14,26
341,298	11,25
341,555	9,23
341,811	8,3
342,068	6,34
342,325	7,24
342,581	12,79
342,838	15,39
343,094	17,18
343,351	18,1
343,608	14,93
343,864	17,45
344,121	19,14
344,377	19,61
344,634	18,69
344,89	16,68
345,147	16,16
345,403	15,13
345,66	15,81
345,916	18,07
346,172	15,89
346,429	16,06
346,685	13,62
346,942	14,3
347,198	9,28
347,454	10,75
347,711	9,35
347,967	6,27
348,223	6,9
348,48	5,7
348,736	9,32
348,992	7,63
349,248	11,29
349,504	12,76
349,761	12,92
350,017	13,54
350,273	13,67
350,529	11,4
350,785	11,55
351,041	10,28
351,297	11,53
351,554	9,18
351,81	7,37
352,066	5,54
352,322	5,67
352,578	6,77
352,834	7,5
353,09	7,35
353,346	7,11
353,602	5
353,858	3,08
354,114	3,33
354,369	5,23
354,625	8,01
354,881	5,34
355,137	9,3
355,393	10,32
355,649	11,67
355,905	12,06
356,16	12,49
356,416	13,17
356,672	4,99
356,928	5,44
357,183	4,03
357,439	4,1
357,695	1,44
357,951	6,95
358,206	6,32
358,462	6,48
358,718	4,54
358,973	5,54
359,229	5,58
359,484	7,76
359,74	10,73
359,996	11,45
360,251	14,51
360,507	13,28
360,762	12,49
361,018	15,05
361,273	14,06
361,529	16,47
361,784	18,04
362,04	19,2
362,295	18,75
362,55	20,17
362,806	23,4
363,061	22,44
363,316	23,15
363,572	22,72
363,827	25,94
364,082	22,88
364,338	22,62
364,593	22,8
364,848	23,53
365,104	21,62
365,359	23,58
365,614	24,84
365,869	20,66
366,124	21,04
366,38	20,05
366,635	21,57
366,89	21,51
367,145	21,25
367,4	24,62
367,655	24,17
367,91	24,63
368,165	22,57
368,42	20,54
368,675	20,48
368,93	20,13
369,185	18,17
369,44	17,38
369,695	19,32
369,95	18,77
370,205	17,67
370,46	16,04
370,715	15,05
370,97	16,15
371,225	14,9
371,48	15,69
371,734	15,14
371,989	15,56
372,244	15,66
372,499	18,05
372,754	16,04
373,008	13,89
373,263	9,58
373,518	12,75
373,773	11,57
374,027	10,67
374,282	13,27
374,537	13,83
374,791	15,2
375,046	13,76
375,301	11,33
375,555	8,2
375,81	9,46
376,064	10,02
376,319	12,68
376,573	11,33
376,828	7,09
377,082	12,3
377,337	9,33
377,591	4,8
377,846	5,87
378,1	7,59
378,355	8
378,609	7,72
378,863	5,41
379,118	6,89
379,372	5,49
379,627	3,6
379,881	3,21
380,135	2,18
380,389	1,63
380,644	3,32
380,898	4,92
381,152	6,36
381,407	4,28
381,661	6,64
381,915	8,6
382,169	8
382,423	7,43
382,677	4,46
382,932	5,97
383,186	6,96
383,44	8,06
383,694	10,5
383,948	8,75
384,202	8,5
384,456	12,82
384,71	16,63
384,964	14,34
385,218	17,81
385,472	18,82
385,726	16,45
385,98	16,72
386,234	15,13
386,488	11,93
386,742	12,13
386,996	9,18
387,249	10,52
387,503	12,13
387,757	13,68
388,011	15,39
388,265	15,5
388,518	16,19
388,772	17,36
389,026	18,69
389,28	16,7
389,533	15,55
389,787	17,5
390,041	14,74
390,295	15,04
390,548	14,87
390,802	18,11
391,055	18,57
391,309	18,52
391,563	16,18
391,816	17,47
392,07	17,02
392,323	16,65
392,577	16,77
392,83	18,87
393,084	23,87
393,337	27,77
393,591	29,08
393,844	28,49
394,098	33,85
394,351	37,11
394,604	39,51
394,858	41,13
395,111	41,59
395,364	38,32
395,618	40,22
395,871	38,41
396,124	37,82
396,378	36,48
396,631	36,73
396,884	34
397,137	35,24
397,391	36,42
397,644	32,76
397,897	33,97
398,15	34,6
398,403	38,06
398,657	36,09
398,91	33,9
399,163	34,31
399,416	34,1
399,669	33,63
399,922	33,06
400,175	31,63
400,428	31,44
400,681	32,86
400,934	31,33
401,187	33,97
401,44	38,37
401,693	39,28
401,946	36,69
402,199	34,14
402,452	33,49
402,704	32,05
402,957	31,17
403,21	34,42
403,463	33,52
403,716	34,38
403,969	35,7
404,221	35,62
404,474	38,4
404,727	42,97
404,98	44,65
405,232	44,99
405,485	46,3
405,738	49,04
405,99	49,77
406,243	49,42
406,496	51,36
406,748	52,08
407,001	51,97
407,253	52,35
407,506	51,47
407,759	52,07
408,011	48,88
408,264	47,95
408,516	45,66
408,769	39,6
409,021	36,66
409,274	31,7
409,526	31,33
409,778	28,89
410,031	31,92
410,283	30,18
410,536	35,5
410,788	34,03
411,04	33,26
411,293	34,19
411,545	33,93
411,797	32,31
412,049	31,35
412,302	30,32
412,554	29,9
412,806	28,49
413,058	26,32
413,311	27,01
413,563	24,63
413,815	23,91
414,067	22,24
414,319	20,32
414,571	21,2
414,823	19,26
415,075	18,36
415,328	19,31
415,58	21,92
415,832	23,51
416,084	24,95
416,336	23,05
416,588	28,25
416,84	26,34
417,091	29,36
417,343	26,09
417,595	28,18
417,847	28,66
418,099	31,51
418,351	29,88
418,603	32,83
418,855	34,26
419,106	35,79
419,358	36,04
419,61	36,01
419,862	37,58
420,114	35,31
420,365	34,64
420,617	34,2
420,869	33,21
421,12	33,07
421,372	34,27
421,624	33,17
421,875	33,49
422,127	30,45
422,379	30,13
422,63	33,08
422,882	31,01
423,133	31,42
423,385	30,68
423,636	32,94
423,888	34,08
424,139	36,9
424,391	31,99
424,642	31,34
424,894	29,72
425,145	29,52
425,396	26,77
425,648	27,77
425,899	24,31
426,151	24,46
426,402	22,45
426,653	22,1
426,905	19,3
427,156	17,66
427,407	16,98
427,658	16,43
427,91	16,06
428,161	15,46
428,412	17,54
428,663	20,09
428,914	20,39
429,166	22,7
429,417	24,07
429,668	21,67
429,919	19,57
430,17	18,92
430,421	17,61
430,672	21,45
430,923	20,59
431,174	20,45
431,425	21,29
431,676	25,39
431,927	27,79
432,178	38,27
432,429	46,98
432,68	54,48
432,931	65,74
433,182	73,91
433,433	75,29
433,683	79,21
433,934	79,27
434,185	79,39
434,436	77,89
434,687	80,13
434,937	81,86
435,188	80,07
435,439	79,11
435,69	79,44
435,94	77,67
436,191	77,1
436,442	75,78
436,692	74,12
436,943	70,35
437,194	68,9
437,444	71,29
437,695	75,94
437,945	76,85
438,196	76,27
438,447	73,63
438,697	72,21
438,948	70,73
439,198	66,65
439,449	57,39
439,699	52,62
439,949	43,87
440,2	34,24
440,45	27,04
440,701	17,16
440,951	10,73
441,201	7,38
441,452	3,96
441,702	1,54
441,952	1,48
442,203	1,99
442,453	-1,74
442,703	-0,48
442,953	1,7
443,204	2,44
443,454	0,77
443,704	2,24
443,954	-1,24
444,204	-1,38
444,455	0,5
444,705	1,89
444,955	1,38
445,205	1,49
445,455	-1,86
445,705	-2,78
445,955	-2,73
446,205	-2,08
446,455	-0,68
446,705	0,23
446,955	0,74
447,205	2,81
447,455	5,06
447,705	3,67
447,955	1,99
448,205	1,91
448,454	2,65
448,704	4,73
448,954	3,15
449,204	3,8
449,454	3,51
449,704	1,86
449,953	1,58
450,203	3,56
450,453	0,81
450,703	2,38
450,952	1,01
451,202	1,02
451,452	-0,01
451,701	2,69
451,951	6,09
452,201	3,97
452,45	2,39
452,7	2,99
452,949	2,3
453,199	2,16
453,448	3,8
453,698	3,96
453,947	2,22
454,197	1,81
454,446	0,58
454,696	3,26
454,945	1,36
455,195	-1,27
455,444	-0,95
455,693	2,57
455,943	0,5
456,192	1,27
456,442	0,77
456,691	1,18
456,94	0,06
457,189	-0,15
457,439	2,19
457,688	3,46
457,937	3,41
458,186	3,46
458,436	2,72
458,685	4,73
458,934	5,34
459,183	5,13
459,432	8,7
459,681	8,21
459,93	8,84
460,179	8,69
460,429	7,15
460,678	10,24
460,927	13,37
461,176	12,37
461,425	12,17
461,674	15,48
461,923	15,92
462,172	16,04
462,42	13,54
462,669	17,23
462,918	18,26
463,167	17,89
463,416	17,72
463,665	18,51
463,914	18,33
464,162	16,44
464,411	18,04
464,66	20,26
464,909	18,95
465,158	19,08
465,406	18,83
465,655	19,65
465,904	21,9
466,152	22,67
466,401	22,97
466,65	24,04
466,898	22,48
467,147	18,33
467,395	17,11
467,644	17,99
467,893	16,98
468,141	18,58
468,39	15,64
468,638	12,08
468,887	10,35
469,135	9,91
469,384	10,13
469,632	10,58
469,88	10
470,129	12,59
470,377	10,18
470,626	12,38
470,874	14,7
471,122	14,39
471,371	13,89
471,619	12,67
471,867	15,42
472,115	14,52
472,364	12,21
472,612	14,84
472,86	13,41
473,108	13,88
473,356	15,17
473,605	14,62
473,853	12,42
474,101	11,39
474,349	10,67
474,597	13,74
474,845	12,91
475,093	12,63
475,341	10,97
475,589	11,43
475,837	11,3
476,085	12,63
476,333	13,08
476,581	15,36
476,829	15,7
477,077	17,37
477,325	17,16
477,573	19,68
477,821	18,23
478,069	17,93
478,317	16,99
478,564	19,42
478,812	17,64
479,06	16,35
479,308	15,13
479,555	15,89
479,803	15,33
480,051	18,42
480,299	17,92
480,546	18,52
480,794	16,38
481,042	17,12
481,289	17,07
481,537	18,69
481,784	19,98
482,032	24,79
482,28	26,59
482,527	26,71
482,775	28,77
483,022	32,44
483,27	36,43
483,517	41,05
483,765	42,58
484,012	44,02
484,259	43,47
484,507	48,78
484,754	51,33
485,002	52,8
485,249	52,82
485,496	58,28
485,744	60,28
485,991	61,69
486,238	61,32
486,486	65,63
486,733	68,7
486,98	73,34
487,227	71,83
487,474	74,63
487,722	76,55
487,969	76,72
488,216	77,57
488,463	77,65
488,71	77,08
488,957	76,79
489,204	76,1
489,451	76,36
489,699	74,4
489,946	69,22
490,193	68,95
490,44	67,24
490,687	66,7
490,934	62,82
491,18	58,89
491,427	58,09
491,674	60,66
491,921	60,34
492,168	57,43
492,415	51,55
492,662	51,75
492,909	52,72
493,155	50,1
493,402	47,66
493,649	44,35
493,896	43,98
494,142	38,9
494,389	37,44
494,636	34,9
494,883	32,22
495,129	30,36
495,376	27,54
495,623	27,57
495,869	28,16
496,116	28,75
496,362	27,09
496,609	28,01
496,855	32,82
497,102	31,1
497,348	30,66
497,595	32,86
497,841	35,52
498,088	33,73
498,334	32,61
498,581	31,88
498,827	31,32
499,074	32,04
499,32	34,09
499,566	36,34
499,813	35,36
500,059	34,53
500,305	33,29
500,552	32,06
500,798	29,38
501,044	32,73
501,29	31,07
501,537	27,19
501,783	29,52
502,029	31,49
502,275	27,4
502,521	27,17
502,767	25,96
503,013	27,91
503,26	25,14
503,506	21,12
503,752	22,2
503,998	20,22
504,244	20,85
504,49	17,45
504,736	18,75
504,982	16,65
505,228	20,06
505,474	20,65
505,72	21,61
505,966	19,49
506,211	22,46
506,457	22,07
506,703	18,89
506,949	14,1
507,195	12,65
507,441	9,27
507,686	12,48
507,932	12,26
508,178	13,61
508,424	12,53
508,669	10,1
508,915	11,14
509,161	14,97
509,406	15,22
509,652	14,03
509,898	18,62
510,143	19,08
510,389	18,75
510,634	13,32
510,88	16,43
511,125	19,53
511,371	20,61
511,616	22,11
511,862	19,45
512,107	16,35
512,353	17,03
512,598	17,96
512,844	13,25
513,089	10,47
513,335	11,81
513,58	11,22
513,825	10,02
514,071	9,58
514,316	9,23
514,561	9,82
514,806	7,92
515,052	10,76
515,297	8,88
515,542	10,15
515,787	9,92
516,033	10,74
516,278	10,91
516,523	9,9
516,768	7,98
517,013	4,98
517,258	5,1
517,503	5,53
517,748	5,24
517,993	5,41
518,238	7,38
518,483	5,2
518,728	4,76
518,973	2,91
519,218	2,77
519,463	3,34
519,708	1,74
519,953	-0,05
520,198	-0,62
520,443	1,96
520,688	4,92
520,933	4,24
521,177	4,66
521,422	3,24
521,667	5,22
521,912	5,75
522,157	3,12
522,401	5,59
522,646	5,3
522,891	5,18
523,135	5,19
523,38	5,17
523,625	4,99
523,869	6,91
524,114	8,11
524,358	7,14
524,603	8,95
524,848	5,5
525,092	3,43
525,337	4,11
525,581	5
525,826	6,23
526,07	8,16
526,315	8,85
526,559	7,43
526,803	5,44
527,048	9,44
527,292	11,27
527,537	11
527,781	11,3
528,025	8,92
528,269	10
528,514	9,74
528,758	8,77
529,002	9,76
529,247	14,51
529,491	14,01
529,735	17,99
529,979	18,74
530,223	19,7
530,467	17,7
530,712	15,95
530,956	14,66
531,2	15,79
531,444	14,14
531,688	16,54
531,932	16,34
532,176	17,13
532,42	19,94
532,664	21,6
532,908	20,9
533,152	20,17
533,396	21,02
533,64	18,83
533,884	17,04
534,128	18,09
534,371	21,26
534,615	23,25
534,859	23,77
535,103	24,81
535,347	26,41
535,59	28,75
535,834	26,02
536,078	29,96
536,322	35,88
536,565	41,5
536,809	41,7
537,053	48
537,296	52,05
537,54	57,34
537,784	63,7
538,027	73,19
538,271	81,95
538,514	89,8
538,758	99,49
539,001	107,61
539,245	116,84
539,488	126,75
539,732	136,55
539,975	145,92
540,219	155,73
540,462	164,71
540,706	174,55
540,949	181,23
541,192	190,32
541,436	203,77
541,679	216,17
541,922	226,29
542,166	233,55
542,409	249,09
542,652	265,05
542,895	280,89
543,139	297,59
543,382	315,59
543,625	325,1
543,868	333,63
544,111	339,59
544,354	342,85
544,598	343,98
544,841	347,42
545,084	346,83
545,327	343,48
545,57	342,02
545,813	339,24
546,056	335,47
546,299	330,27
546,542	326,59
546,785	322,43
547,028	316,6
547,271	309,57
547,514	302,25
547,756	293,42
547,999	288,72
548,242	283,92
548,485	276,29
548,728	269,97
548,971	258,61
549,213	251,73
549,456	241,62
549,699	229,31
549,942	214,4
550,184	197,53
550,427	182,03
550,67	165,69
550,912	146,33
551,155	136,26
551,398	124,71
551,64	114,2
551,883	106,56
552,125	97,86
552,368	90,18
552,61	81,96
552,853	80,25
553,095	75,05
553,338	70,09
553,58	64,63
553,823	59,31
554,065	56,99
554,308	50,11
554,55	46,25
554,792	41,89
555,035	38,56
555,277	35,84
555,519	32,42
555,762	27,14
556,004	26,4
556,246	22,32
556,488	21,64
556,731	17,13
556,973	17,76
557,215	16,37
557,457	16,98
557,699	19,52
557,941	15,07
558,183	13,46
558,426	17,37
558,668	12,32
558,91	12,77
559,152	12,41
559,394	11,5
559,636	14,67
559,878	16,25
560,12	15,63
560,362	16,42
560,604	15,05
560,845	14
561,087	13,5
561,329	14,95
561,571	12,4
561,813	13,06
562,055	12,98
562,297	13,93
562,538	16,25
562,78	17,21
563,022	14,79
563,264	16,82
563,505	16,26
563,747	17,06
563,989	15,35
564,23	13,86
564,472	12,17
564,714	13,77
564,955	11,93
565,197	8,56
565,438	11,48
565,68	13,98
565,921	10,12
566,163	11,99
566,404	9,91
566,646	11,57
566,887	14,02
567,129	13,86
567,37	11,27
567,612	13,16
567,853	9,37
568,094	9,8
568,336	9,98
568,577	11,87
568,818	12,9
569,06	11,05
569,301	7,69
569,542	7,63
569,783	8,85
570,025	7,01
570,266	8,45
570,507	10,26
570,748	9,8
570,989	12,11
571,23	15,47
571,472	14,72
571,713	13,89
571,954	14,34
572,195	13,61
572,436	16,98
572,677	19,34
572,918	21,47
573,159	22,14
573,4	22,65
573,641	23,41
573,882	27,32
574,123	27,7
574,364	24,36
574,604	26,19
574,845	26,34
575,086	28,7
575,327	32,81
575,568	34,57
575,809	36,22
576,049	36,73
576,29	35,83
576,531	44,65
576,771	51,29
577,012	56,87
577,253	59,08
577,494	60,4
577,734	61,81
577,975	64,99
578,215	66,04
578,456	65,28
578,697	65,79
578,937	71,18
579,178	73,86
579,418	74,15
579,659	76,3
579,899	74,34
580,14	74,99
580,38	75,51
580,62	75,79
580,861	79,55
581,101	80,26
581,342	78,52
581,582	73,86
581,822	78,08
582,063	78,04
582,303	81,41
582,543	81,01
582,783	83,53
583,024	87,02
583,264	92,03
583,504	91,07
583,744	94,53
583,984	92,2
584,224	94,25
584,465	91,9
584,705	93,31
584,945	97,52
585,185	99,86
585,425	102,42
585,665	103,1
585,905	103,22
586,145	104,33
586,385	101,92
586,625	104,26
586,865	104,35
587,105	103,74
587,345	105,73
587,585	105,89
587,824	104,49
588,064	102,78
588,304	101,06
588,544	101,69
588,784	101,47
589,024	106,63
589,263	105,91
589,503	107,57
589,743	111,46
589,982	113,8
590,222	113,95
590,462	112,89
590,701	111,25
590,941	116,35
591,181	115,4
591,42	114,49
591,66	115,86
591,899	119,19
592,139	117,85
592,378	116,26
592,618	114,05
592,857	110,27
593,097	110,47
593,336	110,53
593,576	108,34
593,815	109,6
594,055	108,98
594,294	109,59
594,533	110,33
594,773	110,37
595,012	112,63
595,251	113,92
595,491	119,52
595,73	123,63
595,969	125,85
596,208	129,28
596,447	135,58
596,687	137,92
596,926	138,41
597,165	134,88
597,404	136,73
597,643	135,42
597,882	132,74
598,121	132,04
598,36	130,44
598,599	131,46
598,838	130,24
599,077	125,83
599,316	124,24
599,555	122,7
599,794	123,37
600,033	123,52
600,272	126,37
600,511	125,43
600,75	127,46
600,989	130,34
601,228	130,12
601,466	130,02
601,705	131,13
601,944	131,6
602,183	133,41
602,422	133,03
602,66	131,62
602,899	128,44
603,138	127,34
603,376	126,82
603,615	125,75
603,854	122,41
604,092	121,62
604,331	124,25
604,569	125,86
604,808	127,87
605,047	130,9
605,285	135,82
605,524	141,61
605,762	146,41
606	156,98
606,239	170,68
606,477	187,3
606,716	204,69
606,954	235,86
607,193	277,62
607,431	335,03
607,669	409,2
607,908	497,58
608,146	598,81
608,384	699,85
608,622	801,78
608,861	898,72
609,099	987,43
609,337	1069,43
609,575	1144,47
609,813	1214,2
610,052	1276,5
610,29	1327,91
610,528	1374,65
610,766	1417,8
611,004	1459,52
611,242	1495,87
611,48	1531,57
611,718	1559,1
611,956	1587,53
612,194	1610,18
612,432	1631,47
612,67	1648,55
612,908	1663,91
613,146	1673,95
613,384	1678,51
613,621	1678,88
613,859	1675,91
614,097	1666,75
614,335	1646,41
614,573	1612,05
614,811	1563,08
615,048	1493,87
615,286	1411,57
615,524	1316,96
615,761	1217,71
615,999	1122,58
616,237	1031,15
616,474	949,55
616,712	872,94
616,95	801,11
617,187	736,94
617,425	682,14
617,662	633,75
617,9	588,83
618,137	547,45
618,375	510,3
618,612	475,11
618,85	445,25
619,087	421,18
619,325	395,47
619,562	372,4
619,799	351,36
620,037	335,23
620,274	319,56
620,511	311,5
620,749	300,59
620,986	293,09
621,223	286,21
621,461	282,28
621,698	281,4
621,935	280,26
622,172	277,55
622,409	280,72
622,647	283,84
622,884	283,9
623,121	289,49
623,358	291,04
623,595	293,19
623,832	295,75
624,069	297,36
624,306	301,24
624,543	304,87
624,78	307,38
625,017	310,32
625,254	314,47
625,491	318,52
625,728	322,7
625,965	324,72
626,202	326,15
626,438	325,91
626,675	328,68
626,912	334,26
627,149	341,01
627,386	348,39
627,622	356
627,859	362,57
628,096	371,85
628,333	380,67
628,569	387,15
628,806	393,64
629,043	395,43
629,279	396,99
629,516	398,18
629,752	392,07
629,989	388,59
630,225	383,17
630,462	377,91
630,699	370,53
630,935	363,94
631,171	353,26
631,408	346,54
631,644	336,01
631,881	324,59
632,117	314,26
632,354	307,02
632,59	298,63
632,826	290,25
633,063	280,54
633,299	274,32
633,535	263,18
633,771	254,29
634,008	246,27
634,244	236,09
634,48	223,31
634,716	210,28
634,953	194,01
635,189	179,29
635,425	164,28
635,661	151,15
635,897	134,98
636,133	120,97
636,369	109,24
636,605	95,78
636,841	87,17
637,077	82,84
637,313	76,43
637,549	71,72
637,785	66,62
638,021	64,99
638,257	60,24
638,493	60,43
638,729	56,78
638,965	59,99
639,2	60,66
639,436	59,21
639,672	58,38
639,908	56,52
640,144	60,14
640,379	62,17
640,615	58,66
640,851	61,5
641,086	62,98
641,322	61,35
641,558	60,06
641,793	59,8
642,029	57,88
642,264	56,11
642,5	55,78
642,736	52,03
642,971	50,76
643,207	50,2
643,442	48,05
643,678	48,64
643,913	49,6
644,148	50,28
644,384	51,57
644,619	51,31
644,855	52,91
645,09	53,38
645,325	52,86
645,561	55,11
645,796	53,36
646,031	57,06
646,266	55,79
646,502	56,29
646,737	61,01
646,972	63,01
647,207	66,14
647,442	65,32
647,678	64,96
647,913	71,79
648,148	74,87
648,383	74,73
648,618	78,41
648,853	81,79
649,088	86,63
649,323	90,98
649,558	94,64
649,793	96,03
650,028	98,34
650,263	97,8
650,498	101,91
650,733	104,56
650,968	103,93
651,202	108,63
651,437	105,9
651,672	103,2
651,907	103,11
652,142	104,07
652,376	105,21
652,611	107,41
652,846	109,68
653,081	109,87
653,315	107,87
653,55	105,81
653,785	104,4
654,019	103,14
654,254	98,98
654,488	96,75
654,723	90,47
654,958	84,93
655,192	80,28
655,427	73,49
655,661	74,06
655,896	73,53
656,13	73,57
656,364	66,87
656,599	62,65
656,833	63,94
657,068	62,91
657,302	62,82
657,536	58,56
657,771	57,41
658,005	56,73
658,239	58,4
658,474	53,46
658,708	55,24
658,942	56,68
659,176	55,51
659,41	53,88
659,645	54,76
659,879	55,78
660,113	53,18
660,347	54,26
660,581	53,3
660,815	56,05
661,049	55,21
661,283	52,56
661,517	51,46
661,751	50,3
661,985	51,63
662,219	54,26
662,453	51,99
662,687	53,96
662,921	48,31
663,155	45,82
663,389	38,11
663,622	37,71
663,856	39,92
664,09	35,23
664,324	35,65
664,558	34,37
664,791	34,92
665,025	34,92
665,259	33,74
665,492	30,93
665,726	34,2
665,96	33,13
666,193	30,23
666,427	32,25
666,661	30,16
666,894	27,2
667,128	23,9
667,361	23,17
667,595	19,79
667,828	17,74
668,062	14,05
668,295	14,49
668,529	15,63
668,762	16,28
668,995	15,95
669,229	18,51
669,462	18,6
669,695	19,89
669,929	18,19
670,162	20,45
670,395	19,57
670,629	20,91
670,862	23,43
671,095	19,35
671,328	21,38
671,561	16,64
671,795	18,06
672,028	18,69
672,261	18,35
672,494	20,07
672,727	18,02
672,96	18,6
673,193	17,31
673,426	20,12
673,659	18,14
673,892	19,4
674,125	18,02
674,358	17,1
674,591	15,96
674,824	16,54
675,057	17,49
675,29	16,17
675,523	17,4
675,755	15,39
675,988	16,59
676,221	20,37
676,454	18,26
676,687	18,24
676,919	16,7
677,152	17,79
677,385	17,59
677,617	17,99
677,85	20,08
678,083	18,99
678,315	21,79
678,548	19,74
678,78	20,54
679,013	20,38
679,246	21,58
679,478	22,65
679,711	19,94
679,943	23,55
680,175	20,51
680,408	25,77
680,64	22,2
680,873	24,64
681,105	24,07
681,338	28,08
681,57	27,45
681,802	29,82
682,034	31
682,267	33,69
682,499	35,45
682,731	32,16
682,964	32,85
683,196	31,51
683,428	27,83
683,66	28,47
683,892	33,16
684,124	37,67
684,356	42,07
684,589	44,16
684,821	44,79
685,053	45,51
685,285	47,06
685,517	50,6
685,749	53,17
685,981	56,72
686,213	57,71
686,445	58,59
686,676	56,78
686,908	60,02
687,14	58,86
687,372	60,69
687,604	56,7
687,836	59,33
688,068	57,78
688,299	57,93
688,531	55,94
688,763	61,79
688,995	59,58
689,226	61,9
689,458	60,42
689,69	59,69
689,921	59,29
690,153	59,6
690,384	61,96
690,616	62,72
690,848	63,48
691,079	59,31
691,311	55,86
691,542	51,85
691,774	48,69
692,005	49,92
692,237	51,68
692,468	47,91
692,699	44,58
692,931	42,99
693,162	38,23
693,393	35,49
693,625	32,95
693,856	32,95
694,087	31,21
694,319	31,4
694,55	28,84
694,781	26,86
695,012	25,22
695,243	24,01
695,475	23,62
695,706	23
695,937	19,92
696,168	19,87
696,399	17,54
696,63	16,09
696,861	16,33
697,092	21,44
697,323	23,52
697,554	22,12
697,785	21,59
698,016	20,91
698,247	18,41
698,478	18,95
698,709	18,56
698,94	19,54
699,171	19,34
699,401	15,53
699,632	18,05
699,863	15,57
700,094	15,46
700,325	18,02
700,555	19,94
700,786	23,19
701,017	23,98
701,247	23,51
701,478	23,61
701,709	25,58
701,939	24,84
702,17	28,25
702,401	32,1
702,631	35,19
702,862	36,35
703,092	36,6
703,323	43,06
703,553	47,94
703,784	53
704,014	58,25
704,244	58,04
704,475	60,66
704,705	65,67
704,936	69,87
705,166	74,75
705,396	81,8
705,627	87,3
705,857	93,09
706,087	100,15
706,317	101,4
706,548	104,8
706,778	110,2
707,008	114,85
707,238	118,03
707,468	119,73
707,698	119,9
707,928	119,75
708,158	121,09
708,389	122,49
708,619	124,75
708,849	125,1
709,079	131,2
709,309	132,23
709,539	131,44
709,768	134,51
709,998	138,45
710,228	138,76
710,458	136,32
710,688	132,07
710,918	129,49
711,148	125,77
711,378	124,19
711,607	118,81
711,837	116,49
712,067	112,97
712,297	108,34
712,526	103,07
712,756	98,01
712,986	89,25
713,215	81,85
713,445	78,01
713,674	73,75
713,904	67,78
714,134	66,8
714,363	62,83
714,593	58,56
714,822	55,35
715,052	51,57
715,281	48,57
715,511	45,12
715,74	41,68
715,969	38,25
716,199	33,22
716,428	29,27
716,657	26,32
716,887	24,01
717,116	16,71
717,345	14,53
717,575	11,38
717,804	10,58
718,033	6,91
718,262	4,71
718,492	3,11
718,721	3,53
718,95	0,74
719,179	-2,86
719,408	-3,04
719,637	-6,37
719,866	-8,15
720,095	-5,15
720,324	-6,26
720,553	-9,64
720,782	-10,75
721,011	-10,79
721,24	-13,53
721,469	-13,97
721,698	-13,07
721,927	-12,69
722,156	-11,22
722,385	-11,04
722,613	-7,04
722,842	-6,65
723,071	-2,46
723,3	-0,75
723,529	-1,7
723,757	-0,96
723,986	-5,33
724,215	-4,84
724,443	-2,66
724,672	-0,14
724,901	0,51
725,129	3,6
725,358	7,33
725,586	3,94
725,815	2,89
726,043	2,52
726,272	1,54
726,5	0,53
726,729	1,23
726,957	-1,15
727,186	-3,43
727,414	-1,84
727,642	0,63
727,871	3,62
728,099	3,18
728,327	2,62
728,556	4,46
728,784	5,75
729,012	4,02
729,241	4,93
729,469	4,73
729,697	0,37
729,925	0,78
730,153	-1,48
730,381	-2,17
730,61	-1,66
730,838	-4,74
731,066	-3,84
731,294	-3,51
731,522	-7,08
731,75	-11,31
731,978	-12,04
732,206	-13,65
732,434	-16,5
732,662	-13,8
732,89	-15,6
733,118	-16,9
733,346	-15,23
733,573	-14,14
733,801	-12,93
734,029	-6,14
734,257	-5,25
734,485	-3,08
734,712	-0,91
734,94	-3,79
735,168	-1,1
735,396	-0,96
735,623	-2,87
735,851	-1,52
736,078	-0,06
736,306	1,41
736,534	0,85
736,761	2,93
736,989	-0,57
737,216	-1,24
737,444	-2,74
737,671	-1,43
737,899	4,6
738,126	3,15
738,354	3,62
738,581	5,08
738,809	6,21
739,036	2,43
739,263	3,53
739,491	1,14
739,718	1,3
739,945	7,28
740,173	9,61
740,4	8,7
740,627	5,99
740,854	5,94
741,081	2,33
741,309	1,23
741,536	-1,44
741,763	-4,8
741,99	-2,09
742,217	-3,02
742,444	-3,13
742,671	-0,38
742,898	-1,5
743,125	-3,42
743,352	-7,74
743,579	-8,42
743,806	-8,23
744,033	-4,24
744,26	-2,95
744,487	-3,53
744,714	-3,01
744,941	-5,15
745,167	-1,38
745,394	-2,58
745,621	-2,74
745,848	-2,78
746,075	1,1
746,301	3,33
746,528	8,8
746,755	6,43
746,981	6,22
747,208	7,83
747,435	11,3
747,661	13,16
747,888	14,51
748,114	13,36
748,341	15,59
748,567	17,62
748,794	17,53
749,02	16,1
749,247	14,36
749,473	15,31
749,7	13,7
749,926	11,95
750,152	16,04
750,379	17,2
750,605	17,62
750,831	17,04
751,058	15,42
751,284	13,1
751,51	16,9
751,737	17,39
751,963	15,73
752,189	14,26
752,415	13,97
752,641	12,91
752,867	13,42
753,094	11,81
753,32	9,85
753,546	7,98
753,772	10,39
753,998	7,68
754,224	6,74
754,45	5,59
754,676	5,41
754,902	3,45
755,128	4,02
755,354	4,18
755,579	3,52
755,805	5,5
756,031	3,75
756,257	2,7
756,483	1,06
756,709	-0,14
756,934	2,22
757,16	-0,52
757,386	-0,2
757,612	-2,09
757,837	-3,58
758,063	-0,06
758,289	2,76
758,514	0,6
758,74	-2,78
758,965	-4,75
759,191	-2,98
759,416	-0,61
759,642	1,39
759,868	1,23
760,093	3,75
760,318	3,59
760,544	2,94
760,769	3,09
760,995	2,29
761,22	3,1
761,445	4,19
761,671	5,35
761,896	9,04
762,121	9,5
762,347	9,01
762,572	5,92
762,797	5,2
763,022	6,6
763,248	11,6
763,473	12,48
763,698	11,76
763,923	11,9
764,148	12,67
764,373	11,99
764,598	14,13
764,823	17,58
765,048	13,43
765,273	10,73
765,498	9,22
765,723	11,07
765,948	12,34
766,173	11,81
766,398	11,03
766,623	7,5
766,848	6,53
767,073	5,48
767,298	4,24
767,522	3,01
767,747	2,6
767,972	3,07
768,197	2,29
768,421	0,53
768,646	-2,08
768,871	-5,08
769,095	-4,79
769,32	-4,6
769,545	-4,54
769,769	-2,24
769,994	-0,51
770,218	-4,22
770,443	-2,84
770,667	-0,15
770,892	-0,31
771,116	-1,1
771,341	0,53
771,565	-0,11
771,79	-1,57
772,014	-1,75
772,238	-2,56
772,463	0,03
772,687	-0,72
772,911	-1,56
773,136	-4,21
773,36	-2,48
773,584	0,94
773,808	0,46
774,033	-0,14
774,257	-0,06
774,481	0,14
774,705	-0,4
774,929	-0,45
775,153	-0,54
775,377	0,94
775,602	1,38
775,826	2,04
776,05	2,99
776,274	2,08
776,498	3,41
776,722	0,7
776,945	0,81
777,169	0,7
777,393	-0,93
777,617	-3,18
777,841	-2,85
778,065	-1,14
778,289	-1,89
778,512	-1,91
778,736	-1,82
778,96	-1,6
779,184	0,11
779,407	-0,37
779,631	-0,01
779,855	-0,21
780,078	2,04
780,302	-0,02
780,526	-2,76
780,749	-2,38
780,973	0,37
781,196	0,91
781,42	-0,33
781,643	0,18
781,867	1,49
782,09	-2,3
782,314	-3,39
782,537	-4,63
782,76	-4,39
782,984	-3,9
783,207	-4,91
783,431	-4,92
783,654	-4,39
783,877	-6,99
784,1	-7,75
784,324	-9,01
784,547	-9,16
784,77	-13,52
784,993	-14,34
785,216	-15,17
785,44	-15,78
785,663	-16,72
785,886	-14,45
786,109	-15,32
786,332	-15,26
786,555	-15,49
786,778	-12,94
787,001	-13,53
787,224	-11,65
787,447	-9,61
787,67	-8,97
787,893	-9,83
788,116	-8,88
788,339	-7,43
788,561	-8,56
788,784	-13,22
789,007	-13,69
789,23	-14,28
789,453	-13,33
789,675	-16,11
789,898	-17,23
790,121	-18,5
790,344	-19,14
790,566	-19,11
790,789	-18,92
791,012	-18,3
791,234	-15,85
791,457	-12,29
791,679	-10,57
791,902	-10,51
792,124	-10,67
792,347	-10,22
792,569	-11,03
792,792	-14,47
793,014	-10,54
793,237	-9,8
793,459	-8,96
793,681	-9,4
793,904	-10,4
794,126	-12,86
794,348	-14,6
794,571	-11,54
794,793	-13,72
795,015	-13,79
795,237	-14,28
795,46	-12,08
795,682	-9,33
795,904	-5,37
796,126	-7,72
796,348	-8,87
796,57	-4,45
796,792	-4,5
797,014	0,44
797,237	3
797,459	4,55
797,681	5,61
797,903	3,45
798,124	5,22
798,346	16,24
798,568	16,58
798,79	19,79
799,012	21,73
799,234	23,52
799,456	24,93
799,678	27,92
799,899	24,07
800,121	21,57
800,343	21,21
800,565	21,95
800,786	22,64
801,008	23,74
801,23	24,25
801,451	23,08
801,673	20,98
801,895	19,61
802,116	21,11
802,338	21,04
802,559	19,18
802,781	15,66
803,002	18,84
803,224	21,17
803,445	18,71
803,667	20,32
803,888	17,38
804,109	18,35
804,331	17,31
804,552	17,53
804,773	21,02
804,995	17,68
805,216	3,43
805,437	2,39
805,658	-1,84
805,88	-3,11
806,101	-4,06
806,322	-4,27
806,543	-6,16
806,764	-7,26
806,985	-4,8
807,207	-4,28
807,428	-5,36
807,649	-9,16
807,87	-9,81
808,091	-9,59
808,312	-9,64
808,533	-3,09
808,754	0,35
808,975	-1,24
809,195	0,57
809,416	2,3
809,637	2,9
809,858	2,12
810,079	0,23
810,3	1,19
810,52	0,88
810,741	-1,34
810,962	-4,21
811,183	-4,07
811,403	-3,38
811,624	-4,97
811,845	-3,34
812,065	-1,38
812,286	-0
812,506	0,66
812,727	-0,71
812,948	0,2
813,168	3,3
813,389	2,51
813,609	5,26
813,83	3,8
814,05	3,36
814,27	3,64
814,491	8,28
814,711	7,34
814,931	5,53
815,152	4,31
815,372	1,66
815,592	-0,52
815,813	-1,78
816,033	-3,37
816,253	-2,46
816,473	-3,38
816,694	-2,59
816,914	-0,71
817,134	-0,62
817,354	-3,86
817,574	-1,21
817,794	-1,97
818,014	-3,6
818,234	-4,24
818,454	-4,88
818,674	-7,44
818,894	-11,42
819,114	-9,81
819,334	-8,89
819,554	-5,43
819,774	-3,52
819,994	-7,64
820,214	-8,49
820,433	-8,38
820,653	-9,1
820,873	-7,82
821,093	-7,09
821,312	-9,07
821,532	-7,25
821,752	-5,25
821,972	-6,18
822,191	-4,66
822,411	-6,25
822,63	-5,4
822,85	-5,87
823,07	-8,08
823,289	-6,35
823,509	-8,12
823,728	-6,65
823,948	-8,3
824,167	-7,9
824,387	-9,15
824,606	-6,72
824,825	-7,57
825,045	-7,99
825,264	-8,62
825,483	-6,26
825,703	-3,65
825,922	-4,77
826,141	-4,37
826,361	-5,86
826,58	-9,61
826,799	-10,52
827,018	-9,92
827,237	-10,09
827,456	-8,16
827,676	-7,84
827,895	-7,83
828,114	-5,93
828,333	-5,89
828,552	-6,49
828,771	-5,51
828,99	-7,78
829,209	-6,96
829,428	-3,89
829,647	-3,99
829,866	-2,91
830,084	-3,55
830,303	-2,67
830,522	-3,75
830,741	-4,66
830,96	-4,31
831,179	-3,22
831,397	-5,89
831,616	-3,44
831,835	-4,4
832,053	-3,29
832,272	-3,68
832,491	-1,47
832,709	-3,19
832,928	-3,9
833,147	-3,64
833,365	-1,43
833,584	2,14
833,802	5,99
834,021	5,87
834,239	7,25
834,458	4,6
834,676	0,93
834,894	-0
835,113	-0,37
835,331	-0,91
835,55	-0,81
835,768	-0,35
835,986	1,38
836,204	-2,39
836,423	-1,28
836,641	-1,36
836,859	-1,72
837,077	-1,17
837,296	-0,62
837,514	-0,62
837,732	-0,61
837,95	-2,49
838,168	0,91
838,386	-1,24
838,604	1,78
838,822	2,77
839,04	2,06
839,258	1,7
839,476	3,22
839,694	4,06
839,912	3,1
840,13	2,49
840,348	4,23
840,566	0,54
840,783	2,69
841,001	1,03
841,219	2,19
841,437	4,01
841,655	3,56
841,872	2,69
842,09	2,25
842,308	3,41
842,525	3,34
842,743	3,77
842,961	3,29
843,178	0,77
843,396	3,07
843,613	3,79
843,831	5
844,048	3,2
844,266	4,16
844,483	2,95
844,701	1,74
844,918	1,44
845,136	1,03
845,353	-0,91
845,57	0,48
845,788	3,59
846,005	0,23
846,222	-1,18
846,439	-0,25
846,657	-0,36
846,874	-1,01
847,091	-2,29
847,308	0,17
847,526	-2,49
847,743	-3,67
847,96	-5,03
848,177	-4,71
848,394	-4,05
848,611	-3,82
848,828	-2,87
849,045	-4,63
849,262	-3,99
849,479	-4,85
849,696	-4,72
849,913	-6,38
850,13	-10,82
850,347	-7,14
850,564	-8,98
850,78	-10,41
850,997	-13,08
851,214	-13,18
851,431	-10,52
851,647	-14,15
851,864	-12,97
852,081	-10,76
852,298	-15,31
852,514	-17,58
852,731	-15,07
852,948	-12,54
853,164	-12,31
853,381	-12,64
853,597	-14,01
853,814	-17,3
854,03	-20,38
854,247	-17,41
854,463	-16,79
854,68	-16,64
854,896	-15,72
855,113	-14,96
855,329	-13,53
855,545	-12,83
855,762	-13,45
855,978	-17,98
856,194	-19,78
856,411	-15,35
856,627	-12,05
856,843	-10,74
857,059	-8,96
857,275	-10,64
857,492	-8,36
857,708	-3,56
857,924	-2,26
858,14	-0,33
858,356	0,16
858,572	-0,6
858,788	-3,12
859,004	-1,62
859,22	-3,54
859,436	-2,49
859,652	-3,89
859,868	-5,57
860,084	-4,51
860,3	-4,24
860,516	-4,56
860,731	-3,29
860,947	-5,75
861,163	-4,25
861,379	-2,29
861,595	-1,32
861,81	-0,62
862,026	-1,71
862,242	-1,24
862,457	-0,94
862,673	0,68
862,889	0,91
863,104	-0,35
863,32	0,6
863,535	0,55
863,751	-5,74
863,966	-2,69
864,182	-0,75
864,397	-4,06
864,613	-5,35
864,828	-7,93
865,044	-6,53
865,259	-3,88
865,474	-4,44
865,69	-2,18
865,905	-0,78
866,12	-3,22
866,336	-3,99
866,551	-1,98
866,766	-2,98
866,981	-3,7
867,196	-2,94
867,412	-2,46
867,627	-2,81
867,842	-3,91
868,057	-5,24
868,272	-6,78
868,487	-9,23
868,702	-11,82
868,917	-12,66
869,132	-10,91
869,347	-9,81
869,562	-10,81
869,777	-12,22
869,992	-15
870,207	-14,29
870,422	-13,83
870,636	-14,66
870,851	-17,82
871,066	-18,26
871,281	-16,5
871,495	-17,99
871,71	-15,23
871,925	-17,84
872,14	-17,81
872,354	-20,58
872,569	-21,5
872,783	-20,32
872,998	-20,51
873,213	-22,4
873,427	-19,28
873,642	-17,9
873,856	-16,27
874,071	-17,54
874,285	-18,06
874,5	-19,48
874,714	-20,78
874,928	-20,95
875,143	-19,78
875,357	-18,89
875,571	-20,73
875,786	-20,28
876	-16,02
876,214	-14,38
876,429	-15,79
876,643	-14,06
876,857	-12,76
877,071	-11,21
877,285	-13,18
877,499	-14,87
877,714	-12,38
877,928	-11,02
878,142	-11,07
878,356	-14,74
878,57	-14,26
878,784	-13,98
878,998	-14,48
879,212	-12,65
879,426	-14,36
879,639	-11,45
879,853	-13,37
880,067	-14,2
880,281	-15,05
880,495	-14,46
880,709	-11,4
880,922	-11,33
881,136	-9,41
881,35	-7,32
881,564	-7,91
881,777	-11,28
881,991	-10,05
882,205	-6,68
882,418	-7,48
882,632	-11,19
882,845	-10,64
883,059	-10,42
883,273	-12,2
883,486	-14,01
883,7	-11,17
883,913	-10,88
884,126	-9,29
884,34	-13,35
884,553	-16,34
884,767	-12,42
884,98	-12,17
885,193	-11,99
885,407	-13,02
885,62	-11,42
885,833	-10,91
886,046	-8,88
886,26	-10,88
886,473	-10,65
886,686	-12,19
886,899	-9,36
887,112	-10,57
887,326	-13,14
887,539	-12,08
887,752	-11,68
887,965	-13,38
888,178	-11,88
888,391	-10,88
888,604	-10,59
888,817	-12,1
889,03	-11,08
889,243	-12,49
889,455	-15,31
889,668	-13,51
889,881	-10,02
890,094	-10,78
890,307	-14,92
890,52	-12,56
890,732	-12,76
890,945	-10,56
891,158	-9,95
891,37	-12,26
891,583	-11,12
891,796	-9,92
892,008	-9,53
892,221	-9,92
892,434	-13,78
892,646	-15,36
892,859	-16,22
893,071	-14,32
893,284	-11,94
893,496	-14,95
893,709	-15,24
893,921	-13,94
894,133	-15,59
894,346	-16,8
894,558	-17,11
894,771	-18,22
894,983	-15,83
895,195	-16,54
895,407	-15,51
895,62	-18,33
895,832	-17,16
896,044	-14,51
896,256	-16,52
896,468	-18,87
896,681	-16,65
896,893	-14,75
897,105	-15,67
897,317	-16,07
897,529	-14,11
897,741	-12,92
897,953	-11,24
898,165	-13
898,377	-14,99
898,589	-13,27
898,801	-12,59
899,013	-7,87
899,224	-5,09
899,436	-2,08
899,648	-2,94
899,86	-4,48
900,072	-0,74
900,283	-0,1
900,495	-0,06
900,707	0,83
900,919	-2,01
901,13	-0,37
901,342	-1,09
901,554	-1,86
901,765	-0,15
901,977	-2,74
902,188	-2,82
902,4	-3,13
902,611	-4,76
902,823	-5,25
903,034	-6,6
903,246	-9,28
903,457	-10,48
903,669	-10,31
903,88	-10,22
904,091	-10,58
904,303	-8,98
904,514	-9,59
904,725	-7,39
904,936	-6,1
905,148	-6,51
905,359	-4,66
905,57	-6,51
905,781	-7,24
905,992	-9,22
906,204	-7,51
906,415	-8,17
906,626	-10,27
906,837	-7,43
907,048	-8,28
907,259	-9,13
907,47	-9,2
907,681	-11,29
907,892	-8,29
908,103	-8,73
908,314	-11,45
908,525	-9,2
908,735	-8,45
908,946	-8,68
909,157	-9,74
909,368	-7,97
909,579	-6,53
909,789	-7,32
910	-7,66
910,211	-7,22
910,421	-7,52
910,632	-6,55
910,843	-10,62
911,053	-8,19
911,264	-5,51
911,475	-6,14
911,685	-7,17
911,896	-8,23
912,106	-7,22
912,317	-10,79
912,527	-8,37
912,737	-9,15
912,948	-9,44
913,158	-8,19
913,369	-11,64
913,579	-8,36
913,789	-7,01
914	-2,93
914,21	-1,4
914,42	-2,87
914,63	-3,16
914,841	-1,17
915,051	1,34
915,261	2,4
915,471	4,6
915,681	5,83
915,891	5,91
916,101	4,91
916,311	5,39
916,521	6,65
916,731	8,11
916,941	10,84
917,151	9,52
917,361	13,18
917,571	8,96
917,781	6,54
917,991	4,53
918,201	5,03
918,411	1,65
918,621	0,5
918,83	2,03
919,04	-0,91
919,25	0,54
919,46	3,32
919,669	-1,13
919,879	-1,66
920,089	-4,01
920,298	-5,24
920,508	-4,84
920,717	-4,79
920,927	-5,28
921,136	-5,11
921,346	-7
921,555	-11,02
921,765	-11,03
921,974	-13,96
922,184	-15,48
922,393	-17,01
922,603	-18,02
922,812	-15,1
923,021	-16,11
923,23	-18,87
923,44	-21,59
923,649	-22,67
923,858	-23,96
924,067	-23,49
924,277	-25,62
924,486	-23,66
924,695	-24,5
924,904	-21,44
925,113	-20,99
925,322	-19,25
925,531	-18,15
925,74	-21,14
925,949	-23,47
926,158	-19,61
926,367	-18,3
926,576	-18,23
926,785	-18,8
926,994	-20,95
927,203	-19,27
927,412	-20,47
927,621	-21,78
927,83	-19,43
928,038	-19,29
928,247	-18,83
928,456	-18,04
928,665	-17,61
928,873	-14,01
929,082	-11,69
929,291	-11,3
929,499	-9,72
929,708	-10,02
929,916	-8,87
930,125	-9,67
930,333	-9,99
930,542	-6,71
930,75	-4,22
930,959	-3,5
931,167	-3,13
931,376	-3,77
931,584	-2,89
931,793	-2,92
932,001	-2,79
932,209	-3,52
932,418	-5,63
932,626	-8,06
932,834	-9,79
933,042	-12,68
933,251	-11,85
933,459	-11,38
933,667	-12,16
933,875	-11,62
934,083	-9,72
934,291	-8,9
934,499	-8,59
934,707	-10,73
934,915	-10,17
935,123	-8,66
935,331	-10,43
935,539	-13,22
935,747	-14,69
935,955	-16,45
936,163	-14,93
936,371	-13,79
936,579	-11,29
936,787	-11,65
936,995	-14,3
937,202	-15,51
937,41	-16,02
937,618	-16,42
937,826	-16,26
938,033	-21,46
938,241	-23,47
938,449	-21,36
938,656	-20,04
938,864	-18,99
939,071	-18,44
939,279	-14,4
939,486	-11,04
939,694	-11,27
939,901	-11,72
940,109	-11,71
940,316	-11,33
940,524	-12,17
940,731	-13,42
940,939	-12,53
941,146	-11,59
941,353	-11,93
941,561	-11,37
941,768	-12,55
941,975	-9,98
942,182	-11,01
942,39	-9,62
942,597	-8,36
942,804	-9,85
943,011	-10,38
943,218	-10,09
943,425	-10,25
943,632	-9,71
943,839	-11,07
944,046	-11,83
944,253	-12,38
944,46	-11,19
944,667	-6,89
944,874	-8,07
945,081	-6,16
945,288	-4,85
945,495	-2,08
945,702	-3,73
945,909	-6,38
946,115	-7,2
946,322	-8,95
946,529	-11,65
946,736	-11,27
946,942	-9,04
947,149	-10,81
947,356	-11,25
947,562	-13,18
947,769	-13,77
947,976	-14,74
948,182	-13,05
948,389	-14,57
948,595	-13,24
948,802	-14,73
949,008	-16,1
949,215	-14,63
949,421	-14,52
949,628	-15,26
949,834	-14,21
950,04	-15,87
950,247	-11,81
950,453	-8,95
950,659	-9,71
950,865	-7,18
951,072	-12,69
951,278	-10,25
951,484	-12,51
951,69	-15,85
951,896	-18,13
952,103	-20,05
952,309	-17,63
952,515	-16,55
952,721	-13,53
952,927	-11,8
953,133	-14,18
953,339	-15,96
953,545	-15,58
953,751	-15,08
953,957	-12,5
954,163	-14,55
954,369	-13,93
954,574	-15,79
954,78	-16,51
954,986	-15,76
955,192	-13,05
955,398	-14,63
955,603	-17,71
955,809	-16,09
956,015	-14,99
956,22	-14,56
956,426	-13,94
956,632	-16,5
956,837	-16,73
957,043	-15,38
957,248	-14,96
957,454	-13,16
957,66	-16,16
957,865	-15,74
958,07	-13,94
958,276	-15,05
958,481	-15,07
958,687	-16,62
958,892	-17,31
959,097	-19,04
959,303	-18,3
959,508	-17,33
959,713	-17,68
959,919	-17,81
960,124	-18,22
960,329	-18,68
960,534	-14,39
960,739	-13,49
960,945	-11,34
961,15	-10,9
961,355	-12,81
961,56	-16,42
961,765	-16,52
961,97	-16,54
962,175	-15,26
962,38	-18,86
962,585	-17,84
962,79	-18,8
962,995	-20,15
963,2	-22,93
963,404	-24,53
963,609	-27,3
963,814	-29,15
964,019	-31,61
964,224	-34,33
964,428	-32,64
964,633	-30,82
964,838	-29,58
965,042	-28,96
965,247	-29,85
965,452	-29,29
965,656	-29,02
965,861	-28,2
966,066	-29,88
966,27	-28,91
966,475	-25,05
966,679	-27,79
966,884	-28,23
967,088	-31,24
967,292	-32,53
967,497	-30,53
967,701	-30,96
967,906	-28,13
968,11	-24,55
968,314	-19,63
968,518	-21,59
968,723	-17,87
968,927	-18,02
969,131	-16,09
969,335	-13,35
969,539	-12,34
969,744	-10,07
969,948	-6,57
970,152	-3
970,356	-1,79
970,56	0,36
970,764	-1,06
970,968	1,61
971,172	1,5
971,376	1,02
971,58	3,75
971,784	5,13
971,988	3,56
972,192	6,69
972,395	7,3
972,599	5,09
972,803	1,64
973,007	2,69
973,21	2,14
973,414	2,72
973,618	3,89
973,822	3,5
974,025	3,76
974,229	2,72
974,432	-1,55
974,636	-4,55
974,84	-4,01
975,043	-4,33
975,247	-6,98
975,45	-8,37
975,654	-7,28
975,857	-5,05
976,06	-5,51
976,264	-7,35
976,467	-7,07
976,671	-7,15
976,874	-5,3
977,077	-6,12
977,28	-7,58
977,484	-10,78
977,687	-11,08
977,89	-10,31
978,093	-12,26
978,297	-9,73
978,5	-11,93
978,703	-9,91
978,906	-8,44
979,109	-7,74
979,312	-5,93
979,515	-6,16
979,718	-6,69
979,921	-7,78
980,124	-9,93
980,327	-9,4
980,53	-9,72
980,733	-7,21
980,936	-6,05
981,138	-7,8
981,341	-7,38
981,544	-6,4
981,747	-7,81
981,949	-10,13
982,152	-10,66
982,355	-11,42
982,558	-7,3
982,76	-10,44
982,963	-11,67
983,165	-12,58
983,368	-12,06
983,571	-13,24
983,773	-7,87
983,976	-7,51
984,178	-6,55
984,381	-5,86
984,583	-10,21
984,785	-11,27
984,988	-9,45
985,19	-7,89
985,392	-9,14
985,595	-12,51
985,797	-11,89
985,999	-8,95
986,202	-7,3
986,404	-8,04
986,606	-5,27
986,808	-6,78
987,01	-4,84
987,212	-4,47
987,415	-6,45
987,617	-6,85
987,819	-7,57
988,021	-6,32
988,223	-7,81
988,425	-8,44
988,627	-8,93
988,829	-15,05
989,031	-12,74
989,232	-11,57
989,434	-10,22
989,636	-9,52
989,838	-9,3
990,04	-10,74
990,242	-11,36
990,443	-14,67
990,645	-12,71
990,847	-8,73
991,048	-8,18
991,25	-10,3
991,452	-11,78
991,653	-12,62
991,855	-11,35
992,057	-11,96
992,258	-11,36
992,46	-11,73
992,661	-9,65
992,863	-12,16
993,064	-10,61
993,265	-12,04
993,467	-13,4
993,668	-10,21
993,87	-9,58
994,071	-9,33
994,272	-7,89
994,473	-6,45
994,675	-5,19
994,876	-3,93
995,077	-3,05
995,278	-3,44
995,48	-4,03
995,681	-7,23
995,882	-6,3
996,083	-7,6
996,284	-10,13
996,485	-9,5
996,686	-10,35
996,887	-11,81
997,088	-16,47
997,289	-17,89
997,49	-18,68
997,691	-16,96
997,892	-15,78
998,092	-10,91
998,293	-10,06
998,494	-11,55
998,695	-11,89
998,896	-10,47
999,096	-10,16
999,297	-9,93
999,498	-12,6
999,698	-13,97
999,899	-17,71
1000,1	-20,24
1000,3	-20,33
1000,501	-22,04
1000,701	-21,81
1000,902	-23,36
1001,102	-23
1001,303	-21,85
1001,503	-23,58
1001,704	-23,83
1001,904	-23,95
1002,105	-24,41
1002,305	-23,17
1002,505	-24,25
1002,706	-25,75
1002,906	-25,43
1003,106	-26,71
1003,306	-24,64
1003,507	-22,57
1003,707	-22,62
1003,907	-20,9
1004,107	-20,63
1004,307	-23,32
1004,507	-22,98
1004,707	-24,03
1004,907	-26,65
1005,107	-27,17
1005,308	-27,52
1005,507	-28,59
1005,707	-26,12
1005,907	-25,88
1006,107	-21,69
1006,307	-19,23
1006,507	-19,9
1006,707	-18,4
1006,907	-16,93
1007,106	-17,21
1007,306	-18,99
1007,506	-18,35
1007,706	-17,42
1007,905	-17,91
1008,105	-14,96
1008,305	-15,58
1008,504	-15,5
1008,704	-9,41
1008,903	-7,76
1009,103	-5,46
1009,303	-6,06
1009,502	-5,16
1009,702	-5,84
1009,901	-4,55
1010,1	-7,22
1010,3	-5,58
1010,499	-7,38
1010,699	-9,06
1010,898	-9,82
1011,097	-8,11
1011,296	-7,9
1011,496	-8,51
1011,695	-8,94
1011,894	-10,34
1012,093	-7,95
1012,293	-8,97
1012,492	-9,14
1012,691	-9,33
1012,89	-9,7
1013,089	-13,42
1013,288	-11,17
1013,487	-10,06
1013,686	-9,91
1013,885	-11,25
1014,084	-11,26
1014,283	-13,01
1014,482	-14,19
1014,681	-14,31
1014,88	-19,37
1015,078	-17,77
1015,277	-20,11
1015,476	-21,15
1015,675	-21,8
1015,873	-20,71
1016,072	-24,18
1016,271	-21,38
1016,47	-24,52
1016,668	-24,04
1016,867	-25,41
1017,065	-25,68
1017,264	-26,72
1017,463	-28,04
1017,661	-27,58
1017,86	-28,47
1018,058	-27,99
1018,256	-30,42
1018,455	-31,97
1018,653	-31,82
1018,852	-30,89
1019,05	-32,61
1019,248	-33,51
1019,447	-35,22
1019,645	-35,5
1019,843	-36,9
1020,041	-35,84
1020,24	-36,19
1020,438	-31,73
1020,636	-31,85
1020,834	-34,23
1021,032	-31,36
1021,23	-32,06
1021,428	-30,06
1021,626	-25,67
1021,824	-24,05
1022,022	-26,18
1022,22	-22,9
1022,418	-22,95
1022,616	-24,34
1022,814	-25
1023,012	-24,51
1023,21	-23,07
1023,408	-24,1
1023,606	-23,24
1023,803	-17,64
1024,001	-16,16
1024,199	-18,27
1024,397	-17,07
1024,594	-16,01
1024,792	-17,59
1024,99	-16,19
1025,187	-16,22
1025,385	-11,65
1025,582	-11,51
1025,78	-11,25
1025,977	-10,62
1026,175	-10,75
1026,372	-9,15
1026,57	-13,68
1026,767	-10,91
1026,965	-9,99
1027,162	-9,8
1027,359	-12,06
1027,557	-12,72
1027,754	-16,95
1027,951	-18,56
1028,148	-15,59
1028,346	-17,85
1028,543	-20,6
1028,74	-19,94
1028,937	-21,71
1029,134	-21,14
1029,331	-21,16
1029,528	-19,68
1029,725	-20,92
1029,923	-25,84
1030,12	-22,52
1030,317	-22,26
1030,513	-20,26
1030,71	-18,93
1030,907	-17,2
1031,104	-18,87
1031,301	-19,37
1031,498	-19,7
1031,695	-20,25
1031,892	-21,8
1032,088	-20,82
1032,285	-22,61
1032,482	-24,26
1032,678	-25,37
1032,875	-26,62
1033,072	-25,93
1033,268	-26,26
1033,465	-24,34
1033,662	-25,82
1033,858	-24,67
1034,055	-24,2
1034,251	-21,88
1034,448	-21,89
1034,644	-22,38
1034,84	-19,31
1035,037	-15,17
1035,233	-15,85
1035,43	-14,45
1035,626	-14,24
1035,822	-13,25
1036,019	-14,21
1036,215	-18,45
1036,411	-17,71
1036,607	-20,8
1036,803	-24,07
1037	-25,37
1037,196	-25,65
1037,392	-25,48
1037,588	-28,09
1037,784	-26,59
1037,98	-26,63
1038,176	-27,89
1038,372	-27,9
1038,568	-25,28
1038,764	-23,84
1038,96	-22,73
1039,156	-24,65
1039,352	-26,02
1039,547	-25,08
1039,743	-23,62
1039,939	-20,59
1040,135	-21,79
1040,331	-25,4
1040,526	-22,86
1040,722	-23,47
1040,918	-25,41
1041,113	-28,87
1041,309	-29,18
1041,505	-32,23
1041,7	-31,8
1041,896	-32,35
1042,091	-32,19
1042,287	-31,19
1042,482	-30,36
1042,678	-29,66
1042,873	-28,29
1043,069	-28,5
1043,264	-28,21
1043,459	-27,16
1043,655	-26
1043,85	-27,8
1044,045	-26,18
1044,24	-25,74
1044,436	-22,76
1044,631	-24,53
1044,826	-25,21
1045,021	-27,42
1045,216	-24,53
