Data from FLMT021711__18__18-15-33-687.txt Node

Date: Tue Nov 05 18:15:33 CET 2024
User: Etudiants TP
Spectrometer: FLMT02171
Trigger mode: 0
Integration Time (sec): 1,000000E-1
Scans to average: 5
Electric dark correction enabled: true
Nonlinearity correction enabled: false
Boxcar width: 15
XAxis mode: Wavelengths
Number of Pixels in Spectrum: 3648
>>>>>Begin Spectral Data<<<<<
194,658	-73,12
194,923	-68,55
195,188	-61,75
195,453	-61,34
195,717	-54,55
195,982	-52,33
196,247	-50,47
196,512	-53,76
196,777	-52,33
197,042	-50,07
197,307	-49,72
197,572	-44,62
197,837	-44,59
198,101	-40,85
198,366	-38,79
198,631	-36,6
198,896	-29,58
199,161	-20,53
199,425	-12,7
199,69	-2,02
199,955	-1,84
200,22	-5,44
200,484	-5,22
200,749	-5,48
201,014	-5,64
201,278	-4,79
201,543	-3,91
201,807	-5,97
202,072	-4,28
202,337	-3,41
202,601	-2,92
202,866	-4,47
203,13	-4,18
203,395	-5,59
203,659	-4,54
203,924	-6,67
204,189	-5,96
204,453	-4,76
204,717	-0,92
204,982	1,27
205,246	2,15
205,511	3,95
205,775	2,57
206,04	7,41
206,304	6,91
206,568	9,5
206,833	9,32
207,097	9,95
207,361	10,75
207,626	14,67
207,89	15,64
208,154	15,65
208,419	17,42
208,683	16,69
208,947	19,36
209,211	19,66
209,476	19,58
209,74	20,2
210,004	20,21
210,268	20,94
210,532	22,87
210,796	22,18
211,061	22,81
211,325	22,23
211,589	20,91
211,853	21,82
212,117	22,68
212,381	22,64
212,645	22,35
212,909	22,07
213,173	18,63
213,437	18,9
213,701	18,81
213,965	19,96
214,229	14,83
214,493	14,62
214,757	13,03
215,021	13,77
215,285	18,74
215,549	18,68
215,813	16,66
216,077	15,33
216,34	16,76
216,604	15,79
216,868	16,19
217,132	17,5
217,396	16,92
217,659	16,53
217,923	12,03
218,187	12,11
218,451	9,94
218,714	6,87
218,978	8,15
219,242	11,23
219,505	13,55
219,769	14,34
220,033	13,71
220,296	13,43
220,56	14,1
220,824	12,27
221,087	13,03
221,351	14,07
221,614	14,33
221,878	16,09
222,142	15
222,405	15,98
222,669	18,14
222,932	13,58
223,196	11,37
223,459	7,21
223,722	9,51
223,986	7,58
224,249	6,48
224,513	6,62
224,776	7,08
225,04	7,6
225,303	6,28
225,566	6,91
225,83	9,01
226,093	12,23
226,356	10,82
226,62	10,46
226,883	12,8
227,146	13,42
227,409	12,87
227,673	9,08
227,936	8,09
228,199	9,25
228,462	8,92
228,725	7,97
228,989	8,85
229,252	9,25
229,515	13,77
229,778	12,34
230,041	10,57
230,304	6,14
230,567	7,02
230,83	3,85
231,093	7,84
231,356	7,81
231,619	14,12
231,882	12,98
232,145	15,09
232,408	13,64
232,671	12,6
232,934	12,64
233,197	9,64
233,46	9,06
233,723	10,98
233,986	8,48
234,249	6,74
234,512	10,14
234,775	14,74
235,037	14,26
235,3	13,42
235,563	12,23
235,826	14,76
236,089	18,02
236,351	16,44
236,614	17,98
236,877	18,99
237,14	21,72
237,402	22,03
237,665	15,2
237,928	14,49
238,19	12,63
238,453	17,55
238,716	17,03
238,978	17,29
239,241	15,59
239,503	16,55
239,766	12,31
240,029	10,98
240,291	14,11
240,554	14,89
240,816	13,76
241,079	13,77
241,341	13,92
241,604	12,44
241,866	8,91
242,129	11,22
242,391	13,35
242,653	10,63
242,916	8,84
243,178	8,8
243,441	9,46
243,703	8,78
243,965	5,98
244,228	4,56
244,49	4,82
244,752	5,51
245,015	5,03
245,277	5,37
245,539	3,55
245,801	6,35
246,064	5,91
246,326	5,31
246,588	4,97
246,85	6,8
247,112	8,09
247,374	10,62
247,637	13,64
247,899	12,2
248,161	12,56
248,423	7,91
248,685	9,72
248,947	9,94
249,209	10,62
249,471	11,97
249,733	13,42
249,995	10,91
250,257	10,27
250,519	8,1
250,781	11,88
251,043	9,13
251,305	9,99
251,567	11,95
251,829	12,08
252,091	12,28
252,353	9,54
252,615	9,58
252,876	6,8
253,138	5,03
253,4	1,06
253,662	2,95
253,924	4,04
254,185	5,56
254,447	6,84
254,709	6,08
254,971	7,49
255,232	8,76
255,494	6,65
255,756	4,16
256,017	4,64
256,279	5,15
256,541	5,6
256,802	4,61
257,064	6,77
257,326	5,56
257,587	6,65
257,849	7,51
258,11	11,41
258,372	12,25
258,633	14,23
258,895	12,99
259,156	11,7
259,418	11,34
259,679	6,16
259,941	5,08
260,202	8,3
260,464	10,18
260,725	9,73
260,987	9,93
261,248	10,08
261,509	10,14
261,771	8,7
262,032	10,33
262,293	8,77
262,555	7,86
262,816	6,36
263,077	4,11
263,338	1,69
263,6	2,09
263,861	2,02
264,122	2,15
264,383	4,25
264,645	5,88
264,906	3,75
265,167	3,6
265,428	2,39
265,689	4,28
265,95	2,76
266,211	4,08
266,473	3,65
266,734	-1,03
266,995	-4,96
267,256	-2,99
267,517	-1,23
267,778	3,21
268,039	4,89
268,3	3,28
268,561	1,57
268,822	4,68
269,083	1,93
269,344	1,01
269,604	1,14
269,865	0,93
270,126	-3,25
270,387	-0,58
270,648	1,34
270,909	1,09
271,17	-0,03
271,43	-2,12
271,691	-5,12
271,952	-4,93
272,213	-3,99
272,473	-7,35
272,734	-7,01
272,995	-4,5
273,256	-4,92
273,516	-1,48
273,777	-5,74
274,038	-4,57
274,298	-8,12
274,559	-9,82
274,82	-4,19
275,08	-0,83
275,341	1,16
275,601	-0,53
275,862	-2,96
276,122	-2,97
276,383	-3,24
276,643	-0,62
276,904	-2,73
277,164	1,78
277,425	1,52
277,685	4,96
277,946	5,93
278,206	7,29
278,467	8,48
278,727	8,31
278,987	8,26
279,248	7,65
279,508	9,38
279,768	12,61
280,029	13,72
280,289	10,88
280,549	10,73
280,81	10,06
281,07	8,98
281,33	11,78
281,59	10,11
281,851	14,03
282,111	13,21
282,371	12,54
282,631	13,85
282,891	11,78
283,151	10,44
283,412	7,8
283,672	7,65
283,932	8,55
284,192	10,66
284,452	8,77
284,712	5,36
284,972	4,01
285,232	0,46
285,492	3,75
285,752	1,26
286,012	6,65
286,272	9,27
286,532	5,89
286,792	5,9
287,052	7,11
287,312	7,55
287,571	5,48
287,831	5,92
288,091	2,92
288,351	3,82
288,611	8,84
288,871	8,59
289,13	9,21
289,39	3,49
289,65	4,82
289,91	1,25
290,17	2,7
290,429	6,62
290,689	4,34
290,949	1,43
291,208	2,78
291,468	6,11
291,728	7,77
291,987	9,77
292,247	6,75
292,506	9,9
292,766	12,38
293,026	12,25
293,285	13,85
293,545	16,66
293,804	16,45
294,064	13,42
294,323	9,72
294,583	10,96
294,842	11,23
295,102	12,22
295,361	13,42
295,621	14,93
295,88	14,84
296,139	13,56
296,399	15,03
296,658	8,32
296,917	9,36
297,177	6,05
297,436	8,25
297,695	6,98
297,955	8,98
298,214	8,53
298,473	9,3
298,732	12,51
298,992	16,95
299,251	16,24
299,51	13,09
299,769	13,12
300,028	12,7
300,287	13,71
300,547	12,64
300,806	10,46
301,065	14,04
301,324	15,32
301,583	9,67
301,842	7,14
302,101	4,21
302,36	5,31
302,619	3,81
302,878	4,9
303,137	1,49
303,396	3
303,655	4,21
303,914	1,9
304,173	2,76
304,432	1,89
304,691	5,67
304,95	2,76
305,208	9,04
305,467	10,25
305,726	8,38
305,985	8,98
306,244	10,42
306,503	10,06
306,761	9,11
307,02	5,75
307,279	6,96
307,537	7,26
307,796	4,13
308,055	1,7
308,314	3,06
308,572	2,04
308,831	3,73
309,09	3,28
309,348	5,57
309,607	6,2
309,865	10,48
310,124	9,85
310,382	12,09
310,641	14,88
310,9	13,8
311,158	14,55
311,417	13,98
311,675	13,89
311,933	13,33
312,192	15,44
312,45	14,88
312,709	15,05
312,967	15,13
313,226	13,3
313,484	12,36
313,742	11,34
314,001	9,76
314,259	7,04
314,517	6,95
314,776	7,21
315,034	8,8
315,292	6,7
315,55	6,01
315,809	5,47
316,067	6,26
316,325	5,1
316,583	5,8
316,841	4,79
317,1	2,57
317,358	-1,93
317,616	-2,32
317,874	-3,41
318,132	-3,63
318,39	-4,56
318,648	-6,63
318,906	-7,93
319,164	-6,55
319,422	-7,71
319,68	-9,61
319,938	-7,95
320,196	-8,2
320,454	-6,13
320,712	-6,94
320,97	-7,29
321,228	-9,19
321,486	-8,18
321,744	-6,02
322,002	-3,46
322,26	-3,78
322,517	-3,92
322,775	-5,65
323,033	-6,51
323,291	-4,42
323,549	-4,25
323,806	-1,68
324,064	-1,21
324,322	-0,78
324,58	-1,8
324,837	1,03
325,095	-0,53
325,353	1,02
325,61	1,58
325,868	0,52
326,126	3,64
326,383	1,93
326,641	1,8
326,898	3,04
327,156	2,72
327,413	2,63
327,671	4,24
327,928	6,11
328,186	5,73
328,443	3,3
328,701	6,78
328,958	8,12
329,216	9,13
329,473	7,11
329,731	7,41
329,988	6,95
330,245	8,89
330,503	8,8
330,76	10,36
331,017	12,49
331,275	9,22
331,532	10,07
331,789	7,88
332,047	7,36
332,304	3,47
332,561	3,49
332,818	1,98
333,076	3,96
333,333	4,29
333,59	5,17
333,847	6,71
334,104	4,37
334,361	4,33
334,618	2,27
334,876	-0,39
335,133	-0,18
335,39	-1,43
335,647	-0,47
335,904	-4,18
336,161	-6,25
336,418	-5,68
336,675	-9,93
336,932	-7,81
337,189	-9,09
337,446	-7,02
337,703	-8,39
337,96	-11,23
338,216	-10,87
338,473	-12,46
338,73	-13,2
338,987	-13,73
339,244	-11,07
339,501	-12,37
339,757	-11,13
340,014	-10,61
340,271	-7,37
340,528	-5,74
340,785	-1,77
341,041	-1,44
341,298	-4,21
341,555	-4,13
341,811	-6,23
342,068	-8,76
342,325	-9,06
342,581	-5,71
342,838	-3,54
343,094	-3,93
343,351	-3,73
343,608	-6,4
343,864	-4,53
344,121	-3,97
344,377	-5,03
344,634	-5,59
344,89	-7,98
345,147	-7,85
345,403	-9,1
345,66	-9,16
345,916	-7,93
346,172	-9,83
346,429	-10,16
346,685	-12,41
346,942	-12,25
347,198	-15,01
347,454	-13,96
347,711	-14
347,967	-17,77
348,223	-17,5
348,48	-17,59
348,736	-13,94
348,992	-14,61
349,248	-11,99
349,504	-11,85
349,761	-10,41
350,017	-8,32
350,273	-6,99
350,529	-8,19
350,785	-8,01
351,041	-8,14
351,297	-6,52
351,554	-7,37
351,81	-8,9
352,066	-8,7
352,322	-7,48
352,578	-6,28
352,834	-6,11
353,09	-6,56
353,346	-7,35
353,602	-7,75
353,858	-9,05
354,114	-10,52
354,369	-9,27
354,625	-6,29
354,881	-7,96
355,137	-5,64
355,393	-4,96
355,649	-5,12
355,905	-3,06
356,16	-3,65
356,416	-2,84
356,672	-10,6
356,928	-10,02
357,183	-10,76
357,439	-11,38
357,695	-12,48
357,951	-8,46
358,206	-10,1
358,462	-10,52
358,718	-12,62
358,973	-11,63
359,229	-11,88
359,484	-11,25
359,74	-7,72
359,996	-8,41
360,251	-5,19
360,507	-5,73
360,762	-6,51
361,018	-2,96
361,273	-3,46
361,529	-1,7
361,784	-0,35
362,04	2,62
362,295	1,8
362,55	2,54
362,806	5,11
363,061	5,46
363,316	4,98
363,572	6,23
363,827	7,97
364,082	5,5
364,338	4,5
364,593	5,19
364,848	6,44
365,104	6,16
365,359	9,76
365,614	10,06
365,869	6,35
366,124	8,23
366,38	7,82
366,635	10,32
366,89	11,59
367,145	11,16
367,4	15,05
367,655	14,62
367,91	16,67
368,165	14,28
368,42	11,87
368,675	14,06
368,93	14,47
369,185	11,25
369,44	10,63
369,695	12,46
369,95	10,39
370,205	9,61
370,46	8,2
370,715	8,2
370,97	9,47
371,225	9,43
371,48	10,37
371,734	10,59
371,989	12,55
372,244	13,4
372,499	14,06
372,754	12,13
373,008	9,52
373,263	3,95
373,518	7,04
373,773	7,41
374,027	4,91
374,282	7,18
374,537	7,92
374,791	8,51
375,046	7,43
375,301	6,35
375,555	4,11
375,81	4,68
376,064	5,66
376,319	9,75
376,573	7,73
376,828	2,58
377,082	8,27
377,337	5,46
377,591	2,46
377,846	3,3
378,1	6,49
378,355	6,61
378,609	5,23
378,863	2,49
379,118	4,65
379,372	2,59
379,627	1,25
379,881	0,02
380,135	-0,81
380,389	-0,73
380,644	-0,12
380,898	1,45
381,152	3,94
381,407	3,28
381,661	4,48
381,915	6,44
382,169	7,75
382,423	5,4
382,677	1,85
382,932	3,13
383,186	3,56
383,44	5,08
383,694	6,82
383,948	3,19
384,202	1,04
384,456	4,3
384,71	5,62
384,964	3,92
385,218	7,84
385,472	8
385,726	7,86
385,98	7,04
386,234	7,05
386,488	4,27
386,742	5,1
386,996	2,49
387,249	3,48
387,503	5,37
387,757	5,91
388,011	6,93
388,265	7,98
388,518	8,74
388,772	10,23
389,026	11,13
389,28	9,07
389,533	8,23
389,787	10,03
390,041	7,28
390,295	7,32
390,548	7,39
390,802	9,78
391,055	8,76
391,309	8,05
391,563	4,39
391,816	7,98
392,07	7,47
392,323	6,94
392,577	8,92
392,83	10,88
393,084	15,43
393,337	19,63
393,591	20,35
393,844	20,75
394,098	24,88
394,351	28,91
394,604	31,08
394,858	32,88
395,111	32,27
395,364	28,83
395,618	31,29
395,871	28,73
396,124	26,57
396,378	25,98
396,631	26,03
396,884	22,8
397,137	22,53
397,391	23,06
397,644	19,03
397,897	18,88
398,15	20,53
398,403	23,72
398,657	21,83
398,91	19,01
399,163	20,26
399,416	21,73
399,669	19,82
399,922	19,31
400,175	19,35
400,428	20,98
400,681	22,77
400,934	22,27
401,187	25,21
401,44	28,24
401,693	28,53
401,946	26,28
402,199	22,93
402,452	22,38
402,704	19,19
402,957	19,07
403,21	23,72
403,463	21,8
403,716	24,25
403,969	26,17
404,221	26,57
404,474	28,53
404,727	31,56
404,98	33,65
405,232	33,65
405,485	37,1
405,738	39,14
405,99	39,2
406,243	40,38
406,496	42,96
406,748	45,25
407,001	43,55
407,253	44,2
407,506	43,6
407,759	44,25
408,011	40,4
408,264	38,98
408,516	37,52
408,769	30,84
409,021	26,94
409,274	23,12
409,526	23,47
409,778	20,97
410,031	24,23
410,283	23,1
410,536	27,94
410,788	26,37
411,04	24,39
411,293	26,77
411,545	26,45
411,797	25,61
412,049	24,93
412,302	25,62
412,554	26,26
412,806	24,62
413,058	23,98
413,311	23,55
413,563	21,81
413,815	20,99
414,067	17,9
414,319	15,55
414,571	14,93
414,823	12,77
415,075	11,63
415,328	13,05
415,58	15,24
415,832	16,34
416,084	15,52
416,336	13,4
416,588	17,24
416,84	14,15
417,091	17,65
417,343	13,03
417,595	14,4
417,847	14,49
418,099	15,76
418,351	14,44
418,603	17,74
418,855	18,89
419,106	17,38
419,358	17,85
419,61	16,75
419,862	18,58
420,114	16,29
420,365	15,88
420,617	15,99
420,869	13,21
421,12	12,86
421,372	14,93
421,624	14,95
421,875	16,05
422,127	14,1
422,379	14,94
422,63	17,78
422,882	16,29
423,133	15,79
423,385	16,76
423,636	18,25
423,888	20,31
424,139	22,33
424,391	19,29
424,642	18,93
424,894	16,14
425,145	17,79
425,396	15,95
425,648	17,26
425,899	13,88
426,151	13,54
426,402	12,21
426,653	12,34
426,905	11,17
427,156	8,5
427,407	8,91
427,658	6,54
427,91	3,83
428,161	2,7
428,412	5,16
428,663	6,54
428,914	6,62
429,166	6,78
429,417	7,3
429,668	5,17
429,919	2,59
430,17	2,39
430,421	3,1
430,672	7,29
430,923	7,6
431,174	7,22
431,425	11,28
431,676	15,59
431,927	19,93
432,178	31,81
432,429	41,64
432,68	48,55
432,931	57,59
433,182	65,2
433,433	65,4
433,683	69,2
433,934	69,58
434,185	69,1
434,436	66,83
434,687	68,68
434,937	70,72
435,188	68,29
435,439	67,47
435,69	69,49
435,94	70,08
436,191	69,34
436,442	69,21
436,692	69,12
436,943	66,24
437,194	64,54
437,444	66,55
437,695	70,57
437,945	69,73
438,196	67,92
438,447	66,17
438,697	65,84
438,948	63,82
439,198	56,77
439,449	48,16
439,699	43,29
439,949	32,71
440,2	23,29
440,45	17,13
440,701	9,19
440,951	3,69
441,201	0,3
441,452	-1,87
441,702	-2,94
441,952	-3,56
442,203	-3,21
442,453	-4,06
442,703	-4,61
442,953	-2,51
443,204	-0,95
443,454	-3,14
443,704	-4,34
443,954	-7,76
444,204	-7,2
444,455	-5,99
444,705	-4,77
444,955	-5,54
445,205	-7,14
445,455	-10,37
445,705	-10,15
445,955	-9,76
446,205	-10
446,455	-10,12
446,705	-9,49
446,955	-8,18
447,205	-7,75
447,455	-7,76
447,705	-9,49
447,955	-10,79
448,205	-10,13
448,454	-10,42
448,704	-9,93
448,954	-11,1
449,204	-11,25
449,454	-11,01
449,704	-12,56
449,953	-13,13
450,203	-12,02
450,453	-14,75
450,703	-11,79
450,952	-14,12
451,202	-11,24
451,452	-11,71
451,701	-7,53
451,951	-3,92
452,201	-4,47
452,45	-4,93
452,7	-1,93
452,949	-1,22
453,199	-0,89
453,448	1,38
453,698	1,78
453,947	-0,48
454,197	-0,87
454,446	-2,6
454,696	0,31
454,945	0,73
455,195	-0,83
455,444	0,11
455,693	4,7
455,943	1,51
456,192	2,15
456,442	1,88
456,691	2,82
456,94	2,09
457,189	0,54
457,439	3,06
457,688	4,97
457,937	4,07
458,186	5,42
458,436	2,38
458,685	3,67
458,934	1,77
459,183	2,27
459,432	3,34
459,681	3,35
459,93	2,38
460,179	2,32
460,429	-0,15
460,678	2,44
460,927	6,92
461,176	5,5
461,425	5,07
461,674	7,38
461,923	8,22
462,172	6,31
462,42	4,43
462,669	6,97
462,918	5,89
463,167	5,75
463,416	2,19
463,665	3,9
463,914	3,58
464,162	1,54
464,411	3,13
464,66	4,27
464,909	2,99
465,158	3,48
465,406	3,23
465,655	5,17
465,904	7,23
466,152	9,08
466,401	9,97
466,65	12,55
466,898	10,91
467,147	7,77
467,395	7,19
467,644	8,26
467,893	6,41
468,141	6,33
468,39	3,08
468,638	0,37
468,887	-0,99
469,135	-1,41
469,384	-0,32
469,632	-1,11
469,88	-0,08
470,129	0,93
470,377	-3,04
470,626	-0,02
470,874	1,44
471,122	3,67
471,371	2,05
471,619	0,41
471,867	4,72
472,115	4,5
472,364	2,75
472,612	6,43
472,86	5,81
473,108	6,26
473,356	5,79
473,605	6,01
473,853	2,8
474,101	1,89
474,349	-1,85
474,597	1,57
474,845	-0,43
475,093	-1,68
475,341	-4,1
475,589	-3,73
475,837	-0,92
476,085	-0,06
476,333	-2,08
476,581	-0,56
476,829	-0,56
477,077	1,32
477,325	2,15
477,573	5,6
477,821	4,82
478,069	7,88
478,317	7,53
478,564	10,85
478,812	6,93
479,06	7,14
479,308	7,44
479,555	6,85
479,803	5,25
480,051	8,26
480,299	8,33
480,546	9,06
480,794	7,61
481,042	9,54
481,289	9,35
481,537	13,83
481,784	14,32
482,032	21,58
482,28	22,6
482,527	24,36
482,775	25,52
483,022	28,92
483,27	34,91
483,517	38,6
483,765	40,52
484,012	43,18
484,259	43,67
484,507	48,1
484,754	49,69
485,002	51,69
485,249	51,26
485,496	54,9
485,744	54,9
485,991	55,16
486,238	53,08
486,486	59,86
486,733	62,72
486,98	66,52
487,227	66,18
487,474	69,93
487,722	72,82
487,969	71,09
488,216	71,52
488,463	72,39
488,71	70,1
488,957	68,74
489,204	67,28
489,451	67,64
489,699	65,3
489,946	61,88
490,193	60,99
490,44	60,24
490,687	60,15
490,934	55,78
491,18	51,09
491,427	52,28
491,674	54,47
491,921	54,73
492,168	51,86
492,415	48,44
492,662	47,89
492,909	48,16
493,155	47,12
493,402	44,21
493,649	42,61
493,896	43,58
494,142	38,08
494,389	36,31
494,636	32,26
494,883	29,49
495,129	25,45
495,376	20,96
495,623	22,53
495,869	24,58
496,116	24,74
496,362	25,4
496,609	29,15
496,855	34,32
497,102	34,75
497,348	34,55
497,595	34,99
497,841	38,86
498,088	36,37
498,334	34,97
498,581	33,11
498,827	33,02
499,074	31,88
499,32	32,59
499,566	34,59
499,813	34,94
500,059	32,24
500,305	30,91
500,552	28,5
500,798	26,28
501,044	30,98
501,29	29,13
501,537	24,59
501,783	27,21
502,029	29,89
502,275	27,93
502,521	25,63
502,767	26,41
503,013	29,76
503,26	26,14
503,506	20,1
503,752	21,17
503,998	20,15
504,244	19,27
504,49	13,83
504,736	13,98
504,982	12,29
505,228	14,31
505,474	13,13
505,72	15,48
505,966	14,26
506,211	17,5
506,457	18,3
506,703	15,62
506,949	11,77
507,195	9,39
507,441	5,37
507,686	8,01
507,932	7,17
508,178	9,67
508,424	7,12
508,669	4,98
508,915	5,29
509,161	7,86
509,406	6,36
509,652	4,44
509,898	7,63
510,143	8,68
510,389	7,7
510,634	4,04
510,88	8,2
511,125	11,19
511,371	10,79
511,616	11,19
511,862	7,99
512,107	5,69
512,353	7,32
512,598	8,01
512,844	5,26
513,089	3
513,335	1,68
513,58	0,58
513,825	0,12
514,071	-3,03
514,316	-2,69
514,561	-1,22
514,806	-4,17
515,052	-1,51
515,297	-3,11
515,542	-1,29
515,787	-1,3
516,033	2,38
516,278	1,68
516,523	0,98
516,768	0,06
517,013	-1,42
517,258	-2,01
517,503	-2,32
517,748	-1,09
517,993	-0,91
518,238	-0,3
518,483	-2,68
518,728	-2,29
518,973	-4,62
519,218	-5,88
519,463	-5,33
519,708	-5,34
519,953	-7,43
520,198	-7,89
520,443	-5,08
520,688	-1,72
520,933	-1,94
521,177	-0,06
521,422	-1,53
521,667	2,26
521,912	1,95
522,157	-1,4
522,401	3,61
522,646	4,38
522,891	5,24
523,135	5,5
523,38	6,29
523,625	3,88
523,869	6,06
524,114	7,28
524,358	5,74
524,603	6,54
524,848	5,36
525,092	5,57
525,337	6,16
525,581	9,26
525,826	10,71
526,07	11,73
526,315	12,87
526,559	13,58
526,803	12,01
527,048	16,57
527,292	16,85
527,537	16,47
527,781	16,33
528,025	12,72
528,269	12,9
528,514	13,58
528,758	12,4
529,002	11,67
529,247	15,41
529,491	16,59
529,735	22,87
529,979	22,63
530,223	24,5
530,467	22,41
530,712	21,49
530,956	21,57
531,2	23,53
531,444	22,08
531,688	24,6
531,932	26,85
532,176	28,67
532,42	31,8
532,664	34,42
532,908	35,27
533,152	34,35
533,396	36,78
533,64	39,13
533,884	39,36
534,128	42,56
534,371	48,7
534,615	54,39
534,859	59,82
535,103	67,54
535,347	74,67
535,59	84,05
535,834	90,59
536,078	103,48
536,322	116,77
536,565	136,21
536,809	151,36
537,053	173,87
537,296	197,9
537,54	229,66
537,784	264,36
538,027	308,12
538,271	349,82
538,514	392,74
538,758	437,52
539,001	481,25
539,245	523,3
539,488	565,74
539,732	606,74
539,975	645,78
540,219	684,74
540,462	722,47
540,706	760,39
540,949	794,32
541,192	830,23
541,436	872,7
541,679	920,87
541,922	977,73
542,166	1035,81
542,409	1105,64
542,652	1174,96
542,895	1248,95
543,139	1312,19
543,382	1369,25
543,625	1414,72
543,868	1453,75
544,111	1482,68
544,354	1504,55
544,598	1519,04
544,841	1525,41
545,084	1522,06
545,327	1512,35
545,57	1496,01
545,813	1478,68
546,056	1453,4
546,299	1428,1
546,542	1404,08
546,785	1381,53
547,028	1355,19
547,271	1330,26
547,514	1303,43
547,756	1275,31
547,999	1250,06
548,242	1223,91
548,485	1195,43
548,728	1166,46
548,971	1130,42
549,213	1091,58
549,456	1037,75
549,699	976,87
549,942	908,02
550,184	837,12
550,427	761,85
550,67	697,56
550,912	634,75
551,155	584,06
551,398	536,25
551,64	493,32
551,883	455,23
552,125	419,87
552,368	389,64
552,61	358,74
552,853	335,57
553,095	311,07
553,338	287,45
553,58	269,5
553,823	249,93
554,065	234,35
554,308	214,95
554,55	197,51
554,792	180,55
555,035	166,23
555,277	152,06
555,519	139,07
555,762	126,48
556,004	117,38
556,246	105,1
556,488	98,42
556,731	87,15
556,973	82,66
557,215	75,88
557,457	71,77
557,699	68,33
557,941	61,45
558,183	56,39
558,426	54,98
558,668	47,07
558,91	43,84
559,152	40,72
559,394	37,77
559,636	36,46
559,878	35,28
560,12	34,72
560,362	32,96
560,604	31,71
560,845	30,09
561,087	27,89
561,329	28,2
561,571	24,61
561,813	23,5
562,055	22,08
562,297	22,08
562,538	22,85
562,78	25,19
563,022	23,62
563,264	25,14
563,505	24,37
563,747	24,86
563,989	21,75
564,23	21,58
564,472	18,03
564,714	19,36
564,955	18,77
565,197	15,21
565,438	16,76
565,68	18,33
565,921	15,81
566,163	16,5
566,404	16,56
566,646	18,39
566,887	18,89
567,129	19,36
567,37	16,32
567,612	16,78
567,853	13,84
568,094	14,06
568,336	14,59
568,577	16,39
568,818	17,42
569,06	13,28
569,301	11,04
569,542	12,81
569,783	13,98
570,025	13,11
570,266	13,46
570,507	16,07
570,748	14,75
570,989	16,14
571,23	18,67
571,472	19,24
571,713	17,13
571,954	18,66
572,195	16,95
572,436	20,74
572,677	27,11
572,918	33,91
573,159	41,04
573,4	49,57
573,641	59,39
573,882	69,54
574,123	76,76
574,364	80,89
574,604	89,93
574,845	97,56
575,086	108,45
575,327	120,73
575,568	133,47
575,809	145,33
576,049	155,06
576,29	163,09
576,531	181,7
576,771	196,08
577,012	207,81
577,253	218,94
577,494	227,43
577,734	234,96
577,975	242,9
578,215	251,09
578,456	257,89
578,697	266,34
578,937	277,4
579,178	286,28
579,418	294,13
579,659	304,76
579,899	308,97
580,14	314,83
580,38	318,72
580,62	320,6
580,861	326,75
581,101	327,24
581,342	327,32
581,582	323,88
581,822	328,71
582,063	327,97
582,303	332,19
582,543	330,84
582,783	332,62
583,024	333,64
583,264	338,77
583,504	340,02
583,744	346,99
583,984	350,01
584,224	355,82
584,465	359,28
584,705	363,59
584,945	370,29
585,185	375,44
585,425	378,79
585,665	380
585,905	381,04
586,145	380,16
586,385	377,34
586,625	378,62
586,865	376,38
587,105	373,37
587,345	370,76
587,585	366,91
587,824	361,44
588,064	359,39
588,304	353
588,544	351,79
588,784	350,62
589,024	355,65
589,263	357,1
589,503	359,79
589,743	366,4
589,982	371,42
590,222	374,76
590,462	373,23
590,701	369,15
590,941	368,61
591,181	362,36
591,42	352,08
591,66	347,47
591,899	343,32
592,139	334,4
592,378	327,03
592,618	318,83
592,857	311,9
593,097	308,67
593,336	305,13
593,576	302,03
593,815	301,46
594,055	298,93
594,294	298,13
594,533	296,6
594,773	297,09
595,012	299,1
595,251	300,43
595,491	303,12
595,73	307,02
595,969	308,57
596,208	310,76
596,447	313,41
596,687	312,54
596,926	310,42
597,165	300,24
597,404	296,17
597,643	287,51
597,882	280,14
598,121	274,47
598,36	270,39
598,599	265,85
598,838	262,3
599,077	252,07
599,316	248,39
599,555	244,39
599,794	242,6
600,033	243,56
600,272	242,69
600,511	237,22
600,75	235,5
600,989	235,04
601,228	232,29
601,466	229,79
601,705	229,48
601,944	228,71
602,183	228,66
602,422	224,38
602,66	221,04
602,899	215,86
603,138	211,18
603,376	206,43
603,615	202,58
603,854	197,53
604,092	195,52
604,331	194,44
604,569	195,29
604,808	195,47
605,047	200,31
605,285	207,96
605,524	215,84
605,762	224,12
606	240,65
606,239	261,76
606,477	291,04
606,716	324,93
606,954	379,83
607,193	450,76
607,431	542,65
607,669	657,93
607,908	793,29
608,146	935,05
608,384	1075,62
608,622	1209,53
608,861	1333,5
609,099	1444,88
609,337	1548,01
609,575	1641,9
609,813	1728,67
610,052	1805,33
610,29	1869,66
610,528	1928,96
610,766	1981,97
611,004	2029,97
611,242	2072,27
611,48	2111,17
611,718	2143,69
611,956	2175,14
612,194	2201,28
612,432	2221,91
612,67	2236,94
612,908	2250,13
613,146	2255,62
613,384	2254,93
613,621	2247,79
613,859	2231,97
614,097	2203,02
614,335	2159,46
614,573	2095,1
614,811	2008,55
615,048	1897,59
615,286	1771,72
615,524	1636,59
615,761	1498,38
615,999	1369,94
616,237	1250,74
616,474	1143,98
616,712	1045,29
616,95	953,35
617,187	870,72
617,425	798,54
617,662	736,16
617,9	678,06
618,137	625,82
618,375	577,16
618,612	532,51
618,85	496,44
619,087	465,93
619,325	434,67
619,562	406,42
619,799	383,15
620,037	363,09
620,274	345,93
620,511	333,35
620,749	320,81
620,986	311,7
621,223	303,61
621,461	301,26
621,698	297,91
621,935	296,64
622,172	295,41
622,409	298,97
622,647	298,5
622,884	298,28
623,121	302,97
623,358	304,47
623,595	307,3
623,832	310,28
624,069	311,53
624,306	314,27
624,543	318,06
624,78	321,97
625,017	322,52
625,254	326,39
625,491	329,38
625,728	333,65
625,965	335,72
626,202	336,4
626,438	336,55
626,675	340,19
626,912	346,86
627,149	353,63
627,386	361,88
627,622	367,26
627,859	376,1
628,096	383,75
628,333	389,85
628,569	396,99
628,806	400,76
629,043	401,11
629,279	401
629,516	399,05
629,752	391,27
629,989	388,87
630,225	381,16
630,462	373,43
630,699	365,34
630,935	356,37
631,171	344,25
631,408	336,18
631,644	326,93
631,881	315,43
632,117	304,85
632,354	297,92
632,59	287,48
632,826	279,58
633,063	269,52
633,299	261,95
633,535	251,14
633,771	240,2
634,008	231,09
634,244	217,74
634,48	202,34
634,716	188,5
634,953	172,47
635,189	154,68
635,425	140,28
635,661	128,25
635,897	112,56
636,133	100,77
636,369	89,55
636,605	76,45
636,841	68,9
637,077	65,43
637,313	58,93
637,549	56,59
637,785	52,56
638,021	51,44
638,257	48,83
638,493	50,88
638,729	46,7
638,965	48,42
639,2	49,91
639,436	47,81
639,672	47,44
639,908	45,07
640,144	48,45
640,379	51,77
640,615	50
640,851	50,77
641,086	53,25
641,322	50,95
641,558	50,15
641,793	50,1
642,029	46,94
642,264	46,55
642,5	47,5
642,736	43,44
642,971	42,96
643,207	40,79
643,442	38,91
643,678	39,66
643,913	41,48
644,148	40,75
644,384	42,17
644,619	41,67
644,855	42,85
645,09	44,1
645,325	42,79
645,561	43,76
645,796	40,84
646,031	46,01
646,266	44,54
646,502	44,82
646,737	50,28
646,972	52,69
647,207	57,28
647,442	57,06
647,678	56,54
647,913	62,59
648,148	67,3
648,383	67,14
648,618	69,98
648,853	73,81
649,088	78,5
649,323	84,1
649,558	86,55
649,793	87,28
650,028	89,85
650,263	89,38
650,498	93,12
650,733	93,45
650,968	92,97
651,202	96,66
651,437	94,68
651,672	92,18
651,907	92,09
652,142	92,99
652,376	94,07
652,611	97,74
652,846	99,31
653,081	100,6
653,315	99,19
653,55	98,08
653,785	96,67
654,019	94,75
654,254	90,51
654,488	89,1
654,723	82,09
654,958	76,91
655,192	71,5
655,427	64,19
655,661	64,82
655,896	66,36
656,13	65,59
656,364	60,42
656,599	54,74
656,833	55,82
657,068	56,77
657,302	55,32
657,536	50,38
657,771	50,96
658,005	51,21
658,239	52,25
658,474	48,69
658,708	50,76
658,942	52,57
659,176	51,99
659,41	50,65
659,645	50,78
659,879	49,54
660,113	47,29
660,347	46,95
660,581	45,25
660,815	45,68
661,049	44,91
661,283	41,97
661,517	39,69
661,751	37,79
661,985	38,46
662,219	40,53
662,453	38,99
662,687	40,1
662,921	35,42
663,155	33,2
663,389	26,2
663,622	24,85
663,856	27,19
664,09	23,01
664,324	21,54
664,558	21,92
664,791	22,58
665,025	20,98
665,259	20,91
665,492	18,85
665,726	20,98
665,96	19,34
666,193	15,49
666,427	14,97
666,661	12,43
666,894	9,3
667,128	6,74
667,361	6,98
667,595	5,74
667,828	3,4
668,062	2,53
668,295	2,03
668,529	2,22
668,762	3,43
668,995	2,49
669,229	5,22
669,462	5,1
669,695	6,4
669,929	5,76
670,162	7,36
670,395	5,48
670,629	7,81
670,862	9,13
671,095	5,53
671,328	6,77
671,561	4,3
671,795	5,71
672,028	7,06
672,261	7,84
672,494	9,55
672,727	7
672,96	7,49
673,193	6,83
673,426	11,33
673,659	12,46
673,892	13,66
674,125	13,99
674,358	13,49
674,591	11,97
674,824	10,48
675,057	10,22
675,29	9,52
675,523	11,68
675,755	10,35
675,988	11,86
676,221	15,11
676,454	13,07
676,687	14,42
676,919	13,66
677,152	13,16
677,385	13,13
677,617	12,69
677,85	14,2
678,083	12,7
678,315	16,68
678,548	15,48
678,78	14,6
679,013	13,46
679,246	14,03
679,478	14,85
679,711	12,18
679,943	15,83
680,175	12,27
680,408	16,39
680,64	12,03
680,873	11,73
681,105	12,43
681,338	14,92
681,57	14,37
681,802	17,12
682,034	17,96
682,267	22,49
682,499	23,64
682,731	20,74
682,964	20,68
683,196	18,64
683,428	16,32
683,66	16,59
683,892	19,97
684,124	25,35
684,356	29,34
684,589	30,5
684,821	31,34
685,053	32,5
685,285	34,73
685,517	36,67
685,749	38,51
685,981	42,87
686,213	44,5
686,445	45,76
686,676	43,85
686,908	45,56
687,14	43,93
687,372	45,06
687,604	41,38
687,836	43,67
688,068	43,39
688,299	42,47
688,531	40,22
688,763	44,02
688,995	41,86
689,226	45,57
689,458	42,73
689,69	41,18
689,921	40,43
690,153	41,1
690,384	43,44
690,616	42,07
690,848	43,16
691,079	39,21
691,311	34,27
691,542	30,64
691,774	28,19
692,005	29,08
692,237	30,31
692,468	28,45
692,699	26,07
692,931	24,85
693,162	19,98
693,393	17,78
693,625	15,64
693,856	15,05
694,087	14,45
694,319	16,18
694,55	15,67
694,781	16,13
695,012	14,63
695,243	12,66
695,475	12,14
695,706	12,11
695,937	11,49
696,168	9,99
696,399	6,34
696,63	6,49
696,861	5,76
697,092	10,44
697,323	12,88
697,554	12,63
697,785	12,89
698,016	13,99
698,247	11,24
698,478	11,5
698,709	13,34
698,94	15,76
699,171	15,24
699,401	10,94
699,632	13,26
699,863	9,72
700,094	8,65
700,325	13,05
700,555	14,86
700,786	16,5
701,017	18,34
701,247	17,46
701,478	18,1
701,709	19,36
701,939	19,34
702,17	22,53
702,401	27,43
702,631	29,47
702,862	31,05
703,092	31,49
703,323	38,79
703,553	45,31
703,784	49,54
704,014	55,36
704,244	54,52
704,475	58,01
704,705	62,07
704,936	66,88
705,166	70,56
705,396	77,87
705,627	84,06
705,857	90,12
706,087	95,06
706,317	98,45
706,548	102,38
706,778	104,56
707,008	109,49
707,238	115,29
707,468	114,87
707,698	113,94
707,928	114,3
708,158	113,98
708,389	116,8
708,619	118,45
708,849	120,18
709,079	124,12
709,309	125,11
709,539	125,25
709,768	129,87
709,998	133,49
710,228	132,49
710,458	130,27
710,688	125,85
710,918	123,51
711,148	119,14
711,378	116,24
711,607	111,09
711,837	108,18
712,067	104,61
712,297	98,51
712,526	92,96
712,756	88,55
712,986	79,48
713,215	71,88
713,445	67,12
713,674	61,89
713,904	57,54
714,134	56,42
714,363	51,09
714,593	48,26
714,822	46,97
715,052	45,19
715,281	44,14
715,511	40,1
715,74	36,12
715,969	31,42
716,199	26,28
716,428	22,69
716,657	17,73
716,887	15,17
717,116	7,96
717,345	7,51
717,575	4,48
717,804	1,72
718,033	-1,91
718,262	-3,44
718,492	-3,22
718,721	-3,94
718,95	-5,28
719,179	-8,02
719,408	-8,39
719,637	-11,03
719,866	-14,37
720,095	-12,65
720,324	-13,22
720,553	-17,35
720,782	-17,93
721,011	-17,82
721,24	-19,26
721,469	-19,98
721,698	-20,67
721,927	-21,41
722,156	-22,59
722,385	-23,61
722,613	-20,06
722,842	-18,89
723,071	-12,93
723,3	-11,05
723,529	-12,58
723,757	-11,16
723,986	-15,43
724,215	-15,94
724,443	-15,5
724,672	-13,68
724,901	-12,67
725,129	-9,15
725,358	-6,55
725,586	-10,37
725,815	-9,95
726,043	-11,73
726,272	-13,12
726,5	-13,32
726,729	-12,36
726,957	-14,74
727,186	-16,18
727,414	-15,26
727,642	-12,66
727,871	-10,34
728,099	-11,39
728,327	-12
728,556	-9,56
728,784	-7,75
729,012	-8,44
729,241	-6,56
729,469	-7,33
729,697	-10,9
729,925	-10,88
730,153	-14,46
730,381	-14,63
730,61	-13,89
730,838	-16,63
731,066	-15,67
731,294	-14,91
731,522	-17,91
731,75	-21,91
731,978	-21,77
732,206	-24,31
732,434	-25,62
732,662	-21,57
732,89	-23,59
733,118	-23,79
733,346	-23
733,573	-22,78
733,801	-21,64
734,029	-14,05
734,257	-13,55
734,485	-9,88
734,712	-7,41
734,94	-9,04
735,168	-4,37
735,396	-3,55
735,623	-6,34
735,851	-4,94
736,078	-3,33
736,306	-2,2
736,534	-1,4
736,761	0,58
736,989	-1,14
737,216	-2,86
737,444	-5,28
737,671	-3,73
737,899	1,17
738,126	-0,48
738,354	0,54
738,581	1,38
738,809	4,02
739,036	2,04
739,263	2,69
739,491	0,37
739,718	-0,49
739,945	4,64
740,173	7,2
740,4	6,82
740,627	6,35
740,854	6,62
741,081	4,39
741,309	3,43
741,536	-0,45
741,763	-2,36
741,99	-0,39
742,217	-1,87
742,444	-2,2
742,671	0,75
742,898	-0,75
743,125	-2,5
743,352	-6,26
743,579	-5,81
743,806	-7,34
744,033	-4,73
744,26	-2,55
744,487	-3,14
744,714	-3,74
744,941	-4,48
745,167	-0,57
745,394	-2,11
745,621	-2,33
745,848	-2,46
746,075	0,76
746,301	4,9
746,528	9,82
746,755	8,49
746,981	7,69
747,208	8,8
747,435	12,03
747,661	12,49
747,888	11,73
748,114	9,41
748,341	10,61
748,567	12,54
748,794	10,76
749,02	9,38
749,247	6,26
749,473	5,68
749,7	3,71
749,926	3,39
750,152	6,75
750,379	9,27
750,605	9,25
750,831	8,33
751,058	6,49
751,284	4,33
751,51	8,25
751,737	10,93
751,963	9,93
752,189	8,74
752,415	9,24
752,641	8,78
752,867	7,22
753,094	4
753,32	0,43
753,546	-1,18
753,772	0,63
753,998	-1,52
754,224	-2,24
754,45	-3,91
754,676	-5,34
754,902	-5,78
755,128	-5,78
755,354	-5
755,579	-3,06
755,805	-1,07
756,031	-3,15
756,257	-2,8
756,483	-4,79
756,709	-6,58
756,934	-7,03
757,16	-9,98
757,386	-11,21
757,612	-14,77
757,837	-14,9
758,063	-12,89
758,289	-9,85
758,514	-12,37
758,74	-16,96
758,965	-19,55
759,191	-18,1
759,416	-17,31
759,642	-15,84
759,868	-14,95
760,093	-12,17
760,318	-12,95
760,544	-13,34
760,769	-13,81
760,995	-13,03
761,22	-13,85
761,445	-11,22
761,671	-7,8
761,896	-5,66
762,121	-5,23
762,347	-5,5
762,572	-9,49
762,797	-10,16
763,022	-8,82
763,248	-4,59
763,473	-2,1
763,698	-1,83
763,923	0,28
764,148	0,87
764,373	0,05
764,598	2,62
764,823	4,61
765,048	1,53
765,273	-2,96
765,498	-3,62
765,723	-3,16
765,948	-2,58
766,173	-3,35
766,398	-2,28
766,623	-4,1
766,848	-4,86
767,073	-6,51
767,298	-6
767,522	-7,32
767,747	-5,07
767,972	-7,43
768,197	-7,44
768,421	-10,33
768,646	-14,31
768,871	-16,03
769,095	-16,74
769,32	-16,8
769,545	-16,27
769,769	-14,63
769,994	-12,96
770,218	-15,59
770,443	-15,16
770,667	-12,87
770,892	-13,54
771,116	-15,12
771,341	-12,23
771,565	-12,99
771,79	-13,38
772,014	-13,13
772,238	-13,36
772,463	-12,06
772,687	-11,14
772,911	-10,91
773,136	-14,93
773,36	-14,91
773,584	-13,43
773,808	-15,61
774,033	-15,99
774,257	-16,03
774,481	-16,27
774,705	-18,8
774,929	-18,12
775,153	-17,09
775,377	-14,55
775,602	-14,31
775,826	-12,24
776,05	-9,43
776,274	-9,41
776,498	-10,25
776,722	-11,62
776,945	-10,6
777,169	-12,35
777,393	-14,07
777,617	-17,11
777,841	-16,93
778,065	-14,6
778,289	-17,08
778,512	-17
778,736	-15,4
778,96	-16,96
779,184	-14,04
779,407	-14,51
779,631	-14,87
779,855	-16,29
780,078	-13,37
780,302	-15,73
780,526	-17,4
780,749	-15,5
780,973	-13,56
781,196	-13,64
781,42	-15,44
781,643	-15,5
781,867	-14,25
782,09	-17,93
782,314	-19,16
782,537	-18,95
782,76	-19,89
782,984	-19,16
783,207	-20,95
783,431	-19,74
783,654	-21,39
783,877	-23,76
784,1	-23,99
784,324	-24,08
784,547	-23,18
784,77	-27,42
784,993	-28,96
785,216	-28,54
785,44	-27,8
785,663	-30,28
785,886	-26,51
786,109	-27,73
786,332	-27,44
786,555	-26,04
786,778	-23,75
787,001	-23,81
787,224	-20,92
787,447	-19,48
787,67	-18,64
787,893	-18,31
788,116	-18,26
788,339	-17,1
788,561	-17,33
788,784	-20,46
789,007	-20,08
789,23	-21,17
789,453	-21,38
789,675	-24,28
789,898	-26,65
790,121	-28,36
790,344	-29,32
790,566	-27,51
790,789	-28,29
791,012	-27,48
791,234	-24,84
791,457	-20,68
791,679	-19,24
791,902	-19,8
792,124	-19,59
792,347	-20,25
792,569	-20,2
792,792	-22,18
793,014	-18,07
793,237	-16,8
793,459	-17,24
793,681	-16,63
793,904	-17,94
794,126	-20,09
794,348	-21,09
794,571	-19,84
794,793	-22,33
795,015	-21,67
795,237	-21,26
795,46	-19,42
795,682	-18,74
795,904	-16,45
796,126	-17,95
796,348	-17,65
796,57	-13,63
796,792	-13,2
797,014	-8,72
797,237	-4,88
797,459	-1,23
797,681	0,61
797,903	-2,17
798,124	-2,6
798,346	8,26
798,568	10,91
798,79	16,25
799,012	17,01
799,234	17,64
799,456	20,11
799,678	22,42
799,899	19,61
800,121	16,61
800,343	15,93
800,565	15,41
800,786	16,82
801,008	18,57
801,23	18,85
801,451	18,65
801,673	18,3
801,895	18,31
802,116	19,98
802,338	19,36
802,559	19,62
802,781	17,44
803,002	19,33
803,224	21,72
803,445	18,57
803,667	20,79
803,888	18,38
804,109	16,66
804,331	13,76
804,552	13,8
804,773	18,16
804,995	15,32
805,216	0,46
805,437	-1,94
805,658	-5,37
805,88	-6,78
806,101	-6,46
806,322	-7,66
806,543	-9,44
806,764	-12,18
806,985	-10,01
807,207	-9,83
807,428	-9,26
807,649	-12,71
807,87	-15,07
808,091	-14,84
808,312	-14,99
808,533	-9,16
808,754	-7,53
808,975	-9,68
809,195	-7,67
809,416	-6,78
809,637	-6,74
809,858	-8,13
810,079	-10,79
810,3	-7,35
810,52	-9,21
810,741	-9,56
810,962	-11,24
811,183	-11,41
811,403	-11,38
811,624	-12,23
811,845	-10,67
812,065	-8,09
812,286	-7,27
812,506	-7,62
812,727	-8,1
812,948	-6,74
813,168	-5,18
813,389	-6,3
813,609	-4,33
813,83	-4,77
814,05	-5,82
814,27	-5,03
814,491	0,76
814,711	-0,02
814,931	-2,7
815,152	-2,68
815,372	-5,56
815,592	-7,24
815,813	-8,86
816,033	-10,88
816,253	-10,18
816,473	-10,63
816,694	-9,13
816,914	-7,49
817,134	-8,7
817,354	-10,41
817,574	-9,84
817,794	-9,79
818,014	-10,76
818,234	-11,97
818,454	-13,64
818,674	-15,51
818,894	-19,26
819,114	-14,87
819,334	-14,43
819,554	-12,65
819,774	-10,82
819,994	-13,54
820,214	-14,42
820,433	-13,12
820,653	-13,68
820,873	-10,6
821,093	-11,01
821,312	-14,98
821,532	-10,38
821,752	-8,06
821,972	-8,64
822,191	-7,92
822,411	-9,24
822,63	-8,01
822,85	-8,19
823,07	-11,19
823,289	-10,62
823,509	-12,61
823,728	-10,41
823,948	-13,03
824,167	-13,89
824,387	-14,66
824,606	-12,52
824,825	-14,23
825,045	-13,37
825,264	-13,57
825,483	-11,91
825,703	-9,01
825,922	-13,85
826,141	-15,45
826,361	-16,11
826,58	-20,62
826,799	-22,27
827,018	-21,05
827,237	-20,87
827,456	-18,38
827,676	-19,31
827,895	-19,2
828,114	-16,15
828,333	-18,6
828,552	-18,44
828,771	-16,92
828,99	-18,17
829,209	-17,97
829,428	-14,52
829,647	-14,49
829,866	-12,63
830,084	-12,28
830,303	-12,06
830,522	-12,89
830,741	-11,05
830,96	-10,5
831,179	-11,02
831,397	-13,42
831,616	-11,83
831,835	-11,31
832,053	-10,01
832,272	-10,28
832,491	-10,58
832,709	-11,03
832,928	-9,68
833,147	-8,46
833,365	-7,1
833,584	-3,4
833,802	-0,98
834,021	-1,78
834,239	-2,29
834,458	-3,23
834,676	-7,57
834,894	-9,29
835,113	-10,11
835,331	-10,86
835,55	-13,44
835,768	-12,7
835,986	-10,76
836,204	-14,43
836,423	-12,68
836,641	-12,72
836,859	-14,23
837,077	-11,85
837,296	-12,35
837,514	-15,01
837,732	-14,84
837,95	-15,27
838,168	-13,17
838,386	-14,55
838,604	-13,39
838,822	-13,04
839,04	-12,95
839,258	-11,56
839,476	-8,96
839,694	-9,56
839,912	-11,3
840,13	-10,77
840,348	-7,87
840,566	-11,7
840,783	-10,27
841,001	-11,89
841,219	-10,46
841,437	-7,81
841,655	-7
841,872	-6,88
842,09	-6,76
842,308	-5,68
842,525	-7,34
842,743	-6,43
842,961	-5,59
843,178	-9,69
843,396	-7,32
843,613	-6,9
843,831	-6,22
844,048	-6,98
844,266	-5,54
844,483	-6,28
844,701	-6,65
844,918	-6,34
845,136	-5,68
845,353	-7,42
845,57	-7,77
845,788	-4,41
846,005	-6,78
846,222	-8,69
846,439	-6,84
846,657	-6,9
846,874	-6,76
847,091	-10,04
847,308	-8,12
847,526	-9,16
847,743	-8,56
847,96	-11,84
848,177	-11,59
848,394	-12,5
848,611	-12,78
848,828	-13,9
849,045	-13,34
849,262	-12,35
849,479	-13,46
849,696	-16,11
849,913	-16,58
850,13	-21,5
850,347	-18,2
850,564	-18,9
850,78	-19,65
850,997	-21,38
851,214	-21,06
851,431	-19,38
851,647	-22,23
851,864	-21,04
852,081	-18,99
852,298	-22,25
852,514	-24,53
852,731	-22,53
852,948	-21,04
853,164	-20,28
853,381	-20,66
853,597	-22,84
853,814	-24,56
854,03	-26,64
854,247	-25,93
854,463	-25,5
854,68	-24,79
854,896	-25,2
855,113	-24,55
855,329	-23,67
855,545	-20,89
855,762	-22,17
855,978	-25,16
856,194	-26,89
856,411	-21,67
856,627	-18,95
856,843	-17,5
857,059	-15,58
857,275	-17,32
857,492	-16,81
857,708	-12,01
857,924	-9,84
858,14	-8,11
858,356	-8,96
858,572	-9,26
858,788	-11,11
859,004	-8,84
859,22	-10,93
859,436	-11,05
859,652	-12,18
859,868	-13,72
860,084	-13,62
860,3	-12,8
860,516	-11,71
860,731	-10,91
860,947	-13,29
861,163	-12,43
861,379	-11,2
861,595	-8,49
861,81	-8,23
862,026	-8,47
862,242	-8,3
862,457	-8,07
862,673	-6,33
862,889	-4,95
863,104	-6,68
863,32	-5,34
863,535	-4,34
863,751	-9,35
863,966	-6,76
864,182	-5,83
864,397	-8,19
864,613	-11,06
864,828	-12,87
865,044	-11,2
865,259	-8,83
865,474	-9,48
865,69	-8,44
865,905	-8,24
866,12	-10,22
866,336	-11,03
866,551	-10,18
866,766	-11,38
866,981	-12,15
867,196	-12,41
867,412	-11,72
867,627	-11,48
867,842	-12,26
868,057	-13,27
868,272	-15,12
868,487	-16,01
868,702	-18,29
868,917	-18,88
869,132	-17,42
869,347	-15,3
869,562	-17,68
869,777	-17,14
869,992	-18,51
870,207	-17,23
870,422	-16,55
870,636	-18,16
870,851	-18,93
871,066	-20,61
871,281	-18,51
871,495	-19,02
871,71	-16,27
871,925	-20,81
872,14	-21,48
872,354	-24,23
872,569	-24,39
872,783	-22,6
872,998	-21,03
873,213	-22,35
873,427	-18,16
873,642	-16,3
873,856	-17,26
874,071	-18,81
874,285	-19,13
874,5	-21,09
874,714	-21,43
874,928	-21,96
875,143	-22,79
875,357	-21,27
875,571	-23,34
875,786	-22,76
876	-20,97
876,214	-18,7
876,429	-21,12
876,643	-20,62
876,857	-20,94
877,071	-20,83
877,285	-21,84
877,499	-25,02
877,714	-22,85
877,928	-21,37
878,142	-22,83
878,356	-25,83
878,57	-23,77
878,784	-21,39
878,998	-20,76
879,212	-18,45
879,426	-21,31
879,639	-21,1
879,853	-21,52
880,067	-22,61
880,281	-23,97
880,495	-22,13
880,709	-18
880,922	-17,77
881,136	-16,11
881,35	-14,75
881,564	-15,64
881,777	-18,63
881,991	-18,45
882,205	-14,52
882,418	-15,63
882,632	-18,45
882,845	-18,36
883,059	-16,99
883,273	-18,31
883,486	-18,87
883,7	-17,11
883,913	-17,79
884,126	-15,77
884,34	-19,38
884,553	-22,92
884,767	-18,26
884,98	-18,61
885,193	-19,72
885,407	-20,58
885,62	-19,88
885,833	-19,65
886,046	-17,81
886,26	-18,56
886,473	-20,16
886,686	-20,66
886,899	-19,28
887,112	-21,31
887,326	-25,08
887,539	-24,28
887,752	-22,59
887,965	-24,56
888,178	-23,85
888,391	-21,11
888,604	-20,64
888,817	-22,57
889,03	-20,92
889,243	-23,82
889,455	-25,99
889,668	-26,32
889,881	-23,26
890,094	-24,03
890,307	-25,96
890,52	-23,5
890,732	-22,24
890,945	-21,26
891,158	-20,61
891,37	-23,2
891,583	-21,72
891,796	-20,4
892,008	-22,69
892,221	-22,89
892,434	-27,33
892,646	-27,46
892,859	-28,36
893,071	-25,23
893,284	-23,16
893,496	-24,59
893,709	-24,8
893,921	-22,83
894,133	-24,02
894,346	-26,01
894,558	-25,76
894,771	-23,98
894,983	-21,87
895,195	-21,92
895,407	-21,8
895,62	-24,85
895,832	-23,28
896,044	-20,16
896,256	-20,97
896,468	-23,69
896,681	-23,15
896,893	-21,99
897,105	-21,99
897,317	-23,73
897,529	-22,07
897,741	-21,44
897,953	-18,97
898,165	-21,38
898,377	-22,39
898,589	-20,38
898,801	-20,14
899,013	-16,24
899,224	-13,78
899,436	-12,51
899,648	-13,63
899,86	-16,38
900,072	-12,87
900,283	-10,73
900,495	-10,08
900,707	-9,07
900,919	-11,58
901,13	-9,51
901,342	-12,36
901,554	-14,11
901,765	-14,38
901,977	-16,98
902,188	-16,83
902,4	-17,15
902,611	-19,21
902,823	-20,88
903,034	-22,82
903,246	-23,82
903,457	-24,24
903,669	-26,45
903,88	-25,17
904,091	-24,76
904,303	-23,46
904,514	-25,37
904,725	-23,72
904,936	-23,02
905,148	-22,26
905,359	-21,01
905,57	-21,74
905,781	-24,2
905,992	-24,84
906,204	-24,82
906,415	-24,15
906,626	-26,62
906,837	-24,68
907,048	-25,61
907,259	-26,27
907,47	-26,12
907,681	-28,3
907,892	-24,54
908,103	-25,27
908,314	-27,76
908,525	-25,23
908,735	-24,85
908,946	-25,53
909,157	-26,55
909,368	-22,7
909,579	-20,18
909,789	-21,95
910	-23,27
910,211	-21,67
910,421	-22,33
910,632	-21,4
910,843	-24,56
911,053	-21,23
911,264	-17,99
911,475	-19,29
911,685	-19,59
911,896	-18,76
912,106	-17,85
912,317	-19,02
912,527	-16,06
912,737	-15,41
912,948	-14,6
913,158	-14,55
913,369	-18,14
913,579	-16,09
913,789	-15,5
914	-11,8
914,21	-10,95
914,42	-11,6
914,63	-10,51
914,841	-7,7
915,051	-5,78
915,261	-5,22
915,471	-2,15
915,681	-2,17
915,891	-2,7
916,101	-3,13
916,311	-2,08
916,521	-1,14
916,731	1,04
916,941	3,1
917,151	2,37
917,361	7,21
917,571	2,01
917,781	-0,41
917,991	-1,25
918,201	-2,12
918,411	-5,64
918,621	-6,2
918,83	-5,87
919,04	-8,63
919,25	-6,95
919,46	-5,56
919,669	-7,8
919,879	-6,65
920,089	-8,55
920,298	-9,14
920,508	-8,84
920,717	-7,17
920,927	-9,76
921,136	-9,81
921,346	-11,92
921,555	-16,01
921,765	-16,75
921,974	-19,86
922,184	-22,42
922,393	-23,65
922,603	-26,42
922,812	-23,3
923,021	-24,54
923,23	-27,26
923,44	-30,52
923,649	-31,17
923,858	-32,36
924,067	-31,9
924,277	-33,12
924,486	-31,61
924,695	-31,82
924,904	-29,36
925,113	-30,56
925,322	-29,45
925,531	-28,78
925,74	-32,04
925,949	-33,86
926,158	-31,17
926,367	-30,78
926,576	-31,05
926,785	-30,95
926,994	-33,68
927,203	-34,96
927,412	-33,88
927,621	-35,44
927,83	-32,31
928,038	-32,5
928,247	-32,03
928,456	-30,81
928,665	-28,61
928,873	-25,25
929,082	-21,03
929,291	-20,81
929,499	-18,23
929,708	-19,32
929,916	-17,43
930,125	-18,3
930,333	-21,7
930,542	-19,38
930,75	-16,36
930,959	-15,41
931,167	-16,46
931,376	-17,49
931,584	-15,58
931,793	-14,32
932,001	-14,57
932,209	-16,64
932,418	-18,9
932,626	-20,87
932,834	-23,29
933,042	-25,2
933,251	-25,28
933,459	-24,44
933,667	-22,73
933,875	-23,58
934,083	-20,94
934,291	-20,63
934,499	-18,69
934,707	-18,97
934,915	-19,42
935,123	-17,39
935,331	-20,12
935,539	-23,56
935,747	-26,37
935,955	-28,25
936,163	-27,35
936,371	-26,38
936,579	-24,88
936,787	-22,64
936,995	-24,14
937,202	-26,11
937,41	-26,98
937,618	-25
937,826	-24,83
938,033	-29,8
938,241	-32,88
938,449	-30,21
938,656	-26
938,864	-25,3
939,071	-24,99
939,279	-21,87
939,486	-18,78
939,694	-20
939,901	-21,39
940,109	-23,38
940,316	-21,55
940,524	-24,06
940,731	-25,39
940,939	-24,1
941,146	-23,77
941,353	-25,14
941,561	-26,05
941,768	-27,54
941,975	-26,28
942,182	-27,18
942,39	-26,31
942,597	-23,19
942,804	-24,83
943,011	-25,61
943,218	-26,39
943,425	-26,12
943,632	-26,04
943,839	-26,31
944,046	-27,55
944,253	-26,06
944,46	-24,11
944,667	-20,25
944,874	-22,44
945,081	-21,64
945,288	-20,18
945,495	-17,1
945,702	-17,45
945,909	-19,63
946,115	-18,03
946,322	-18,87
946,529	-19,32
946,736	-21,1
946,942	-18,68
947,149	-19,91
947,356	-21,57
947,562	-24,15
947,769	-22,44
947,976	-22,23
948,182	-19,54
948,389	-19,77
948,595	-18,4
948,802	-17,57
949,008	-20,14
949,215	-19,55
949,421	-20,15
949,628	-21,03
949,834	-20,44
950,04	-21,87
950,247	-17,79
950,453	-16,58
950,659	-19,36
950,865	-18,01
951,072	-21,63
951,278	-18,73
951,484	-20,59
951,69	-24,36
951,896	-26,32
952,103	-26,75
952,309	-25,83
952,515	-25,87
952,721	-23,22
952,927	-21,78
953,133	-22,59
953,339	-24,06
953,545	-24,06
953,751	-22,83
953,957	-18,13
954,163	-19,43
954,369	-20,2
954,574	-22,52
954,78	-23,07
954,986	-21,81
955,192	-20,28
955,398	-22,31
955,603	-24,76
955,809	-22,92
956,015	-21,6
956,22	-22,26
956,426	-20,88
956,632	-25,95
956,837	-26,1
957,043	-24,74
957,248	-23,11
957,454	-23
957,66	-26,44
957,865	-25,94
958,07	-24,51
958,276	-26,09
958,481	-28,14
958,687	-29,82
958,892	-29,74
959,097	-30,13
959,303	-30,5
959,508	-30,74
959,713	-30,17
959,919	-29,16
960,124	-30,3
960,329	-30,84
960,534	-28,01
960,739	-26
960,945	-22,73
961,15	-22,15
961,355	-23,69
961,56	-28,55
961,765	-28,28
961,97	-26,8
962,175	-24,56
962,38	-27,82
962,585	-26,69
962,79	-28,64
962,995	-28,63
963,2	-30,3
963,404	-30,16
963,609	-33,41
963,814	-34,38
964,019	-37,16
964,224	-40,56
964,428	-37,57
964,633	-36,04
964,838	-34,01
965,042	-32,73
965,247	-34,13
965,452	-34,87
965,656	-32,82
965,861	-31,71
966,066	-32,76
966,27	-31,96
966,475	-27,58
966,679	-32,81
966,884	-33,24
967,088	-36,42
967,292	-38,17
967,497	-36,15
967,701	-38,22
967,906	-35,24
968,11	-31,48
968,314	-28,1
968,518	-30,25
968,723	-27,14
968,927	-27,03
969,131	-24,57
969,335	-21,15
969,539	-21,17
969,744	-20,68
969,948	-17,57
970,152	-14,76
970,356	-12,77
970,56	-11,48
970,764	-12,36
970,968	-9,91
971,172	-10,37
971,376	-10,41
971,58	-8,84
971,784	-8,18
971,988	-10,36
972,192	-7,49
972,395	-8,62
972,599	-10,8
972,803	-13,52
973,007	-11,81
973,21	-11,25
973,414	-11,4
973,618	-11,96
973,822	-11,94
974,025	-10,53
974,229	-11,14
974,432	-16,11
974,636	-19,08
974,84	-18,64
975,043	-18,16
975,247	-20,28
975,45	-21,11
975,654	-20,74
975,857	-18,85
976,06	-20,49
976,264	-22,98
976,467	-21,32
976,671	-21,3
976,874	-20,05
977,077	-21,67
977,28	-23,71
977,484	-25,1
977,687	-25,85
977,89	-23,3
978,093	-23,33
978,297	-22,81
978,5	-25,84
978,703	-23,38
978,906	-21,62
979,109	-21,44
979,312	-19,16
979,515	-19,98
979,718	-19,08
979,921	-19,13
980,124	-23,22
980,327	-23,42
980,53	-24,53
980,733	-21,8
980,936	-18,57
981,138	-20,21
981,341	-20,05
981,544	-18,48
981,747	-19,91
981,949	-22,01
982,152	-21,97
982,355	-21,69
982,558	-18,66
982,76	-22,56
982,963	-22,32
983,165	-21,54
983,368	-19,89
983,571	-20,11
983,773	-17,62
983,976	-16,79
984,178	-18,27
984,381	-18,42
984,583	-21,49
984,785	-21,54
984,988	-20,14
985,19	-18,88
985,392	-21,12
985,595	-24,55
985,797	-25,18
985,999	-22,12
986,202	-19,23
986,404	-18,43
986,606	-14,29
986,808	-14,07
987,01	-11,66
987,212	-14,04
987,415	-15,3
987,617	-14,44
987,819	-14,94
988,021	-13,91
988,223	-14,97
988,425	-15,17
988,627	-13,6
988,829	-17,41
989,031	-15,06
989,232	-16,02
989,434	-15,24
989,636	-16,88
989,838	-17,19
990,04	-15,3
990,242	-15,84
990,443	-17,16
990,645	-15,6
990,847	-11,33
991,048	-10,1
991,25	-11,96
991,452	-13,63
991,653	-14,72
991,855	-13,48
992,057	-13,74
992,258	-14,58
992,46	-16,52
992,661	-15,06
992,863	-17,32
993,064	-16,57
993,265	-18,72
993,467	-19,72
993,668	-16,55
993,87	-16,93
994,071	-16,9
994,272	-14,87
994,473	-12,54
994,675	-11,28
994,876	-12,13
995,077	-11,32
995,278	-11,01
995,48	-9,53
995,681	-11,55
995,882	-10,04
996,083	-9,51
996,284	-13,94
996,485	-13,47
996,686	-14,31
996,887	-15,92
997,088	-20,71
997,289	-22,48
997,49	-22,69
997,691	-21,6
997,892	-20,26
998,092	-15,24
998,293	-15,21
998,494	-15,79
998,695	-16,32
998,896	-15,76
999,096	-15,27
999,297	-14,52
999,498	-15,6
999,698	-17,39
999,899	-19,46
1000,1	-22,14
1000,3	-21,7
1000,501	-23,29
1000,701	-23,24
1000,902	-24,59
1001,102	-24,27
1001,303	-22,01
1001,503	-25,33
1001,704	-25,53
1001,904	-27,29
1002,105	-27,41
1002,305	-27,89
1002,505	-29,16
1002,706	-29,45
1002,906	-28,87
1003,106	-29,61
1003,306	-28,29
1003,507	-26,71
1003,707	-26,77
1003,907	-25,17
1004,107	-24,87
1004,307	-27,73
1004,507	-26,87
1004,707	-27,08
1004,907	-27,97
1005,107	-28,53
1005,308	-28,95
1005,507	-31,67
1005,707	-29,06
1005,907	-29,48
1006,107	-28,59
1006,307	-26,44
1006,507	-27,86
1006,707	-28,34
1006,907	-28,72
1007,106	-29,29
1007,306	-29,21
1007,506	-29,8
1007,706	-28,27
1007,905	-30,34
1008,105	-29,87
1008,305	-30,85
1008,504	-29,41
1008,704	-23,17
1008,903	-23,45
1009,103	-22,59
1009,303	-25,48
1009,502	-23,78
1009,702	-25,05
1009,901	-25,07
1010,1	-29,21
1010,3	-27,44
1010,499	-28,97
1010,699	-29,65
1010,898	-31,2
1011,097	-31,51
1011,296	-30,67
1011,496	-31,73
1011,695	-31,02
1011,894	-32,33
1012,093	-28,52
1012,293	-28,16
1012,492	-29,04
1012,691	-29,72
1012,89	-28,63
1013,089	-31,42
1013,288	-30,62
1013,487	-31,43
1013,686	-31,44
1013,885	-33,17
1014,084	-31,07
1014,283	-30,24
1014,482	-30,24
1014,681	-30,67
1014,88	-35,46
1015,078	-33,46
1015,277	-34,58
1015,476	-33,41
1015,675	-33,07
1015,873	-32,08
1016,072	-34,23
1016,271	-29,62
1016,47	-32,66
1016,668	-32,13
1016,867	-33,12
1017,065	-34,83
1017,264	-34,36
1017,463	-34,22
1017,661	-34,18
1017,86	-33,98
1018,058	-34,86
1018,256	-36,93
1018,455	-38,77
1018,653	-38,3
1018,852	-36,5
1019,05	-39,71
1019,248	-40,28
1019,447	-41,63
1019,645	-40,97
1019,843	-42,15
1020,041	-40,86
1020,24	-41,97
1020,438	-38,53
1020,636	-39,66
1020,834	-42,63
1021,032	-40,06
1021,23	-42,14
1021,428	-41,69
1021,626	-37,29
1021,824	-37,88
1022,022	-38,32
1022,22	-34,98
1022,418	-35,67
1022,616	-36,9
1022,814	-36,7
1023,012	-37,1
1023,21	-34,22
1023,408	-34,17
1023,606	-35,57
1023,803	-29,76
1024,001	-28,92
1024,199	-31,26
1024,397	-28,47
1024,594	-27,17
1024,792	-28,63
1024,99	-27,55
1025,187	-27,32
1025,385	-22,96
1025,582	-22,17
1025,78	-22,94
1025,977	-22,44
1026,175	-22,08
1026,372	-21,14
1026,57	-23,59
1026,767	-20,18
1026,965	-18,69
1027,162	-19,02
1027,359	-19,11
1027,557	-19,86
1027,754	-23,2
1027,951	-24,07
1028,148	-22,23
1028,346	-25,51
1028,543	-27,47
1028,74	-26,6
1028,937	-29,11
1029,134	-28,34
1029,331	-29,42
1029,528	-29,84
1029,725	-29,84
1029,923	-34,37
1030,12	-31,54
1030,317	-29,61
1030,513	-28,81
1030,71	-27,87
1030,907	-24,73
1031,104	-26,82
1031,301	-26,47
1031,498	-27,18
1031,695	-27,85
1031,892	-26,73
1032,088	-26,51
1032,285	-28,3
1032,482	-29,62
1032,678	-32,12
1032,875	-35,49
1033,072	-34,72
1033,268	-34,63
1033,465	-34,66
1033,662	-35,56
1033,858	-34,84
1034,055	-33,62
1034,251	-31,45
1034,448	-30,53
1034,644	-31,2
1034,84	-29,62
1035,037	-26,82
1035,233	-27,63
1035,43	-25,8
1035,626	-26,96
1035,822	-26,47
1036,019	-26,52
1036,215	-31,68
1036,411	-31,42
1036,607	-35,33
1036,803	-38,19
1037	-39,79
1037,196	-40,82
1037,392	-42,2
1037,588	-44,88
1037,784	-43,19
1037,98	-44,54
1038,176	-44,37
1038,372	-44,18
1038,568	-43,31
1038,764	-40,64
1038,96	-36,94
1039,156	-38,16
1039,352	-39,56
1039,547	-36,94
1039,743	-36,36
1039,939	-34,58
1040,135	-36,12
1040,331	-37,47
1040,526	-35,98
1040,722	-36,32
1040,918	-36,63
1041,113	-39,86
1041,309	-39,49
1041,505	-42,02
1041,7	-39,63
1041,896	-40,69
1042,091	-42,67
1042,287	-41,67
1042,482	-41,58
1042,678	-40,7
1042,873	-39,57
1043,069	-40,71
1043,264	-39,3
1043,459	-36,7
1043,655	-35,13
1043,85	-36,71
1044,045	-35,82
1044,24	-36,59
1044,436	-33,89
1044,631	-34
1044,826	-35,33
1045,021	-39,5
1045,216	-39,28
