Data from FLMT021711__22__18-15-52-187.txt Node

Date: Tue Nov 05 18:15:52 CET 2024
User: Etudiants TP
Spectrometer: FLMT02171
Trigger mode: 0
Integration Time (sec): 1.000000E-1
Scans to average: 5
Electric dark correction enabled: true
Nonlinearity correction enabled: false
Boxcar width: 15
XAxis mode: Wavelengths
Number of Pixels in Spectrum: 3648
>>>>>Begin Spectral Data<<<<<
194.658	-64.57
194.923	-63.43
195.188	-57.54
195.453	-58.59
195.717	-52.67
195.982	-51.23
196.247	-50.22
196.512	-52.48
196.777	-50.89
197.042	-47.65
197.307	-47.41
197.572	-42.38
197.837	-42.61
198.101	-39.32
198.366	-36.88
198.631	-37.08
198.896	-29.41
199.161	-21.84
199.425	-15.25
199.69	-4.53
199.955	-6.22
200.22	-9.29
200.484	-10.25
200.749	-11.59
201.014	-11.76
201.278	-12.09
201.543	-11.74
201.807	-12.89
202.072	-10.87
202.337	-10.47
202.601	-10.94
202.866	-12.94
203.13	-10.9
203.395	-12.82
203.659	-10.86
203.924	-12.68
204.189	-11.05
204.453	-8.92
204.717	-6.56
204.982	-4.82
205.246	-5.6
205.511	-3.03
205.775	-5.5
206.04	0
206.304	-0.65
206.568	1.27
206.833	2.33
207.097	2.81
207.361	4.91
207.626	11.19
207.89	12.26
208.154	13.71
208.419	15.73
208.683	15.55
208.947	19.77
209.211	19.84
209.476	19.54
209.74	19.65
210.004	20.9
210.268	21.8
210.532	24.4
210.796	25.39
211.061	26.63
211.325	26.76
211.589	25.43
211.853	26
212.117	25.07
212.381	23.98
212.645	24.68
212.909	24.21
213.173	20
213.437	21.07
213.701	19.94
213.965	21.25
214.229	16.27
214.493	16.68
214.757	14.61
215.021	15.64
215.285	18.47
215.549	20.35
215.813	15.15
216.077	13.42
216.34	14.38
216.604	13.69
216.868	13.83
217.132	13.42
217.396	12
217.659	12.36
217.923	10.18
218.187	9.9
218.451	6.57
218.714	3.45
218.978	3.59
219.242	6.11
219.505	6.84
219.769	8.92
220.033	8
220.296	10.94
220.56	11.77
220.824	8.5
221.087	10.02
221.351	11.23
221.614	10.98
221.878	13.43
222.142	13.15
222.405	13.47
222.669	16.47
222.932	13.22
223.196	11.6
223.459	8.34
223.722	8.33
223.986	8.29
224.249	6.55
224.513	6.28
224.776	5.97
225.04	7.23
225.303	7.15
225.566	7.86
225.83	10.53
226.093	11.54
226.356	9.68
226.62	9.65
226.883	11.31
227.146	11.58
227.409	10.35
227.673	8.61
227.936	8.84
228.199	10.33
228.462	8.37
228.725	7.8
228.989	7.97
229.252	8.64
229.515	13.98
229.778	12.34
230.041	9.75
230.304	7.02
230.567	7.65
230.83	3.79
231.093	7.24
231.356	6.43
231.619	13.15
231.882	11.69
232.145	14.37
232.408	14.76
232.671	15.73
232.934	15.29
233.197	11.36
233.46	10.29
233.723	10.67
233.986	8.29
234.249	7.78
234.512	9.61
234.775	14.12
235.037	12.57
235.3	12.33
235.563	12.78
235.826	12.87
236.089	13.78
236.351	12.64
236.614	14.88
236.877	16.15
237.14	18.53
237.402	17.45
237.665	10.96
237.928	10.4
238.19	9.02
238.453	12.72
238.716	12.18
238.978	12.26
239.241	11.36
239.503	15.4
239.766	10.51
240.029	8.66
240.291	11.01
240.554	10.63
240.816	8.82
241.079	8.84
241.341	10.57
241.604	8.73
241.866	6.57
242.129	7.01
242.391	9.68
242.653	9.26
242.916	7.55
243.178	9.19
243.441	10.78
243.703	9.97
243.965	9.03
244.228	7.87
244.49	7.88
244.752	8.37
245.015	8.39
245.277	10.32
245.539	10.54
245.801	12.63
246.064	12.51
246.326	12.51
246.588	11.99
246.85	16.01
247.112	17.72
247.374	19.88
247.637	21.07
247.899	20.57
248.161	21.6
248.423	16.47
248.685	16.35
248.947	16.23
249.209	17.15
249.471	16.72
249.733	17.98
249.995	16.39
250.257	16.09
250.519	13.42
250.781	16.92
251.043	14.54
251.305	15.33
251.567	16.48
251.829	16.79
252.091	16.47
252.353	13.88
252.615	14.07
252.876	10.78
253.138	8.66
253.4	4.01
253.662	4.34
253.924	6.6
254.185	8.17
254.447	7.86
254.709	7.13
254.971	5.58
255.232	6.94
255.494	3.76
255.756	0.75
256.017	1.32
256.279	1.2
256.541	0.95
256.802	1.72
257.064	2.74
257.326	0.8
257.587	3.58
257.849	4.45
258.11	8.18
258.372	10.57
258.633	10.73
258.895	8.83
259.156	7.88
259.418	6.45
259.679	2.44
259.941	0.58
260.202	2.31
260.464	4.67
260.725	3.78
260.987	4.17
261.248	3.84
261.509	5.16
261.771	3.56
262.032	4.7
262.293	3.91
262.555	4.52
262.816	2.5
263.077	0.26
263.338	-2.81
263.6	-1.96
263.861	-1.44
264.122	-2
264.383	-0.47
264.645	0.82
264.906	-1.64
265.167	-0.14
265.428	-0.25
265.689	-0.43
265.95	-2.41
266.211	-1.58
266.473	-3.5
266.734	-5.51
266.995	-9.77
267.256	-8.31
267.517	-6.07
267.778	-3.04
268.039	-2.17
268.3	-3.37
268.561	-5.17
268.822	-1.59
269.083	-4.26
269.344	-4.34
269.604	-5.4
269.865	-4.49
270.126	-8.7
270.387	-6.98
270.648	-6.09
270.909	-5.99
271.17	-6.73
271.43	-9.59
271.691	-11.73
271.952	-13.79
272.213	-12.82
272.473	-15.01
272.734	-12.68
272.995	-10.13
273.256	-10.53
273.516	-7.33
273.777	-8.66
274.038	-6.42
274.298	-7.97
274.559	-8.01
274.82	-2.73
275.08	0.12
275.341	2.02
275.601	-0.28
275.862	-1.06
276.122	0.84
276.383	0.94
276.643	3.58
276.904	1.37
277.164	5.03
277.425	4.51
277.685	9.56
277.946	10.46
278.206	11.87
278.467	12.69
278.727	13.08
278.987	12.98
279.248	14.03
279.508	15.27
279.768	17.02
280.029	18.45
280.289	15.47
280.549	15.83
280.81	14.83
281.07	14.27
281.33	15.98
281.59	13.95
281.851	15.36
282.111	14.54
282.371	12.69
282.631	14.89
282.891	11.5
283.151	10.67
283.412	8.75
283.672	9.63
283.932	8.53
284.192	8.55
284.452	7.98
284.712	5.29
284.972	4.53
285.232	1.81
285.492	4.03
285.752	0.72
286.012	6.6
286.272	8.47
286.532	5.54
286.792	3.93
287.052	6.07
287.312	6.16
287.571	5.85
287.831	5.93
288.091	3.18
288.351	4.12
288.611	7.9
288.871	7.8
289.13	8.38
289.39	3.31
289.65	4.51
289.91	1.71
290.17	3.5
290.429	6.52
290.689	3.31
290.949	1.52
291.208	3.76
291.468	7.67
291.728	9.1
291.987	11.85
292.247	9.95
292.506	12.69
292.766	15.09
293.026	13.67
293.285	16.67
293.545	18.86
293.804	19.4
294.064	15.55
294.323	12.21
294.583	13.52
294.842	15.74
295.102	15.95
295.361	15.07
295.621	15.53
295.88	16.88
296.139	17.21
296.399	18.74
296.658	13.65
296.917	13.57
297.177	9.79
297.436	12.12
297.695	9.64
297.955	12.06
298.214	11.41
298.473	11.42
298.732	14.64
298.992	17.8
299.251	17.01
299.51	12.17
299.769	12.9
300.028	10.92
300.287	12.36
300.547	10.73
300.806	7.89
301.065	11.16
301.324	11.88
301.583	8.29
301.842	3.44
302.101	1.46
302.36	2.73
302.619	3.05
302.878	2.7
303.137	0.07
303.396	3.04
303.655	4.24
303.914	1.32
304.173	1.88
304.432	1.49
304.691	4.33
304.95	2.44
305.208	7.81
305.467	7.18
305.726	7.03
305.985	7.31
306.244	9.59
306.503	9.63
306.761	7.21
307.02	3.45
307.279	3.24
307.537	4.2
307.796	0.86
308.055	-0.95
308.314	0.3
308.572	-2.08
308.831	-0.22
309.09	0.39
309.348	1.21
309.607	1.12
309.865	6.44
310.124	6.41
310.382	9.02
310.641	9.39
310.9	8.44
311.158	9.65
311.417	9.52
311.675	11.69
311.933	12.54
312.192	15.11
312.45	15.01
312.709	14.88
312.967	14.51
313.226	13.61
313.484	14.33
313.742	13.21
314.001	11.79
314.259	8.59
314.517	9.16
314.776	11.22
315.034	14.01
315.292	11.95
315.55	9.58
315.809	8.47
316.067	9.93
316.325	6.68
316.583	9.09
316.841	8
317.1	6.25
317.358	1.9
317.616	1.7
317.874	0.08
318.132	-0.61
318.39	-2.12
318.648	-3.55
318.906	-4.59
319.164	-5.81
319.422	-8.41
319.68	-11.29
319.938	-10.77
320.196	-11.8
320.454	-10.7
320.712	-11.08
320.97	-11.08
321.228	-13.32
321.486	-12
321.744	-10.74
322.002	-8.9
322.26	-9.68
322.517	-8.79
322.775	-10.69
323.033	-11.17
323.291	-8.96
323.549	-6.69
323.806	-3.92
324.064	-3.97
324.322	-2.24
324.58	-3.67
324.837	-1.55
325.095	-3.38
325.353	-0.98
325.61	0.29
325.868	-0.4
326.126	0.74
326.383	-1.5
326.641	-2.19
326.898	-0.12
327.156	0.5
327.413	0.97
327.671	1.02
327.928	1.97
328.186	2.56
328.443	1.4
328.701	4.63
328.958	5.41
329.216	5.73
329.473	3.9
329.731	5.14
329.988	5.08
330.245	8.34
330.503	8.32
330.76	7.38
331.017	9.41
331.275	7.37
331.532	8.08
331.789	5.9
332.047	6.03
332.304	3.34
332.561	4.81
332.818	3.99
333.076	5.82
333.333	6.63
333.59	7.28
333.847	8.26
334.104	6.93
334.361	7
334.618	5.81
334.876	4.24
335.133	3.78
335.39	2.64
335.647	4.44
335.904	1.02
336.161	-2.42
336.418	-1.92
336.675	-6.34
336.932	-4.01
337.189	-3.29
337.446	-3.49
337.703	-4.96
337.96	-9.07
338.216	-9.49
338.473	-12.15
338.73	-11.15
338.987	-10.97
339.244	-7.51
339.501	-10.73
339.757	-9.31
340.014	-9.64
340.271	-8.48
340.528	-8.02
340.785	-4.37
341.041	-4.35
341.298	-7.7
341.555	-7.75
341.811	-7.76
342.068	-9.33
342.325	-8.21
342.581	-4.64
342.838	-2.85
343.094	-2.63
343.351	-2.81
343.608	-6.54
343.864	-3.65
344.121	-1.42
344.377	-2.45
344.634	-2.62
344.89	-4.24
345.147	-5.45
345.403	-5.83
345.66	-5.12
345.916	-2.73
346.172	-5.57
346.429	-6.97
346.685	-8.69
346.942	-9.1
347.198	-13.25
347.454	-11.4
347.711	-11.82
347.967	-14.68
348.223	-12.82
348.48	-14.77
348.736	-12.33
348.992	-12.22
349.248	-9.44
349.504	-11.53
349.761	-11.36
350.017	-11.45
350.273	-11.6
350.529	-12.53
350.785	-14.98
351.041	-15.1
351.297	-13.38
351.554	-13.63
351.81	-15.29
352.066	-16.09
352.322	-16.78
352.578	-16.53
352.834	-17.67
353.09	-17.97
353.346	-17.45
353.602	-19.39
353.858	-19.48
354.114	-19.43
354.369	-18.36
354.625	-16.42
354.881	-17.76
355.137	-15.34
355.393	-15.53
355.649	-15.45
355.905	-13.75
356.16	-14.6
356.416	-12.61
356.672	-20.27
356.928	-19.75
357.183	-19.68
357.439	-18.57
357.695	-19.5
357.951	-14.47
358.206	-14.86
358.462	-15.51
358.718	-16.28
358.973	-15.3
359.229	-15.76
359.484	-13.78
359.74	-10.61
359.996	-9.98
360.251	-5.78
360.507	-5.44
360.762	-5.79
361.018	-2.35
361.273	-3.42
361.529	0.81
361.784	1.37
362.04	3.17
362.295	3.57
362.55	5.57
362.806	7.81
363.061	9.84
363.316	10.72
363.572	10.5
363.827	12.3
364.082	9.19
364.338	8.37
364.593	9.35
364.848	10.13
365.104	8.47
365.359	10.96
365.614	10.48
365.869	8.42
366.124	9.24
366.38	8.16
366.635	9.89
366.89	10.85
367.145	11.3
367.4	14.26
367.655	14.26
367.91	13.86
368.165	10.41
368.42	7.26
368.675	9.04
368.93	9.58
369.185	6.03
369.44	3.7
369.695	4.87
369.95	2.9
370.205	1.77
370.46	-0.88
370.715	-1.9
370.97	-2.95
371.225	-4.02
371.48	-1.5
371.734	-1.73
371.989	0.43
372.244	1.46
372.499	4.39
372.754	1.88
373.008	-0.48
373.263	-5.31
373.518	-3.28
373.773	-5.17
374.027	-6.51
374.282	-4.6
374.537	-3.47
374.791	-2.27
375.046	-4.01
375.301	-5.62
375.555	-7.42
375.81	-5.31
376.064	-3.97
376.319	0.87
376.573	-1.06
376.828	-5.78
377.082	1.29
377.337	-0.44
377.591	-3.29
377.846	-2.34
378.1	1.07
378.355	2.96
378.609	1.96
378.863	-0.96
379.118	1.4
379.372	-0.69
379.627	-2.68
379.881	-4.7
380.135	-5.6
380.389	-6.54
380.644	-5.05
380.898	-2.41
381.152	-0.99
381.407	-2.06
381.661	-0.44
381.915	0.66
382.169	0.72
382.423	-1.32
382.677	-4.25
382.932	-2.44
383.186	-1.05
383.44	-0.4
383.694	1.68
383.948	0.02
384.202	-1.09
384.456	1.84
384.71	3.61
384.964	0.26
385.218	2.05
385.472	1.68
385.726	1.1
385.98	1.16
386.234	0.32
386.488	-2.41
386.742	-0.62
386.996	-2.26
387.249	-1.03
387.503	2.37
387.757	3.33
388.011	4.22
388.265	4.27
388.518	4.82
388.772	5.92
389.026	7.96
389.28	7.51
389.533	6.6
389.787	8.33
390.041	7.44
390.295	8.86
390.548	8.03
390.802	12.02
391.055	10.03
391.309	9.13
391.563	6.75
391.816	8.21
392.07	5.85
392.323	6.54
392.577	7.8
392.83	8.84
393.084	14.5
393.337	19.02
393.591	21.11
393.844	20.34
394.098	22.71
394.351	26.33
394.604	28.69
394.858	30.03
395.111	30.25
395.364	27.81
395.618	30.31
395.871	27.58
396.124	26.91
396.378	25.89
396.631	25.1
396.884	22.15
397.137	21.42
397.391	21.95
397.644	18.68
397.897	17.76
398.15	18.96
398.403	21.31
398.657	18.33
398.91	17.64
399.163	18.48
399.416	17.78
399.669	15.38
399.922	15.33
400.175	16.1
400.428	24.01
400.681	36.31
400.934	46.62
401.187	62.1
401.44	77.47
401.693	87.91
401.946	92.37
402.199	94.32
402.452	95.32
402.704	94.41
402.957	94.11
403.21	96.64
403.463	96.5
403.716	99.16
403.969	101.75
404.221	102.81
404.474	106.82
404.727	111.82
404.98	116.29
405.232	117.5
405.485	121.19
405.738	124.68
405.99	124.46
406.243	126.06
406.496	128.33
406.748	128.91
407.001	127.62
407.253	128.33
407.506	128.98
407.759	129.8
408.011	124.87
408.264	116.37
408.516	104.96
408.769	87.96
409.021	71.92
409.274	54.81
409.526	45.34
409.778	37.3
410.031	35.49
410.283	31.97
410.536	35.88
410.788	34.41
411.04	31.99
411.293	31.91
411.545	31.59
411.797	29.57
412.049	27.86
412.302	27.38
412.554	26.6
412.806	22.26
413.058	18.91
413.311	18.31
413.563	16.06
413.815	15.04
414.067	12.35
414.319	11.58
414.571	12.52
414.823	11.35
415.075	10.03
415.328	11.1
415.58	14.02
415.832	16.1
416.084	17.27
416.336	14.94
416.588	18.19
416.84	16.43
417.091	19.71
417.343	16.58
417.595	19.27
417.847	19.18
418.099	20.97
418.351	18.6
418.603	20.17
418.855	22.09
419.106	23.16
419.358	24
419.61	23.02
419.862	23.71
420.114	21.16
420.365	20.58
420.617	21.37
420.869	20.66
421.12	20.22
421.372	20.39
421.624	19.74
421.875	21.21
422.127	16.22
422.379	15.92
422.63	18.3
422.882	16.29
423.133	15.87
423.385	16.41
423.636	16.01
423.888	17.52
424.139	21.43
424.391	18.13
424.642	17.11
424.894	15.93
425.145	14.66
425.396	11.44
425.648	13.58
425.899	11.39
426.151	10.93
426.402	10.2
426.653	9.88
426.905	7.26
427.156	4.65
427.407	5.25
427.658	4.73
427.91	2.31
428.161	1.14
428.412	4.18
428.663	6.05
428.914	5.46
429.166	7.26
429.417	9.09
429.668	7.55
429.919	6.14
430.17	6.31
430.421	6.42
430.672	11.7
430.923	12.47
431.174	14.59
431.425	27.36
431.676	51.57
431.927	81.97
432.178	125.8
432.429	172.37
432.68	215.03
432.931	253.47
433.182	281.78
433.433	298.66
433.683	313.31
433.934	320.49
434.185	322.47
434.436	322.54
434.687	325.17
434.937	328.64
435.188	326.33
435.439	325.77
435.69	327.25
435.94	326.37
436.191	325.89
436.442	325.68
436.692	325.89
436.943	323.33
437.194	320.21
437.444	321.83
437.695	327.14
437.945	326.46
438.196	325.83
438.447	323.49
438.697	322.32
438.948	317.35
439.198	301.64
439.449	272.08
439.699	238.85
439.949	197.27
440.2	149.92
440.45	107.11
440.701	71.08
440.951	44.79
441.201	25.69
441.452	11
441.702	3.92
441.952	1.86
442.203	-0.08
442.453	-3.24
442.703	-3.55
442.953	-2.1
443.204	-1.46
443.454	-3.47
443.704	-3.06
443.954	-6.66
444.204	-6.91
444.455	-6.91
444.705	-5.5
444.955	-3.76
445.205	-4.94
445.455	-8.96
445.705	-8.98
445.955	-9.31
446.205	-10.7
446.455	-10.19
446.705	-8.99
446.955	-6.91
447.205	-5.23
447.455	-3.49
447.705	-6.88
447.955	-8.78
448.205	-8.9
448.454	-9.68
448.704	-7.66
448.954	-9.07
449.204	-8.69
449.454	-10.1
449.704	-10.85
449.953	-11.23
450.203	-8.75
450.453	-11.89
450.703	-10.1
450.952	-11.86
451.202	-10.43
451.452	-10.03
451.701	-6.91
451.951	-3.12
452.201	-2.59
452.45	-3.87
452.7	-3.15
452.949	-3.61
453.199	-2.96
453.448	0.18
453.698	1.15
453.947	0.47
454.197	-0.22
454.446	-2.08
454.696	-0.23
454.945	-0.08
455.195	-2.3
455.444	-0.22
455.693	5.14
455.943	3.98
456.192	5.06
456.442	4.94
456.691	3.62
456.94	3.05
457.189	1.24
457.439	3.3
457.688	6.26
457.937	5.5
458.186	5.1
458.436	4.22
458.685	6.44
458.934	5.91
459.183	5.49
459.432	7.43
459.681	6.55
459.93	4.55
460.179	4.93
460.429	1.88
460.678	4.43
460.927	6.75
461.176	3.85
461.425	2.67
461.674	6.57
461.923	6.87
462.172	5.66
462.42	4.84
462.669	6.95
462.918	5.84
463.167	5.4
463.416	2.74
463.665	3.38
463.914	2.8
464.162	0.43
464.411	2.96
464.66	4.65
464.909	4.71
465.158	4.51
465.406	3.92
465.655	6.05
465.904	9.17
466.152	9.39
466.401	10.16
466.65	11.49
466.898	9.28
467.147	5.29
467.395	5.57
467.644	9.2
467.893	8.33
468.141	10.01
468.39	6.37
468.638	5.02
468.887	2.91
469.135	2.69
469.384	0.83
469.632	1.24
469.88	2.38
470.129	4.68
470.377	1.01
470.626	5.12
470.874	7.18
471.122	7.64
471.371	6.12
471.619	5.2
471.867	7.91
472.115	7.4
472.364	5.72
472.612	9.3
472.86	7.06
473.108	7.27
473.356	7
473.605	7.17
473.853	4.65
474.101	2.27
474.349	1.77
474.597	5.88
474.845	4.99
475.093	2.57
475.341	-1.42
475.589	-0.39
475.837	0.17
476.085	3.39
476.333	2.36
476.581	5.24
476.829	5.62
477.077	10.75
477.325	11.33
477.573	13.22
477.821	11.83
478.069	15.14
478.317	14.9
478.564	18.33
478.812	18.96
479.06	19.74
479.308	20.66
479.555	22.87
479.803	25.44
480.051	30.13
480.299	33.22
480.546	37.18
480.794	38.95
481.042	45.02
481.289	47.08
481.537	54.38
481.784	60.92
482.032	69.6
482.28	75.67
482.527	84.17
482.775	92.57
483.022	103.38
483.27	113.28
483.517	125.28
483.765	133.11
484.012	141.32
484.259	147.02
484.507	157.32
484.754	163.91
485.002	172.02
485.249	177.04
485.496	186.15
485.744	192.87
485.991	198.56
486.238	202.12
486.486	210.54
486.733	216.76
486.98	225.22
487.227	226.29
487.474	230.4
487.722	235.15
487.969	234.23
488.216	236.85
488.463	238.26
488.71	236.68
488.957	237.24
489.204	238.69
489.451	239.49
489.699	236.69
489.946	230.51
490.193	225.27
490.44	221.79
490.687	218.03
490.934	211.18
491.18	203.19
491.427	198.81
491.674	196.52
491.921	192.63
492.168	185.99
492.415	178.27
492.662	173.69
492.909	172.32
493.155	167.26
493.402	160.81
493.649	154.5
493.896	151.05
494.142	141.33
494.389	135.66
494.636	129.38
494.883	124.26
495.129	119.53
495.376	112.56
495.623	111.02
495.869	108.01
496.116	107.13
496.362	104.06
496.609	102.64
496.855	102.29
497.102	96.95
497.348	92.08
497.595	89.23
497.841	90.63
498.088	86.23
498.334	82.36
498.581	77.26
498.827	73.17
499.074	72.03
499.32	70.49
499.566	70.3
499.813	67.62
500.059	62.5
500.305	59
500.552	55.84
500.798	52.28
501.044	53.92
501.29	49.32
501.537	44.19
501.783	45.67
502.029	47.84
502.275	42.17
502.521	39.13
502.767	37.75
503.013	39.28
503.26	34.12
503.506	29.42
503.752	27.9
503.998	23.41
504.244	23.05
504.49	18.63
504.736	18.07
504.982	17.39
505.228	19.95
505.474	18.71
505.72	19.46
505.966	15.87
506.211	19.27
506.457	19.58
506.703	14.32
506.949	11.39
507.195	10.32
507.441	7.2
507.686	9.13
507.932	8.98
508.178	9.47
508.424	6.76
508.669	3.53
508.915	4.2
509.161	6.16
509.406	6.69
509.652	5.1
509.898	9.63
510.143	10.63
510.389	9.54
510.634	6.07
510.88	10.31
511.125	12.54
511.371	11.52
511.616	13.5
511.862	8.68
512.107	3.74
512.353	5.03
512.598	4.72
512.844	2.11
513.089	-1.17
513.335	-0.79
513.58	0.03
513.825	0.72
514.071	-0.81
514.316	-0.41
514.561	-0.13
514.806	-2.71
515.052	-0.92
515.297	-1.92
515.542	-0.26
515.787	-0.25
516.033	2.29
516.278	2.05
516.523	2.54
516.768	1.53
517.013	-1.23
517.258	-1.4
517.503	-2.52
517.748	-1.65
517.993	-2.61
518.238	-2.93
518.483	-4.87
518.728	-5.77
518.973	-8.38
519.218	-10.09
519.463	-7.2
519.708	-6.29
519.953	-8.46
520.198	-7.84
520.443	-5.38
520.688	-1.98
520.933	-3.25
521.177	-3.9
521.422	-7.09
521.667	-3.06
521.912	-2.63
522.157	-5.81
522.401	-2.11
522.646	-2.07
522.891	-1.3
523.135	-2.53
523.38	-2.1
523.625	-4.85
523.869	-3.37
524.114	-1.85
524.358	-3.2
524.603	-3.3
524.848	-4.93
525.092	-5.86
525.337	-6.19
525.581	-4.08
525.826	-1.64
526.07	-1.56
526.315	-0.15
526.559	-0.9
526.803	-1.89
527.048	1.18
527.292	1.33
527.537	2.02
527.781	1.53
528.025	-1.37
528.269	-0.11
528.514	0.07
528.758	-0.54
529.002	-0.69
529.247	1.37
529.491	0.2
529.735	6.08
529.979	5.56
530.223	8.32
530.467	6.72
530.712	6.43
530.956	4.57
531.2	7.36
531.444	6.07
531.688	7.4
531.932	8.31
532.176	10.98
532.42	12.64
532.664	15.55
532.908	16.05
533.152	16.05
533.396	17.53
533.64	18.89
533.884	19.42
534.128	23.47
534.371	29.35
534.615	34.44
534.859	38.74
535.103	42.4
535.347	46.56
535.59	53.49
535.834	55.33
536.078	63.23
536.322	72.89
536.565	85.17
536.809	92.27
537.053	107.95
537.296	121.01
537.54	139.45
537.784	160.44
538.027	186.88
538.271	212.54
538.514	241.41
538.758	269.53
539.001	295.35
539.245	322.81
539.488	349.91
539.732	377.13
539.975	402.1
540.219	426.7
540.462	450.97
540.706	475.98
540.949	496.46
541.192	517.45
541.436	544.27
541.679	571.88
541.922	601.54
542.166	631.73
542.409	672.67
542.652	715.99
542.895	760.45
543.139	800.54
543.382	838.93
543.625	867.26
543.868	891.54
544.111	910.65
544.354	925.95
544.598	935.16
544.841	940.4
545.084	937.93
545.327	929.72
545.57	920.52
545.813	909.6
546.056	891.8
546.299	874.45
546.542	858.37
546.785	843.41
547.028	825.71
547.271	806.71
547.514	789.26
547.756	771.09
547.999	753.68
548.242	734.53
548.485	716.26
548.728	700.31
548.971	676.57
549.213	656.49
549.456	627.34
549.699	592.24
549.942	551.58
550.184	506.55
550.427	461.7
550.67	419.56
550.912	377.18
551.155	345.96
551.398	315.54
551.64	286.86
551.883	262.83
552.125	239.55
552.368	220.41
552.61	201
552.853	189.35
553.095	174.69
553.338	161.87
553.58	151.82
553.823	138.89
554.065	132.88
554.308	119.69
554.55	109.35
554.792	98.76
555.035	90.63
555.277	82.32
555.519	75.82
555.762	70.16
556.004	64.35
556.246	54.71
556.488	50.47
556.731	42.2
556.973	39.97
557.215	34.98
557.457	32.8
557.699	33.02
557.941	26.83
558.183	23.76
558.426	24.74
558.668	18.72
558.91	17.54
559.152	17.26
559.394	14.29
559.636	14.59
559.878	14.94
560.12	14.41
560.362	14.02
560.604	11.73
560.845	9.69
561.087	7.7
561.329	10.45
561.571	7.17
561.813	7.04
562.055	5.56
562.297	7.29
562.538	6.61
562.78	7.44
563.022	5.13
563.264	4.86
563.505	5.53
563.747	6.76
563.989	5.21
564.23	4.13
564.472	1.72
564.714	4.87
564.955	4.48
565.197	1.11
565.438	3.39
565.68	6.58
565.921	4.18
566.163	5.77
566.404	4.37
566.646	4.76
566.887	6.29
567.129	7.41
567.37	4.61
567.612	7
567.853	2.69
568.094	4.43
568.336	4.28
568.577	5.5
568.818	5.8
569.06	3.32
569.301	1.5
569.542	1.86
569.783	2.4
570.025	1.4
570.266	1.77
570.507	3.02
570.748	1.7
570.989	1.72
571.23	4.1
571.472	3.99
571.713	4.57
571.954	5.57
572.195	4.36
572.436	6.68
572.677	9.37
572.918	13.05
573.159	12.35
573.4	14.23
573.641	17.17
573.882	22.34
574.123	24.58
574.364	23.38
574.604	26.72
574.845	28.93
575.086	31.37
575.327	37.68
575.568	41.29
575.809	46.01
576.049	49.04
576.29	49.87
576.531	60.51
576.771	67.47
577.012	74.42
577.253	78.94
577.494	83.21
577.734	86.48
577.975	89.47
578.215	93.47
578.456	94.73
578.697	98.42
578.937	103.43
579.178	104.66
579.418	106.06
579.659	109.48
579.899	107.58
580.14	110.27
580.38	110.49
580.62	112.22
580.861	117.23
581.101	117.07
581.342	116.53
581.582	111.8
581.822	114.7
582.063	115.05
582.303	115.13
582.543	115.98
582.783	116.88
583.024	117.93
583.264	119
583.504	118.33
583.744	122.61
583.984	121.36
584.224	123
584.465	123.32
584.705	124.07
584.945	126.72
585.185	129.36
585.425	133.48
585.665	133.26
585.905	133.52
586.145	133.15
586.385	130.24
586.625	133.81
586.865	133.41
587.105	131.35
587.345	132.02
587.585	131.62
587.824	129.55
588.064	128.18
588.304	122.66
588.544	121.02
588.784	119.27
589.024	122.54
589.263	121.9
589.503	121.52
589.743	127.13
589.982	127.09
590.222	128.01
590.462	126.58
590.701	124.29
590.941	125.42
591.181	121.64
591.42	117.29
591.66	116.77
591.899	115.89
592.139	112.88
592.378	110.58
592.618	105.65
592.857	100.6
593.097	98.85
593.336	96.9
593.576	95.8
593.815	97
594.055	93.61
594.294	93.8
594.533	93.34
594.773	93.01
595.012	92.66
595.251	94.29
595.491	97.07
595.73	100.63
595.969	102.76
596.208	103.96
596.447	108.52
596.687	109.59
596.926	107.65
597.165	101.95
597.404	102.05
597.643	97.24
597.882	93.51
598.121	93.19
598.36	92.19
598.599	92.58
598.838	90.44
599.077	84.3
599.316	83.1
599.555	80.43
599.794	79.42
600.033	80.25
600.272	80.88
600.511	78.92
600.75	80.06
600.989	79.68
601.228	78.25
601.466	78.19
601.705	78.05
601.944	76.68
602.183	78.65
602.422	76.96
602.66	74.47
602.899	71.59
603.138	71.18
603.376	69.11
603.615	68.01
603.854	64.87
604.092	64.18
604.331	64.87
604.569	65.82
604.808	65.06
605.047	67.78
605.285	69.73
605.524	72.09
605.762	72.77
606	77.16
606.239	84.15
606.477	92.06
606.716	96.93
606.954	109.9
607.193	126.68
607.431	148.9
607.669	180.82
607.908	219.66
608.146	263.98
608.384	308.32
608.622	351.71
608.861	389.7
609.099	425.84
609.337	458.45
609.575	487.21
609.813	516.83
610.052	541.32
610.29	559.68
610.528	576.57
610.766	593.6
611.004	608.56
611.242	620.97
611.48	634.03
611.718	642.12
611.956	652.42
612.194	660.55
612.432	667.34
612.67	672.14
612.908	677.11
613.146	678.27
613.384	678.64
613.621	676.58
613.859	674.95
614.097	669.49
614.335	660.2
614.573	644.1
614.811	622.33
615.048	590.51
615.286	553.88
615.524	512.16
615.761	465.26
615.999	423.93
616.237	387.42
616.474	354.34
616.712	324.82
616.95	294.57
617.187	266.83
617.425	245.29
617.662	226.02
617.9	206.08
618.137	186.5
618.375	170.73
618.612	156.38
618.85	145.1
619.087	138.92
619.325	129.62
619.562	118.7
619.799	109.3
620.037	102.75
620.274	94.86
620.511	93.92
620.749	86.74
620.986	83.04
621.223	77.87
621.461	76.6
621.698	76.36
621.935	75.46
622.172	73.78
622.409	75.82
622.647	75.76
622.884	74.14
623.121	78.64
623.358	77.74
623.595	77.39
623.832	77.12
624.069	76.87
624.306	78.82
624.543	80.61
624.78	81.51
625.017	82.27
625.254	85.59
625.491	89.84
625.728	92.46
625.965	92.33
626.202	91.2
626.438	89.34
626.675	88.79
626.912	93.43
627.149	97.26
627.386	99.98
627.622	101.55
627.859	103.69
628.096	107.33
628.333	110.12
628.569	112.99
628.806	116.98
629.043	117.14
629.279	119.55
629.516	122.26
629.752	119
629.989	119.47
630.225	115.95
630.462	113.86
630.699	113.02
630.935	111.22
631.171	107.05
631.408	105.46
631.644	100.96
631.881	95.52
632.117	90.93
632.354	88.9
632.59	84.43
632.826	82.02
633.063	79.15
633.299	77.72
633.535	74.23
633.771	71
634.008	70.13
634.244	65.56
634.48	60.03
634.716	57.4
634.953	52.79
635.189	46.69
635.425	43.27
635.661	40.61
635.897	35.11
636.133	31.92
636.369	28.41
636.605	21.65
636.841	17
637.077	16.66
637.313	14.24
637.549	13.84
637.785	12.35
638.021	11.57
638.257	9.09
638.493	11.16
638.729	8.56
638.965	12.57
639.2	14.03
639.436	13.89
639.672	13.95
639.908	11.91
640.144	15.73
640.379	18.42
640.615	15.93
640.851	17.3
641.086	19.33
641.322	18.56
641.558	18.12
641.793	19.25
642.029	17.34
642.264	16.05
642.5	15.91
642.736	13.08
642.971	14.01
643.207	12.37
643.442	8.75
643.678	7.99
643.913	9.27
644.148	9.52
644.384	11.1
644.619	11.52
644.855	13.89
645.09	14.14
645.325	14.1
645.561	15.3
645.796	12.78
646.031	15.64
646.266	12.51
646.502	12.55
646.737	15.36
646.972	16.43
647.207	19.05
647.442	16.34
647.678	13.58
647.913	17.73
648.148	19.97
648.383	18.13
648.618	18.11
648.853	21.33
649.088	22.73
649.323	25.45
649.558	27.9
649.793	29.53
650.028	30.72
650.263	27.8
650.498	31.56
650.733	32.25
650.968	31.47
651.202	33.75
651.437	32.7
651.672	29.73
651.907	29.74
652.142	29.81
652.376	30.18
652.611	32.2
652.846	33.37
653.081	33.12
653.315	32.82
653.55	33.71
653.785	32.84
654.019	32.94
654.254	29.4
654.488	29.26
654.723	25.14
654.958	22.38
655.192	20.68
655.427	16.05
655.661	17.7
655.896	19.35
656.13	20.06
656.364	16.76
656.599	13.82
656.833	15.72
657.068	16.68
657.302	16.42
657.536	14.07
657.771	15.22
658.005	15.32
658.239	17.42
658.474	14.9
658.708	16.26
658.942	16.34
659.176	15.64
659.41	14.17
659.645	13.5
659.879	12.86
660.113	9.47
660.347	10.05
660.581	7.37
660.815	6.4
661.049	4.91
661.283	2.15
661.517	1.25
661.751	0.61
661.985	0.4
662.219	3.31
662.453	1.92
662.687	3.84
662.921	0.71
663.155	0.05
663.389	-7.07
663.622	-8.52
663.856	-6.17
664.09	-9.68
664.324	-11.31
664.558	-10.43
664.791	-9.95
665.025	-11.05
665.259	-11.36
665.492	-12.71
665.726	-10.02
665.96	-11.25
666.193	-12.16
666.427	-12.03
666.661	-13.46
666.894	-15.6
667.128	-16.18
667.361	-13.22
667.595	-14.37
667.828	-14.13
668.062	-15.64
668.295	-15.36
668.529	-14.69
668.762	-13.64
668.995	-15.08
669.229	-11.36
669.462	-13.35
669.695	-13.36
669.929	-14.83
670.162	-14.5
670.395	-17.39
670.629	-14.65
670.862	-11.36
671.095	-15.41
671.328	-14.37
671.561	-17.95
671.795	-17.15
672.028	-16.57
672.261	-15.92
672.494	-12.96
672.727	-14.66
672.96	-13.96
673.193	-14.33
673.426	-10.15
673.659	-10.44
673.892	-9.64
674.125	-9.03
674.358	-10.25
674.591	-11.73
674.824	-12.23
675.057	-13.03
675.29	-13.77
675.523	-11.3
675.755	-12.57
675.988	-11.64
676.221	-7.69
676.454	-8.55
676.687	-6.22
676.919	-6.28
677.152	-5.99
677.385	-5.51
677.617	-4.04
677.85	-3.19
678.083	-4.77
678.315	-1.17
678.548	-1.81
678.78	-0.18
679.013	-1.31
679.246	0.37
679.478	0.8
679.711	-1.87
679.943	1.72
680.175	-1.39
680.408	3.34
680.64	-0.71
680.873	0.68
681.105	1.85
681.338	4.57
681.57	4.21
681.802	7.2
682.034	7.34
682.267	10.33
682.499	12.7
682.731	10.08
682.964	9.52
683.196	7.88
683.428	4.42
683.66	2.62
683.892	6.4
684.124	8.75
684.356	12.78
684.589	14.32
684.821	12.73
685.053	12.87
685.285	14.42
685.517	15.53
685.749	16.18
685.981	18.08
686.213	18.77
686.445	19.78
686.676	16.62
686.908	17.79
687.14	16.01
687.372	17.84
687.604	13.16
687.836	14.42
688.068	14.52
688.299	14.61
688.531	12.13
688.763	16.83
688.995	13.29
689.226	16.55
689.458	14.54
689.69	14.27
689.921	13.52
690.153	14.47
690.384	16.52
690.616	16.48
690.848	17.47
691.079	13.98
691.311	11.52
691.542	7.84
691.774	5.84
692.005	9.08
692.237	10.57
692.468	7.99
692.699	6.39
692.931	5.66
693.162	2.06
693.393	1.03
693.625	-2.25
693.856	-2.2
694.087	-3.32
694.319	-2.2
694.55	-3.61
694.781	-3.53
695.012	-4.36
695.243	-8.18
695.475	-9.95
695.706	-9.48
695.937	-10.86
696.168	-11.63
696.399	-13.81
696.63	-13.69
696.861	-13.8
697.092	-8.29
697.323	-5.45
697.554	-5.26
697.785	-3.09
698.016	-2.09
698.247	-4.8
698.478	-3.23
698.709	-1.99
698.94	-0.97
699.171	-2.08
699.401	-4.6
699.632	-3.33
699.863	-6.16
700.094	-5.77
700.325	-2.36
700.555	-0.12
700.786	1.69
701.017	2.99
701.247	2.5
701.478	1.93
701.709	2.62
701.939	2.84
702.17	7.91
702.401	12.01
702.631	13.04
702.862	12.3
703.092	9.69
703.323	13.68
703.553	15.75
703.784	17.61
704.014	19.49
704.244	14.77
704.475	14.15
704.705	16.75
704.936	17.84
705.166	18.9
705.396	21.83
705.627	23.23
705.857	25.14
706.087	27.81
706.317	27.78
706.548	26.12
706.778	27.07
707.008	29.18
707.238	30.64
707.468	29.12
707.698	27.05
707.928	27.51
708.158	28.63
708.389	29.49
708.619	29.35
708.849	29.52
709.079	31.53
709.309	27.7
709.539	25.88
709.768	27.26
709.998	31.68
710.228	31.81
710.458	31.12
710.688	28.43
710.918	26.94
711.148	24.78
711.378	24.73
711.607	23.07
711.837	21.65
712.067	19.39
712.297	17.01
712.526	16.41
712.756	15.39
712.986	10.57
713.215	6.5
713.445	4.65
713.674	6.27
713.904	5.21
714.134	8.18
714.363	6.44
714.593	5.83
714.822	4.21
715.052	3.39
715.281	2.14
715.511	-0.74
715.74	-1.57
715.969	-3.33
716.199	-6.16
716.428	-7.49
716.657	-8.65
716.887	-7.03
717.116	-10.96
717.345	-9.76
717.575	-11.67
717.804	-10.38
718.033	-12.51
718.262	-14.69
718.492	-14.27
718.721	-13.27
718.95	-14.81
719.179	-17.41
719.408	-16.9
719.637	-21.38
719.866	-22.87
720.095	-20.69
720.324	-21.55
720.553	-23.32
720.782	-24.74
721.011	-25.28
721.24	-28.4
721.469	-29.32
721.698	-28.75
721.927	-27.6
722.156	-30.02
722.385	-30.15
722.613	-27.16
722.842	-26.47
723.071	-22.81
723.3	-20.77
723.529	-19.88
723.757	-20.02
723.986	-24.7
724.215	-26.99
724.443	-26.4
724.672	-23.15
724.901	-23.98
725.129	-20.91
725.358	-16.88
725.586	-19.59
725.815	-21.37
726.043	-22.55
726.272	-21.72
726.5	-21.56
726.729	-17.3
726.957	-20.06
727.186	-21.98
727.414	-21.84
727.642	-20.88
727.871	-19.29
728.099	-19.25
728.327	-20.59
728.556	-18.39
728.784	-17.95
729.012	-20.05
729.241	-17.06
729.469	-17.75
729.697	-19.05
729.925	-18.56
730.153	-21.41
730.381	-21.73
730.61	-21.75
730.838	-22.78
731.066	-20.05
731.294	-16.66
731.522	-19.09
731.75	-23.86
731.978	-24.44
732.206	-25.23
732.434	-27.43
732.662	-25.41
732.89	-26.69
733.118	-26.77
733.346	-27.12
733.573	-26.29
733.801	-27.01
734.029	-19.58
734.257	-18.52
734.485	-13.25
734.712	-12.11
734.94	-15.45
735.168	-11.91
735.396	-10.63
735.623	-13.04
735.851	-12.26
736.078	-10.29
736.306	-8.09
736.534	-9.19
736.761	-8.57
736.989	-10.45
737.216	-10.89
737.444	-13.92
737.671	-13.04
737.899	-6.83
738.126	-9.12
738.354	-10.04
738.581	-8.57
738.809	-7.75
739.036	-10.08
739.263	-10.11
739.491	-11.02
739.718	-11.44
739.945	-5.4
740.173	-2.72
740.4	-2.8
740.627	-5.16
740.854	-6.2
741.081	-9.22
741.309	-11.16
741.536	-16.2
741.763	-16.44
741.99	-13.12
742.217	-14.6
742.444	-14.21
742.671	-12.56
742.898	-13.14
743.125	-15.99
743.352	-20.36
743.579	-18.77
743.806	-19.43
744.033	-16.22
744.26	-15.71
744.487	-14.52
744.714	-14.35
744.941	-16.41
745.167	-12.44
745.394	-14.61
745.621	-14.83
745.848	-13.94
746.075	-10.77
746.301	-8.73
746.528	-4.69
746.755	-5.69
746.981	-8.35
747.208	-7.44
747.435	-5.11
747.661	-3.92
747.888	-2.17
748.114	-5.53
748.341	-1.43
748.567	0.46
748.794	-2.45
749.02	-3.04
749.247	-4.9
749.473	-6.39
749.7	-5.88
749.926	-5.69
750.152	-1.16
750.379	-0.72
750.605	-0.41
750.831	-0.53
751.058	-2.66
751.284	-4.05
751.51	-0.7
751.737	0.57
751.963	-1.5
752.189	-2.89
752.415	-2.42
752.641	-3.41
752.867	-3.42
753.094	-5.59
753.32	-5.46
753.546	-7.11
753.772	-4.9
753.998	-6
754.224	-6.56
754.45	-7.41
754.676	-7.89
754.902	-8.49
755.128	-7.61
755.354	-8.92
755.579	-6.75
755.805	-3.47
756.031	-5.86
756.257	-6.47
756.483	-6.88
756.709	-9
756.934	-8.78
757.16	-9.99
757.386	-9.53
757.612	-12.89
757.837	-14.37
758.063	-12.86
758.289	-8.41
758.514	-10.96
758.74	-15
758.965	-17.09
759.191	-15.97
759.416	-15.24
759.642	-12.62
759.868	-12.58
760.093	-9.62
760.318	-12.76
760.544	-13.45
760.769	-14.33
760.995	-14.25
761.22	-14.86
761.445	-11.42
761.671	-8.9
761.896	-6.71
762.121	-6.24
762.347	-5.99
762.572	-10.42
762.797	-12.13
763.022	-10.91
763.248	-6.07
763.473	-5.61
763.698	-6.38
763.923	-6.15
764.148	-6.67
764.373	-7.24
764.598	-4.88
764.823	-1.77
765.048	-4.1
765.273	-9.04
765.498	-9.73
765.723	-8.58
765.948	-6.8
766.173	-8.05
766.398	-6.31
766.623	-10.79
766.848	-10.04
767.073	-11.19
767.298	-10.04
767.522	-10.78
767.747	-10.01
767.972	-11.97
768.197	-11.55
768.421	-14.42
768.646	-18.78
768.871	-22.13
769.095	-21.53
769.32	-21.28
769.545	-20.06
769.769	-18.05
769.994	-16.74
770.218	-21.34
770.443	-19.32
770.667	-17.64
770.892	-18.18
771.116	-18.95
771.341	-15.99
771.565	-16.33
771.79	-16.32
772.014	-16.27
772.238	-17.21
772.463	-15
772.687	-15.12
772.911	-15.03
773.136	-16.3
773.36	-16.07
773.584	-13.49
773.808	-16.04
774.033	-16.84
774.257	-16.54
774.481	-16.72
774.705	-17.47
774.929	-15.93
775.153	-16.42
775.377	-15.44
775.602	-15.56
775.826	-13.48
776.05	-11.31
776.274	-11.42
776.498	-11.56
776.722	-12.23
776.945	-11.05
777.169	-10.56
777.393	-12.08
777.617	-14.12
777.841	-13.95
778.065	-13.08
778.289	-15.01
778.512	-15.12
778.736	-14.07
778.96	-14.74
779.184	-12.24
779.407	-13.38
779.631	-13.53
779.855	-15.24
780.078	-15.08
780.302	-17.28
780.526	-19.02
780.749	-19.76
780.973	-17.51
781.196	-17.57
781.42	-19.31
781.643	-19.66
781.867	-18.08
782.09	-20.62
782.314	-20.52
782.537	-20.29
782.76	-20.84
782.984	-20.08
783.207	-21.43
783.431	-22.27
783.654	-23.88
783.877	-27.48
784.1	-28.89
784.324	-29.23
784.547	-27.69
784.77	-31.07
784.993	-31.91
785.216	-33.95
785.44	-34.02
785.663	-37.71
785.886	-34.72
786.109	-34.49
786.332	-34.04
786.555	-33.25
786.778	-30.66
787.001	-28.45
787.224	-26.87
787.447	-25.42
787.67	-22.22
787.893	-22.85
788.116	-23.09
788.339	-21.97
788.561	-23.04
788.784	-28.19
789.007	-29.21
789.23	-31.25
789.453	-30.64
789.675	-33.79
789.898	-35.84
790.121	-37.29
790.344	-37.54
790.566	-36.03
790.789	-34.29
791.012	-33.11
791.234	-31.24
791.457	-28.07
791.679	-26.79
791.902	-26.05
792.124	-25.17
792.347	-26
792.569	-24.55
792.792	-28.42
793.014	-25.76
793.237	-25.17
793.459	-23.98
793.681	-23.33
793.904	-25.8
794.126	-27.15
794.348	-28.27
794.571	-26.52
794.793	-27.73
795.015	-26.3
795.237	-25.5
795.46	-23.82
795.682	-21.81
795.904	-18.87
796.126	-20.8
796.348	-20.46
796.57	-16.74
796.792	-15.73
797.014	-12
797.237	-8
797.459	-6.42
797.681	-5.83
797.903	-7.33
798.124	-6.11
798.346	5.06
798.568	6.7
798.79	10.36
799.012	13.39
799.234	14.58
799.456	15.19
799.678	18.13
799.899	15.54
800.121	12.78
800.343	12.29
800.565	11.23
800.786	12.01
801.008	13.54
801.23	13.51
801.451	13.21
801.673	11.74
801.895	10.61
802.116	10.5
802.338	11.73
802.559	12.65
802.781	10.23
803.002	13.57
803.224	15.66
803.445	13.16
803.667	13.97
803.888	12.03
804.109	10.49
804.331	9.85
804.552	10.32
804.773	13.47
804.995	10.35
805.216	-4.19
805.437	-5.97
805.658	-8.24
805.88	-11.48
806.101	-11.62
806.322	-11.21
806.543	-12.31
806.764	-14.95
806.985	-13.28
807.207	-13.03
807.428	-12.56
807.649	-15.26
807.87	-15.68
808.091	-14.47
808.312	-15
808.533	-10.31
808.754	-8.1
808.975	-8.02
809.195	-6.28
809.416	-5.09
809.637	-4.52
809.858	-6.59
810.079	-9.64
810.3	-6.82
810.52	-7.98
810.741	-9.47
810.962	-11.38
811.183	-12.02
811.403	-12.37
811.624	-12.56
811.845	-11.47
812.065	-10.91
812.286	-9.51
812.506	-11.13
812.727	-9.87
812.948	-8.05
813.168	-6.83
813.389	-6.98
813.609	-3.82
813.83	-4.54
814.05	-6.56
814.27	-5.44
814.491	-1.74
814.711	-3.15
814.931	-7.41
815.152	-7.98
815.372	-10.31
815.592	-11.17
815.813	-13.23
816.033	-14.86
816.253	-14.68
816.473	-14.4
816.694	-13.94
816.914	-12.13
817.134	-13.57
817.354	-16.28
817.574	-16.46
817.794	-16.92
818.014	-18.2
818.234	-19.51
818.454	-21.66
818.674	-23.45
818.894	-25.43
819.114	-23.24
819.334	-22.05
819.554	-20.18
819.774	-19.11
819.994	-21.12
820.214	-22.17
820.433	-22.94
820.653	-23.04
820.873	-20.19
821.093	-20.55
821.312	-22.04
821.532	-18.99
821.752	-14.85
821.972	-16.56
822.191	-15.2
822.411	-18.17
822.63	-16.62
822.85	-17.07
823.07	-20.31
823.289	-20.57
823.509	-21.62
823.728	-19.25
823.948	-20.2
824.167	-20.55
824.387	-20.94
824.606	-18.53
824.825	-19.38
825.045	-17.61
825.264	-17.24
825.483	-15.6
825.703	-11.94
825.922	-14.25
826.141	-16.18
826.361	-18.63
826.58	-21.35
826.799	-23.43
827.018	-22.6
827.237	-21.83
827.456	-19
827.676	-19.59
827.895	-20.25
828.114	-19.46
828.333	-20.76
828.552	-21.04
828.771	-18.36
828.99	-20.46
829.209	-18.89
829.428	-17.3
829.647	-15.83
829.866	-14.04
830.084	-14.31
830.303	-12.91
830.522	-14.61
830.741	-14.31
830.96	-12.42
831.179	-11.94
831.397	-13.14
831.616	-11.65
831.835	-12.96
832.053	-11.94
832.272	-12.17
832.491	-12.36
832.709	-13.38
832.928	-12.11
833.147	-10.9
833.365	-9.85
833.584	-6.76
833.802	-4.1
834.021	-4.35
834.239	-4.19
834.458	-5.21
834.676	-7.87
834.894	-8.72
835.113	-10.6
835.331	-10.99
835.55	-12.63
835.768	-12.01
835.986	-11.1
836.204	-12.71
836.423	-13.02
836.641	-14.85
836.859	-15.46
837.077	-15.35
837.296	-14.77
837.514	-15.41
837.732	-15.72
837.95	-15.97
838.168	-14.67
838.386	-15.84
838.604	-12.46
838.822	-12.05
839.04	-12.37
839.258	-11.23
839.476	-9.59
839.694	-9.42
839.912	-10.53
840.13	-11.3
840.348	-8.76
840.566	-12.62
840.783	-10.81
841.001	-12.74
841.219	-11.2
841.437	-10.42
841.655	-9.98
841.872	-8.67
842.09	-8.64
842.308	-7.19
842.525	-6.6
842.743	-5.87
842.961	-6.58
843.178	-8.83
843.396	-4.85
843.613	-2.5
843.831	-1.84
844.048	-2.53
844.266	-3.21
844.483	-4.88
844.701	-6.05
844.918	-5.36
845.136	-5.21
845.353	-7.62
845.57	-7.92
845.788	-5.02
846.005	-9.53
846.222	-10.93
846.439	-10.15
846.657	-9.73
846.874	-9.57
847.091	-12.43
847.308	-11.99
847.526	-14.09
847.743	-14.78
847.96	-17.22
848.177	-16.37
848.394	-15.29
848.611	-16.05
848.828	-17.22
849.045	-19.8
849.262	-20.09
849.479	-20.36
849.696	-20.78
849.913	-22.58
850.13	-26.34
850.347	-25.03
850.564	-24.73
850.78	-26.79
850.997	-26.6
851.214	-25.34
851.431	-24.39
851.647	-28.47
851.864	-28.27
852.081	-27.93
852.298	-30.94
852.514	-32.5
852.731	-29.36
852.948	-26.9
853.164	-26.49
853.381	-27.11
853.597	-27.97
853.814	-30.44
854.03	-31.59
854.247	-28.61
854.463	-27.51
854.68	-28.41
854.896	-28.36
855.113	-29.04
855.329	-28.23
855.545	-26.75
855.762	-26.1
855.978	-29.27
856.194	-30.1
856.411	-27.12
856.627	-24.07
856.843	-23.82
857.059	-20.96
857.275	-23.2
857.492	-22.41
857.708	-19.16
857.924	-18.14
858.14	-14.93
858.356	-15.85
858.572	-15.77
858.788	-16.84
859.004	-14.64
859.22	-16.4
859.436	-16.38
859.652	-19.31
859.868	-20.25
860.084	-19.81
860.3	-19.47
860.516	-18.45
860.731	-17.11
860.947	-20.53
861.163	-19.33
861.379	-17.17
861.595	-15.93
861.81	-14.67
862.026	-14.27
862.242	-13.37
862.457	-13.82
862.673	-11.51
862.889	-12.71
863.104	-13.08
863.32	-11.96
863.535	-9.5
863.751	-15.23
863.966	-12.18
864.182	-9.05
864.397	-10.81
864.613	-12.2
864.828	-14.86
865.044	-11.48
865.259	-10.54
865.474	-10.73
865.69	-8.97
865.905	-8.15
866.12	-11.11
866.336	-11.4
866.551	-9.51
866.766	-10.82
866.981	-12.52
867.196	-11.85
867.412	-12.54
867.627	-13.22
867.842	-14.54
868.057	-15.25
868.272	-15.69
868.487	-17.61
868.702	-19.85
868.917	-20.64
869.132	-18.68
869.347	-18.13
869.562	-18.2
869.777	-17.67
869.992	-19.66
870.207	-21.77
870.422	-22.68
870.636	-24.84
870.851	-27.42
871.066	-29.05
871.281	-30.6
871.495	-30.7
871.71	-29.26
871.925	-31.13
872.14	-32.34
872.354	-34.95
872.569	-35.21
872.783	-31.34
872.998	-29.99
873.213	-31.44
873.427	-28.83
873.642	-26.37
873.856	-26.23
874.071	-26.62
874.285	-26.1
874.5	-27.94
874.714	-29.66
874.928	-31.16
875.143	-30.3
875.357	-30.65
875.571	-32.84
875.786	-33.12
876	-30.21
876.214	-29.76
876.429	-33.09
876.643	-32.06
876.857	-29.5
877.071	-26.99
877.285	-27.91
877.499	-31.18
877.714	-28.32
877.928	-24.48
878.142	-26.8
878.356	-28.81
878.57	-26.12
878.784	-25.14
878.998	-26.37
879.212	-24.07
879.426	-27.44
879.639	-26.65
879.853	-27.39
880.067	-27.58
880.281	-29.1
880.495	-27.73
880.709	-25.66
880.922	-26.28
881.136	-24.77
881.35	-23.11
881.564	-23.24
881.777	-27.13
881.991	-25.7
882.205	-21.64
882.418	-21.9
882.632	-24.68
882.845	-25.02
883.059	-23.79
883.273	-24.53
883.486	-26.81
883.7	-24.29
883.913	-22.69
884.126	-20.33
884.34	-24.62
884.553	-27.51
884.767	-22.34
884.98	-22.41
885.193	-25.24
885.407	-25.37
885.62	-23.35
885.833	-23.28
886.046	-22.01
886.26	-22.96
886.473	-23.2
886.686	-25.02
886.899	-22.58
887.112	-23.43
887.326	-25.4
887.539	-23.64
887.752	-22.92
887.965	-24.08
888.178	-22.7
888.391	-21.12
888.604	-20.71
888.817	-23.15
889.03	-21.79
889.243	-23.04
889.455	-24.51
889.668	-24.91
889.881	-22.17
890.094	-22.46
890.307	-26.58
890.52	-27.54
890.732	-26.88
890.945	-26.98
891.158	-26.4
891.37	-29.13
891.583	-28.77
891.796	-26.87
892.008	-27.67
892.221	-28.77
892.434	-33.89
892.646	-34.2
892.859	-34.84
893.071	-33.35
893.284	-30.13
893.496	-30.88
893.709	-31.95
893.921	-30.08
894.133	-31.83
894.346	-32.21
894.558	-33.08
894.771	-33.63
894.983	-31.24
895.195	-29.27
895.407	-29.03
895.62	-31.81
895.832	-31.48
896.044	-29.59
896.256	-30.94
896.468	-33.35
896.681	-32.11
896.893	-30.87
897.105	-31.09
897.317	-31.09
897.529	-27.83
897.741	-27.12
897.953	-24.31
898.165	-26.42
898.377	-28.41
898.589	-26.85
898.801	-26.57
899.013	-23.91
899.224	-19.77
899.436	-16.95
899.648	-18.59
899.86	-20.36
900.072	-18.94
900.283	-16.83
900.495	-16.14
900.707	-14.24
900.919	-16.92
901.13	-14.68
901.342	-16.32
901.554	-17.86
901.765	-19.11
901.977	-19.85
902.188	-20.11
902.4	-21.61
902.611	-21.97
902.823	-22.42
903.034	-24.4
903.246	-26.14
903.457	-26.35
903.669	-27.2
903.88	-28.15
904.091	-29.37
904.303	-28.19
904.514	-29.88
904.725	-26.78
904.936	-25.02
905.148	-23.53
905.359	-22.04
905.57	-21.19
905.781	-25.45
905.992	-28.02
906.204	-27.63
906.415	-27.35
906.626	-29.31
906.837	-27.31
907.048	-27.35
907.259	-28.76
907.47	-29.58
907.681	-30.45
907.892	-26.52
908.103	-27.04
908.314	-30.73
908.525	-29.07
908.735	-29.1
908.946	-28.14
909.157	-28.69
909.368	-25.7
909.579	-24.36
909.789	-26.04
910	-27.58
910.211	-24.62
910.421	-24.6
910.632	-23.71
910.843	-26.68
911.053	-23.5
911.264	-21.39
911.475	-22.98
911.685	-23.56
911.896	-23.44
912.106	-24.57
912.317	-27.18
912.527	-23.25
912.737	-23.42
912.948	-24.02
913.158	-23.65
913.369	-26.37
913.579	-25.23
913.789	-23.04
914	-19.49
914.21	-19.56
914.42	-21.01
914.63	-20.87
914.841	-17.76
915.051	-16.15
915.261	-14.26
915.471	-11.53
915.681	-11.39
915.891	-11.97
916.101	-12.44
916.311	-11.16
916.521	-10.09
916.731	-10.31
916.941	-7.36
917.151	-8.21
917.361	-4.33
917.571	-8.56
917.781	-11.57
917.991	-14.3
918.201	-15.07
918.411	-17.7
918.621	-16.66
918.83	-13.37
919.04	-16.19
919.25	-13.31
919.46	-11.2
919.669	-13.62
919.879	-14.42
920.089	-16.45
920.298	-18.57
920.508	-18.33
920.717	-17.49
920.927	-19.47
921.136	-18.81
921.346	-20.74
921.555	-24.02
921.765	-25.19
921.974	-28.01
922.184	-31.94
922.393	-32.36
922.603	-31.68
922.812	-29.66
923.021	-29.49
923.23	-29.5
923.44	-33.11
923.649	-32.14
923.858	-34.27
924.067	-34.61
924.277	-36.09
924.486	-31.87
924.695	-32.23
924.904	-30.26
925.113	-30.93
925.322	-30.71
925.531	-30.82
925.74	-34.05
925.949	-35.82
926.158	-33.43
926.367	-33
926.576	-31.54
926.785	-33.09
926.994	-33.58
927.203	-32.19
927.412	-30.32
927.621	-30.7
927.83	-28.09
928.038	-28.67
928.247	-28.25
928.456	-28.4
928.665	-25.31
928.873	-22.74
929.082	-22.18
929.291	-22.09
929.499	-20.77
929.708	-22.01
929.916	-21.03
930.125	-22.85
930.333	-23.61
930.542	-20.54
930.75	-16.11
930.959	-16.11
931.167	-17.18
931.376	-17.75
931.584	-15.66
931.793	-14.55
932.001	-15.61
932.209	-17.73
932.418	-19.9
932.626	-21.37
932.834	-23.24
933.042	-28.33
933.251	-27.67
933.459	-27.94
933.667	-29.8
933.875	-30.35
934.083	-27.77
934.291	-27.15
934.499	-25.69
934.707	-25.71
934.915	-25.7
935.123	-23.85
935.331	-25.76
935.539	-28.35
935.747	-28.76
935.955	-30.12
936.163	-30.56
936.371	-29.46
936.579	-27.2
936.787	-27.42
936.995	-29.89
937.202	-34.03
937.41	-34.98
937.618	-35.39
937.826	-35.3
938.033	-40.88
938.241	-43.32
938.449	-40.14
938.656	-36.59
938.864	-35.49
939.071	-35.1
939.279	-32.07
939.486	-27.41
939.694	-27.24
939.901	-29.4
940.109	-28.84
940.316	-29.42
940.524	-31.63
940.731	-32.29
940.939	-31.24
941.146	-32.3
941.353	-32.02
941.561	-33.07
941.768	-33.2
941.975	-31.14
942.182	-32.93
942.39	-32.37
942.597	-28.76
942.804	-30.36
943.011	-31.08
943.218	-29.46
943.425	-28.54
943.632	-25.86
943.839	-26.25
944.046	-26.71
944.253	-26.2
944.46	-23.68
944.667	-19.33
944.874	-19.75
945.081	-18.82
945.288	-18.37
945.495	-15.44
945.702	-16.24
945.909	-18.29
946.115	-16.07
946.322	-16.73
946.529	-17.74
946.736	-17.39
946.942	-16.01
947.149	-18.73
947.356	-20.34
947.562	-21.12
947.769	-21.91
947.976	-23.21
948.182	-22.33
948.389	-22.18
948.595	-21.21
948.802	-21.01
949.008	-23.28
949.215	-21.1
949.421	-21.78
949.628	-23.82
949.834	-23.6
950.04	-25.43
950.247	-21.75
950.453	-19.39
950.659	-21.66
950.865	-20.23
951.072	-25.05
951.278	-22.89
951.484	-25.22
951.69	-28.32
951.896	-31.27
952.103	-32.53
952.309	-31.31
952.515	-31.82
952.721	-28.4
952.927	-27.46
953.133	-28.76
953.339	-29.12
953.545	-28.67
953.751	-28.79
953.957	-25.83
954.163	-26.62
954.369	-24.73
954.574	-26.31
954.78	-27.26
954.986	-25.15
955.192	-24.1
955.398	-24.59
955.603	-27.64
955.809	-25.85
956.015	-23.26
956.22	-23.05
956.426	-21.38
956.632	-24.79
956.837	-25.39
957.043	-24.28
957.248	-22.87
957.454	-21.9
957.66	-24.68
957.865	-25.17
958.07	-22.72
958.276	-23.3
958.481	-24.71
958.687	-25.86
958.892	-26.25
959.097	-27.33
959.303	-27.31
959.508	-27.22
959.713	-28.9
959.919	-27.73
960.124	-28.54
960.329	-28.69
960.534	-25.6
960.739	-24.77
960.945	-22.06
961.15	-22.6
961.355	-25.85
961.56	-28.34
961.765	-30.23
961.97	-29.18
962.175	-27.61
962.38	-31.52
962.585	-30.15
962.79	-33.32
962.995	-33.87
963.2	-35.04
963.404	-34.31
963.609	-38.59
963.814	-39.49
964.019	-42.71
964.224	-43.9
964.428	-41.75
964.633	-40.91
964.838	-38.69
965.042	-38.16
965.247	-39.75
965.452	-40.67
965.656	-39.62
965.861	-38.37
966.066	-38.01
966.27	-35.53
966.475	-30.08
966.679	-34.11
966.884	-33.36
967.088	-36.42
967.292	-38.16
967.497	-36.3
967.701	-36.46
967.906	-35.29
968.11	-32.02
968.314	-28.88
968.518	-30.17
968.723	-27.47
968.927	-27.13
969.131	-24.87
969.335	-21.75
969.539	-20.41
969.744	-18.79
969.948	-14.43
970.152	-12.26
970.356	-9.9
970.56	-8.69
970.764	-10.68
970.968	-7.21
971.172	-7.49
971.376	-6.77
971.58	-6.37
971.784	-3.79
971.988	-5.64
972.192	-3.67
972.395	-4.85
972.599	-9.18
972.803	-12.68
973.007	-10.19
973.21	-10.67
973.414	-9.73
973.618	-9.91
973.822	-10.68
974.025	-9.49
974.229	-9.23
974.432	-13.03
974.636	-15.33
974.84	-13.95
975.043	-14.08
975.247	-16.25
975.45	-18.17
975.654	-16.96
975.857	-16.13
976.06	-17.17
976.264	-20.07
976.467	-19.69
976.671	-18.97
976.874	-18.04
977.077	-17.65
977.28	-20.08
977.484	-22.27
977.687	-23.71
977.89	-21.29
978.093	-22.51
978.297	-20.79
978.5	-22.65
978.703	-20.21
978.906	-17.45
979.109	-17.05
979.312	-16.7
979.515	-17.78
979.718	-18.95
979.921	-18.91
980.124	-20.62
980.327	-19.77
980.53	-21.1
980.733	-18.17
980.936	-14.95
981.138	-17.94
981.341	-17.19
981.544	-17.13
981.747	-16.96
981.949	-19.15
982.152	-18.74
982.355	-19.8
982.558	-16.24
982.76	-19.58
982.963	-21.39
983.165	-22.06
983.368	-21.86
983.571	-22.15
983.773	-19.37
983.976	-17.85
984.178	-17.93
984.381	-17.64
984.583	-20.09
984.785	-20.84
984.988	-19.46
985.19	-18.37
985.392	-20.24
985.595	-22.69
985.797	-22.18
985.999	-18.04
986.202	-15.43
986.404	-14.75
986.606	-12.6
986.808	-14.27
987.01	-12.99
987.212	-14.2
987.415	-15.5
987.617	-16.07
987.819	-16.79
988.021	-15.86
988.223	-17.18
988.425	-17.52
988.627	-17.83
988.829	-22.2
989.031	-19.51
989.232	-20.66
989.434	-17.62
989.636	-18.56
989.838	-18.03
990.04	-15.37
990.242	-17.51
990.443	-18.95
990.645	-17.5
990.847	-14.21
991.048	-14.18
991.25	-15.62
991.452	-17.93
991.653	-17.6
991.855	-16.48
992.057	-17.56
992.258	-17.33
992.46	-19.06
992.661	-18
992.863	-20.61
993.064	-18
993.265	-20.75
993.467	-23.52
993.668	-20.98
993.87	-20.21
994.071	-20.17
994.272	-19.38
994.473	-17.42
994.675	-17.58
994.876	-16.36
995.077	-14.99
995.278	-15.08
995.48	-13.08
995.681	-16.14
995.882	-14.91
996.083	-15.51
996.284	-19.36
996.485	-17.51
996.686	-19.31
996.887	-20.78
997.088	-25.48
997.289	-25.46
997.49	-27.03
997.691	-27.24
997.892	-28.21
998.092	-23.04
998.293	-22.22
998.494	-23.97
998.695	-24.85
998.896	-24.68
999.096	-24.64
999.297	-23.55
999.498	-24.23
999.698	-27.08
999.899	-29.83
1000.1	-32.07
1000.3	-32.08
1000.501	-33.35
1000.701	-34.31
1000.902	-33.63
1001.102	-34.97
1001.303	-32.73
1001.503	-35.24
1001.704	-34.99
1001.904	-35.72
1002.105	-35.42
1002.305	-35.36
1002.505	-37.19
1002.706	-38.32
1002.906	-37.08
1003.106	-37.87
1003.306	-35.63
1003.507	-33.44
1003.707	-33.46
1003.907	-31.01
1004.107	-27.93
1004.307	-31.27
1004.507	-29.73
1004.707	-28.95
1004.907	-30.64
1005.107	-30.38
1005.308	-28.58
1005.507	-31.18
1005.707	-28
1005.907	-26.1
1006.107	-22.77
1006.307	-21.66
1006.507	-22
1006.707	-20.23
1006.907	-18.5
1007.106	-20.58
1007.306	-20.17
1007.506	-20.49
1007.706	-20.28
1007.905	-22.75
1008.105	-22.62
1008.305	-24.08
1008.504	-21.65
1008.704	-17.16
1008.903	-16.7
1009.103	-15.28
1009.303	-16.98
1009.502	-16.56
1009.702	-19.03
1009.901	-18.38
1010.1	-21.12
1010.3	-19.37
1010.499	-20.29
1010.699	-23.99
1010.898	-26.75
1011.097	-24.62
1011.296	-25.37
1011.496	-26.28
1011.695	-26.36
1011.894	-27.59
1012.093	-24.29
1012.293	-25.28
1012.492	-24.96
1012.691	-25.15
1012.89	-26.54
1013.089	-29.46
1013.288	-27.67
1013.487	-26.83
1013.686	-27.3
1013.885	-27
1014.084	-24.46
1014.283	-24.45
1014.482	-24.55
1014.681	-26.8
1014.88	-29.98
1015.078	-29.09
1015.277	-31.34
1015.476	-31.33
1015.675	-32.53
1015.873	-30.81
1016.072	-32.25
1016.271	-28.47
1016.47	-33.07
1016.668	-33.22
1016.867	-32.24
1017.065	-33.07
1017.264	-35.34
1017.463	-34.56
1017.661	-36.34
1017.86	-36.21
1018.058	-35.05
1018.256	-36.88
1018.455	-38.97
1018.653	-38.93
1018.852	-38.33
1019.05	-40.95
1019.248	-42.54
1019.447	-44.51
1019.645	-44.42
1019.843	-46.07
1020.041	-43.93
1020.24	-45.23
1020.438	-41.42
1020.636	-40.94
1020.834	-43.36
1021.032	-40.21
1021.23	-41.77
1021.428	-39.06
1021.626	-34.4
1021.824	-33.24
1022.022	-34.89
1022.22	-33.01
1022.418	-33.26
1022.616	-35.65
1022.814	-36.01
1023.012	-36.09
1023.21	-33.57
1023.408	-33.89
1023.606	-35.5
1023.803	-29.29
1024.001	-28
1024.199	-32.39
1024.397	-32.29
1024.594	-31.71
1024.792	-33.92
1024.99	-33
1025.187	-31.77
1025.385	-26.49
1025.582	-26.58
1025.78	-27.05
1025.977	-25.5
1026.175	-26.66
1026.372	-26.86
1026.57	-29.93
1026.767	-28.36
1026.965	-27.63
1027.162	-27.31
1027.359	-27.77
1027.557	-28.47
1027.754	-33.65
1027.951	-34.11
1028.148	-31.39
1028.346	-33.74
1028.543	-36.34
1028.74	-35.03
1028.937	-35.69
1029.134	-35.07
1029.331	-36.32
1029.528	-34.35
1029.725	-33.43
1029.923	-37.79
1030.12	-34.48
1030.317	-32.55
1030.513	-31.22
1030.71	-29.57
1030.907	-26.19
1031.104	-26.85
1031.301	-27.07
1031.498	-29.2
1031.695	-28.14
1031.892	-28.69
1032.088	-29.58
1032.285	-29.88
1032.482	-29.47
1032.678	-31.1
1032.875	-33.55
1033.072	-33.44
1033.268	-34.64
1033.465	-34.11
1033.662	-36.26
1033.858	-35.46
1034.055	-35.59
1034.251	-32.91
1034.448	-32.14
1034.644	-30.58
1034.84	-27.09
1035.037	-25.28
1035.233	-26.28
1035.43	-25.18
1035.626	-26.34
1035.822	-25.62
1036.019	-25.69
1036.215	-30.32
1036.411	-31.48
1036.607	-32.59
1036.803	-34.73
1037	-35.26
1037.196	-36.72
1037.392	-37.61
1037.588	-38.8
1037.784	-38.53
1037.98	-39.48
1038.176	-39.34
1038.372	-40.14
1038.568	-38.07
1038.764	-36.04
1038.96	-33.28
1039.156	-33.84
1039.352	-35.42
1039.547	-33.72
1039.743	-33.01
1039.939	-30.02
1040.135	-30.74
1040.331	-33.4
1040.526	-30.56
1040.722	-33.16
1040.918	-34.43
1041.113	-37.62
1041.309	-36.91
1041.505	-38.35
1041.7	-36.03
1041.896	-36.22
1042.091	-36.67
1042.287	-35.05
1042.482	-33.38
1042.678	-33.71
1042.873	-32.51
1043.069	-33.75
1043.264	-32.31
1043.459	-29.51
1043.655	-28.6
1043.85	-28.84
1044.045	-26.36
1044.24	-26.52
1044.436	-24.42
1044.631	-27.04
1044.826	-27.55
1045.021	-30.32
1045.216	-28.07
