Data from FLMT021711__1__18-14-02-688.txt Node

Date: Tue Nov 05 18:14:02 CET 2024
User: Etudiants TP
Spectrometer: FLMT02171
Trigger mode: 0
Integration Time (sec): 1,000000E-1
Scans to average: 5
Electric dark correction enabled: true
Nonlinearity correction enabled: false
Boxcar width: 15
XAxis mode: Wavelengths
Number of Pixels in Spectrum: 3648
>>>>>Begin Spectral Data<<<<<
194,658	-64,23
194,923	-61,95
195,188	-53,98
195,453	-53,65
195,717	-46,89
195,982	-44,92
196,247	-43,11
196,512	-46,66
196,777	-43,87
197,042	-40,86
197,307	-40,7
197,572	-35,48
197,837	-35,59
198,101	-32,77
198,366	-29,58
198,631	-28,39
198,896	-22,52
199,161	-15,04
199,425	-7,68
199,69	4,15
199,955	3,69
200,22	0,81
200,484	0,24
200,749	-0,28
201,014	1,1
201,278	1,18
201,543	2,89
201,807	2,74
202,072	4,57
202,337	5,43
202,601	5,62
202,866	5,04
203,13	7,87
203,395	4,5
203,659	5,24
203,924	2,78
204,189	3,82
204,453	5,96
204,717	9,08
204,982	9,48
205,246	10,81
205,511	13,1
205,775	11,76
206,04	17,31
206,304	16,91
206,568	17,63
206,833	18,64
207,097	19,72
207,361	21,79
207,626	25,4
207,89	25,26
208,154	26,11
208,419	27,94
208,683	28,85
208,947	31,9
209,211	30,69
209,476	30,54
209,74	31,63
210,004	33,55
210,268	33,63
210,532	36,37
210,796	36,65
211,061	36,6
211,325	36,37
211,589	35,39
211,853	36,65
212,117	37,28
212,381	36,6
212,645	35,7
212,909	35,79
213,173	32,89
213,437	32,36
213,701	33,64
213,965	33,87
214,229	28,45
214,493	29,15
214,757	28,6
215,021	28,74
215,285	33,35
215,549	35,39
215,813	33,04
216,077	31,53
216,34	32,82
216,604	30,97
216,868	32,04
217,132	32,78
217,396	33,76
217,659	33,63
217,923	28,85
218,187	29,15
218,451	27,83
218,714	25,17
218,978	25,47
219,242	27,91
219,505	27,38
219,769	29,49
220,033	29,25
220,296	30,33
220,56	32,01
220,824	29,93
221,087	31,23
221,351	31,99
221,614	31,29
221,878	30,49
222,142	28,31
222,405	28,9
222,669	31,03
222,932	26,98
223,196	25,16
223,459	21,8
223,722	22,94
223,986	22,29
224,249	21,41
224,513	21,8
224,776	21,3
225,04	20,73
225,303	19,44
225,566	19,1
225,83	19,87
226,093	24,11
226,356	21,73
226,62	20
226,883	21,7
227,146	22,24
227,409	20,34
227,673	19,05
227,936	18,06
228,199	18,18
228,462	15,29
228,725	13,23
228,989	12,47
229,252	12,89
229,515	18,74
229,778	17,9
230,041	17,98
230,304	16,95
230,567	17,96
230,83	15,13
231,093	17,87
231,356	17,37
231,619	24,66
231,882	21,51
232,145	23,48
232,408	23,58
232,671	22,61
232,934	23,02
233,197	21,29
233,46	19,95
233,723	21,12
233,986	18,79
234,249	15,4
234,512	17,88
234,775	21,74
235,037	20,45
235,3	19,96
235,563	20,9
235,826	21,45
236,089	23,08
236,351	22,79
236,614	25,99
236,877	27,02
237,14	30,72
237,402	31,36
237,665	24,55
237,928	23,8
238,19	21,41
238,453	23,97
238,716	23,13
238,978	23,92
239,241	22,23
239,503	24,68
239,766	18,56
240,029	17,28
240,291	18,69
240,554	17,63
240,816	17,06
241,079	16,06
241,341	15,92
241,604	14,93
241,866	12,11
242,129	15,17
242,391	18,3
242,653	17,16
242,916	17,16
243,178	16,99
243,441	18,36
243,703	17,64
243,965	15,96
244,228	17,23
244,49	16,68
244,752	17,8
245,015	19,25
245,277	20,03
245,539	17,28
245,801	18,27
246,064	18,48
246,326	17,85
246,588	17,76
246,85	20,52
247,112	20,8
247,374	23,05
247,637	25,01
247,899	23,79
248,161	24,18
248,423	19,95
248,685	21,67
248,947	21,51
249,209	22,8
249,471	23,7
249,733	25,53
249,995	25,04
250,257	24,26
250,519	20,69
250,781	25,28
251,043	21,72
251,305	23,96
251,567	25,1
251,829	25,87
252,091	25,36
252,353	21,8
252,615	21,79
252,876	18,99
253,138	16,4
253,4	12,54
253,662	14,34
253,924	17,64
254,185	18,38
254,447	18,95
254,709	19
254,971	19,55
255,232	20,96
255,494	19,38
255,756	16,78
256,017	18,23
256,279	18,55
256,541	19,08
256,802	17,54
257,064	18,27
257,326	17,17
257,587	18,61
257,849	20,13
258,11	22,65
258,372	22,91
258,633	25,42
258,895	21,84
259,156	22,2
259,418	19,1
259,679	14,16
259,941	11,31
260,202	14,53
260,464	16,69
260,725	16,55
260,987	17,1
261,248	17,43
261,509	18,91
261,771	17,36
262,032	17,54
262,293	17,77
262,555	17,86
262,816	16,28
263,077	13,38
263,338	10,58
263,6	11,66
263,861	11,49
264,122	11,11
264,383	13,58
264,645	14,87
264,906	14,41
265,167	15,29
265,428	14,71
265,689	14,37
265,95	11,4
266,211	12,1
266,473	10,28
266,734	7,95
266,995	5,35
267,256	6,95
267,517	11,21
267,778	16,26
268,039	17,81
268,3	15,79
268,561	13,37
268,822	16,69
269,083	12,56
269,344	10,9
269,604	9,92
269,865	12,03
270,126	8,62
270,387	8,49
270,648	9,52
270,909	9,13
271,17	8,48
271,43	5,66
271,691	2,62
271,952	2,63
272,213	5,06
272,473	2,45
272,734	3,88
272,995	6,9
273,256	7,67
273,516	12,04
273,777	10,2
274,038	11,64
274,298	9,07
274,559	10,12
274,82	14,37
275,08	17,1
275,341	18,22
275,601	15,69
275,862	12,96
276,122	13,19
276,383	14,05
276,643	15,96
276,904	14,92
277,164	19,81
277,425	20,12
277,685	24,58
277,946	23,22
278,206	24,33
278,467	27,31
278,727	27,26
278,987	27,79
279,248	27,85
279,508	29,19
279,768	32,16
280,029	31,91
280,289	27,39
280,549	26,22
280,81	24,8
281,07	22,13
281,33	22,71
281,59	19,27
281,851	22,05
282,111	22,59
282,371	22,09
282,631	23,65
282,891	21,68
283,151	18,96
283,412	17,24
283,672	17,78
283,932	17,35
284,192	17,97
284,452	15,94
284,712	13,62
284,972	11,85
285,232	9,68
285,492	12,46
285,752	8,7
286,012	15,23
286,272	17,93
286,532	13,83
286,792	14,24
287,052	15,68
287,312	16,45
287,571	15,39
287,831	15,44
288,091	14,01
288,351	14,39
288,611	17,87
288,871	18,22
289,13	18,33
289,39	14,74
289,65	16,9
289,91	14,28
290,17	16,5
290,429	19,46
290,689	16,05
290,949	13,92
291,208	16,56
291,468	20,46
291,728	21,55
291,987	23,54
292,247	21,88
292,506	24,57
292,766	27,52
293,026	26,05
293,285	26,31
293,545	28,68
293,804	29,04
294,064	24,76
294,323	20,76
294,583	22,74
294,842	22,41
295,102	22,34
295,361	23,25
295,621	24,3
295,88	24,66
296,139	24,39
296,399	25,63
296,658	21,2
296,917	20,34
297,177	17,1
297,436	19,59
297,695	17,9
297,955	18,83
298,214	16,19
298,473	17,24
298,732	21,44
298,992	23,1
299,251	21,31
299,51	16,6
299,769	17,05
300,028	16,38
300,287	17,72
300,547	16,92
300,806	15,11
301,065	18,47
301,324	20,8
301,583	16,68
301,842	13,4
302,101	11,44
302,36	12,94
302,619	12,24
302,878	14,21
303,137	11,78
303,396	12,34
303,655	15,69
303,914	12,79
304,173	13,88
304,432	13,66
304,691	16,14
304,95	15,04
305,208	21,55
305,467	21,41
305,726	20,86
305,985	22,52
306,244	23,95
306,503	23,03
306,761	20,34
307,02	18,04
307,279	18,99
307,537	19,34
307,796	15,69
308,055	13,33
308,314	15,51
308,572	13,68
308,831	15,07
309,09	14,94
309,348	15,71
309,607	15,01
309,865	20,13
310,124	20,21
310,382	21,04
310,641	23,22
310,9	20,62
311,158	21,17
311,417	21,27
311,675	20,18
311,933	21,42
312,192	22,78
312,45	21,12
312,709	21,27
312,967	19,83
313,226	18,21
313,484	17,03
313,742	15,97
314,001	14,17
314,259	13,06
314,517	14,87
314,776	17,31
315,034	20,55
315,292	19,56
315,55	18,27
315,809	18,93
316,067	19,62
316,325	16,21
316,583	18,46
316,841	16,67
317,1	14,35
317,358	9,98
317,616	9,27
317,874	6,83
318,132	5,59
318,39	6,38
318,648	3,76
318,906	2,95
319,164	1,96
319,422	0,01
319,68	-0,61
319,938	-1,19
320,196	-2,12
320,454	0,14
320,712	0,27
320,97	1,31
321,228	-0,47
321,486	1,25
321,744	2,94
322,002	5,56
322,26	3,8
322,517	2,13
322,775	-0,89
323,033	-3,21
323,291	-1,34
323,549	1,18
323,806	1,83
324,064	2,53
324,322	5,23
324,58	3,73
324,837	5,76
325,095	4,2
325,353	6,01
325,61	8,88
325,868	9,29
326,126	12,24
326,383	11,48
326,641	10,89
326,898	12,87
327,156	14,26
327,413	14,79
327,671	15,05
327,928	18,11
328,186	18,06
328,443	17,85
328,701	21,84
328,958	23,65
329,216	24,56
329,473	23,27
329,731	22,96
329,988	22,37
330,245	25,32
330,503	26,06
330,76	27,05
331,017	29,59
331,275	27,66
331,532	27,47
331,789	25,47
332,047	25,18
332,304	21,28
332,561	22,78
332,818	21,24
333,076	23,43
333,333	25,76
333,59	26,33
333,847	28,79
334,104	27,39
334,361	26,24
334,618	25,45
334,876	22,02
335,133	21,97
335,39	20,78
335,647	20,98
335,904	17,25
336,161	15,56
336,418	14,85
336,675	10,79
336,932	11,21
337,189	10,48
337,446	10,68
337,703	9,44
337,96	5,75
338,216	5,43
338,473	3,34
338,73	3,12
338,987	2,06
339,244	5,11
339,501	1,01
339,757	1,83
340,014	3,34
340,271	4,35
340,528	3,14
340,785	8,12
341,041	7,97
341,298	4,38
341,555	3,08
341,811	0,71
342,068	-1,43
342,325	-0,92
342,581	2,54
342,838	5,99
343,094	5,92
343,351	6,26
343,608	4,16
343,864	7,3
344,121	9,15
344,377	8,17
344,634	7,31
344,89	6,65
345,147	6,04
345,403	5,41
345,66	4,9
345,916	7,74
346,172	5,47
346,429	4,04
346,685	3,39
346,942	3,43
347,198	0,01
347,454	2,39
347,711	2,64
347,967	-2,16
348,223	-0,07
348,48	1,49
348,736	3,9
348,992	4,21
349,248	7,01
349,504	7,51
349,761	7,95
350,017	8,6
350,273	7,7
350,529	5,64
350,785	4,64
351,041	4,32
351,297	4,79
351,554	3,92
351,81	1,54
352,066	0,74
352,322	1,14
352,578	2,6
352,834	1,61
353,09	1,67
353,346	2,44
353,602	1,73
353,858	0,54
354,114	0,13
354,369	1,63
354,625	3,51
354,881	1,22
355,137	2,81
355,393	2,62
355,649	3,29
355,905	4,44
356,16	3,57
356,416	2,42
356,672	-5,49
356,928	-5,11
357,183	-6,75
357,439	-7,6
357,695	-9,03
357,951	-3,78
358,206	-5,22
358,462	-5,72
358,718	-7,89
358,973	-7,65
359,229	-6,61
359,484	-5,48
359,74	-2,2
359,996	-2,4
360,251	1,54
360,507	0,92
360,762	2,17
361,018	6,41
361,273	6,41
361,529	10,4
361,784	11,85
362,04	15,62
362,295	16,22
362,55	18,27
362,806	22,65
363,061	23,6
363,316	25,53
363,572	26,56
363,827	30,36
364,082	27,97
364,338	28,45
364,593	30,71
364,848	31,73
365,104	31,71
365,359	34,23
365,614	35,02
365,869	31,07
366,124	33,21
366,38	30,79
366,635	35,07
366,89	36,78
367,145	36,74
367,4	40,28
367,655	39,35
367,91	39,98
368,165	37,37
368,42	33,63
368,675	34,16
368,93	31,34
369,185	26,9
369,44	25,54
369,695	25,43
369,95	22,39
370,205	20,6
370,46	17,85
370,715	16,24
370,97	17,36
371,225	15,96
371,48	16,47
371,734	15,7
371,989	16,85
372,244	16,77
372,499	17,72
372,754	15,61
373,008	13,47
373,263	8,65
373,518	11,9
373,773	10,02
374,027	9,8
374,282	14
374,537	12,99
374,791	13,99
375,046	12,8
375,301	10,88
375,555	9,28
375,81	10,89
376,064	11,99
376,319	17,07
376,573	15,4
376,828	14,51
377,082	18,6
377,337	15,96
377,591	14,17
377,846	16,09
378,1	19,53
378,355	19,73
378,609	19,12
378,863	14,95
379,118	18,03
379,372	17,2
379,627	15,47
379,881	13,84
380,135	13,81
380,389	13,12
380,644	13,98
380,898	13,29
381,152	15,04
381,407	12,61
381,661	15,4
381,915	17,1
382,169	17,72
382,423	15,42
382,677	12,45
382,932	15,12
383,186	15,63
383,44	16,5
383,694	18,17
383,948	16,34
384,202	13,79
384,456	15,8
384,71	16,6
384,964	16,43
385,218	19,34
385,472	19,3
385,726	18,17
385,98	17,42
386,234	17,03
386,488	14,34
386,742	15,99
386,996	11,77
387,249	11,98
387,503	14,14
387,757	14,52
388,011	14,87
388,265	14,53
388,518	16,74
388,772	20,71
389,026	22,46
389,28	20,55
389,533	18,92
389,787	20,77
390,041	18,4
390,295	20,46
390,548	20,07
390,802	21,48
391,055	21,31
391,309	20,17
391,563	16,31
391,816	17,28
392,07	15,99
392,323	17,69
392,577	18,02
392,83	18,45
393,084	23,46
393,337	27,57
393,591	26,85
393,844	26,57
394,098	29,86
394,351	34,21
394,604	35,53
394,858	39,24
395,111	39,64
395,364	37,56
395,618	40,61
395,871	39,1
396,124	37,99
396,378	36,38
396,631	36,53
396,884	33,25
397,137	33,65
397,391	35,63
397,644	32,09
397,897	32,51
398,15	33,25
398,403	35,96
398,657	33,6
398,91	31,97
399,163	34,02
399,416	35,13
399,669	33,2
399,922	35,36
400,175	40,59
400,428	56,31
400,681	76,8
400,934	95,25
401,187	119,33
401,44	141,33
401,693	153,8
401,946	161,97
402,199	164,11
402,452	167,87
402,704	165,26
402,957	166,12
403,21	169,23
403,463	170,31
403,716	173,61
403,969	177,77
404,221	179,6
404,474	183,25
404,727	189,37
404,98	194,07
405,232	195,31
405,485	197,46
405,738	199,89
405,99	199,74
406,243	200,08
406,496	202,42
406,748	202,14
407,001	199,42
407,253	200,9
407,506	201,27
407,759	201,99
408,011	192,03
408,264	176,31
408,516	156,63
408,769	131,75
409,021	106,94
409,274	86,01
409,526	74,44
409,778	62,42
410,031	59,71
410,283	56,57
410,536	60,42
410,788	58,69
411,04	57,01
411,293	56,57
411,545	55,6
411,797	51,58
412,049	50,41
412,302	48,96
412,554	47,36
412,806	42,36
413,058	38,66
413,311	38,38
413,563	36,11
413,815	35,45
414,067	34,4
414,319	32,04
414,571	33,47
414,823	32,04
415,075	29,49
415,328	31,44
415,58	33,01
415,832	35,18
416,084	35,77
416,336	34,07
416,588	36,42
416,84	35,06
417,091	37,46
417,343	33,53
417,595	36,04
417,847	36,19
418,099	36,82
418,351	35,52
418,603	37,71
418,855	36,89
419,106	37,74
419,358	35,87
419,61	36,49
419,862	35,57
420,114	31,8
420,365	30,55
420,617	30,98
420,869	29,62
421,12	28,19
421,372	30,19
421,624	28,88
421,875	28,53
422,127	26,23
422,379	24,67
422,63	27,68
422,882	25,96
423,133	25,19
423,385	24,46
423,636	24,38
423,888	26,63
424,139	29,41
424,391	27,13
424,642	24,61
424,894	22,28
425,145	23,06
425,396	19,79
425,648	22,26
425,899	19,29
426,151	20,44
426,402	18,61
426,653	21,05
426,905	19,09
427,156	18,47
427,407	18,73
427,658	18,32
427,91	17,76
428,161	16,71
428,412	19,57
428,663	22,22
428,914	22,97
429,166	23,78
429,417	26,28
429,668	25,84
429,919	23,88
430,17	25,47
430,421	26,22
430,672	31,93
430,923	34,82
431,174	44,32
431,425	81,41
431,676	139,06
431,927	208,98
432,178	296,79
432,429	389,33
432,68	465,69
432,931	525,42
433,182	571,05
433,433	598,31
433,683	621,44
433,934	631,43
434,185	634,55
434,436	634,23
434,687	636,88
434,937	639,86
435,188	639,22
435,439	638,18
435,69	640,22
435,94	640,18
436,191	640,3
436,442	639,62
436,692	639,75
436,943	636,21
437,194	633,7
437,444	636,05
437,695	640,64
437,945	640,55
438,196	638,68
438,447	635,28
438,697	632,41
438,948	621,21
439,198	581,76
439,449	519,57
439,699	447,31
439,949	361,73
440,2	268,12
440,45	193,03
440,701	134,99
440,951	91,24
441,201	61,97
441,452	38,99
441,702	26,5
441,952	23,43
442,203	21,54
442,453	17,86
442,703	16,39
442,953	16,98
443,204	16,95
443,454	14,31
443,704	13,73
443,954	10,53
444,204	10,69
444,455	9,84
444,705	11,7
444,955	11,3
445,205	9,39
445,455	5,71
445,705	6,65
445,955	5,61
446,205	5,95
446,455	6,57
446,705	7,16
446,955	8,3
447,205	8,68
447,455	9,22
447,705	6,41
447,955	6,29
448,205	6,81
448,454	5,78
448,704	6,9
448,954	4,27
449,204	4,42
449,454	4,2
449,704	2,66
449,953	2,73
450,203	5,11
450,453	2,94
450,703	4,61
450,952	4,47
451,202	5,69
451,452	6,15
451,701	8,7
451,951	12,41
452,201	12,11
452,45	10,31
452,7	12,86
452,949	11,72
453,199	11,46
453,448	11,87
453,698	12,68
453,947	11,01
454,197	8,93
454,446	6,4
454,696	9,48
454,945	9,59
455,195	8,1
455,444	8,54
455,693	12,8
455,943	10,47
456,192	12,17
456,442	13,75
456,691	14,44
456,94	14,61
457,189	14,56
457,439	16,6
457,688	17,81
457,937	16,59
458,186	16,83
458,436	16,12
458,685	17
458,934	15,64
459,183	16
459,432	17,9
459,681	17,33
459,93	17,48
460,179	17,53
460,429	14,36
460,678	17,89
460,927	22,07
461,176	19,73
461,425	21,54
461,674	24,24
461,923	25,41
462,172	25,26
462,42	22,89
462,669	25,71
462,918	26,19
463,167	27,16
463,416	25,56
463,665	27,04
463,914	27,47
464,162	24,27
464,411	25,78
464,66	28,37
464,909	26,29
465,158	26,62
465,406	26,33
465,655	27,97
465,904	31,27
466,152	31,55
466,401	32
466,65	34,75
466,898	32,01
467,147	28,12
467,395	27,42
467,644	28,95
467,893	28,11
468,141	28,9
468,39	25,97
468,638	23,65
468,887	23,79
469,135	22,7
469,384	22,61
469,632	23,19
469,88	23,68
470,129	25,97
470,377	23,3
470,626	26,42
470,874	28,28
471,122	29,36
471,371	27,64
471,619	26,66
471,867	29,55
472,115	28,55
472,364	25,8
472,612	29,6
472,86	27,38
473,108	28,22
473,356	28,43
473,605	27,54
473,853	24,63
474,101	24,95
474,349	24,57
474,597	29,02
474,845	28,21
475,093	27,84
475,341	25,16
475,589	27,57
475,837	28,85
476,085	30,74
476,333	29,62
476,581	31,48
476,829	30,98
477,077	34,42
477,325	34,72
477,573	38,43
477,821	38,08
478,069	40,69
478,317	41,72
478,564	46,65
478,812	46,63
479,06	50,45
479,308	53,69
479,555	59,36
479,803	64,32
480,051	73,4
480,299	79,99
480,546	90,2
480,794	96,22
481,042	106,79
481,289	119,15
481,537	134,53
481,784	147,3
482,032	164,74
482,28	178,87
482,527	196,13
482,775	215,47
483,022	237,3
483,27	258,27
483,517	282,4
483,765	301,9
484,012	322,18
484,259	340,55
484,507	361,86
484,754	380,16
485,002	397,73
485,249	412,97
485,496	432,43
485,744	446,56
485,991	459,47
486,238	468,67
486,486	484,49
486,733	495,95
486,98	507,51
487,227	514,12
487,474	523,58
487,722	532,82
487,969	537,45
488,216	541,01
488,463	544,69
488,71	544,1
488,957	542,22
489,204	538,68
489,451	537,3
489,699	532,12
489,946	523,74
490,193	517,08
490,44	507,42
490,687	496,71
490,934	483,98
491,18	467,37
491,427	455,74
491,674	447,22
491,921	435,85
492,168	423,81
492,415	409,4
492,662	399,47
492,909	389,98
493,155	377,88
493,402	366,13
493,649	355,28
493,896	347,47
494,142	333,25
494,389	324,28
494,636	313,75
494,883	302,89
495,129	293,07
495,376	282,32
495,623	275,24
495,869	268,13
496,116	261,07
496,362	254,7
496,609	248,55
496,855	246,82
497,102	237,79
497,348	228,97
497,595	224,15
497,841	221,37
498,088	211,49
498,334	204,74
498,581	196,57
498,827	189,84
499,074	184,77
499,32	178,92
499,566	175,66
499,813	170,41
500,059	163,19
500,305	156,42
500,552	149,77
500,798	141,92
501,044	141,4
501,29	134,34
501,537	125,43
501,783	123,17
502,029	121,34
502,275	114,07
502,521	107,83
502,767	104,45
503,013	101,07
503,26	92,99
503,506	85
503,752	82,91
503,998	77,79
504,244	75,78
504,49	70,02
504,736	69,46
504,982	64,88
505,228	63,95
505,474	60,57
505,72	59,72
505,966	55,46
506,211	56,43
506,457	55,13
506,703	49,6
506,949	44,89
507,195	40,92
507,441	34,06
507,686	35,57
507,932	34,59
508,178	36,08
508,424	32,75
508,669	28,94
508,915	28,63
509,161	31,8
509,406	32,52
509,652	31,17
509,898	34,67
510,143	35,86
510,389	33,54
510,634	28,62
510,88	33,35
511,125	37,22
511,371	37,46
511,616	38,46
511,862	34,34
512,107	29,32
512,353	28,66
512,598	29,93
512,844	27,16
513,089	24,95
513,335	25,28
513,58	25,27
513,825	25,1
514,071	24,73
514,316	24,64
514,561	24,98
514,806	23,63
515,052	27,92
515,297	25,25
515,542	26,53
515,787	24,59
516,033	27,09
516,278	27,01
516,523	27,27
516,768	24,78
517,013	21,13
517,258	18,39
517,503	16,55
517,748	17,24
517,993	16,74
518,238	17,7
518,483	13,98
518,728	11,68
518,973	8,72
519,218	7
519,463	8,2
519,708	8,39
519,953	6,57
520,198	5,8
520,443	7,69
520,688	9,18
520,933	9,66
521,177	9,66
521,422	7,07
521,667	9,03
521,912	8,92
522,157	6,35
522,401	9
522,646	8,24
522,891	9,97
523,135	9,27
523,38	10,92
523,625	9,75
523,869	12,01
524,114	13,81
524,358	12,51
524,603	14,19
524,848	12,58
525,092	13,49
525,337	14,5
525,581	17,15
525,826	20,25
526,07	21,34
526,315	23,72
526,559	23,91
526,803	22,39
527,048	25,92
527,292	27,86
527,537	28,65
527,781	29,29
528,025	27,65
528,269	30,77
528,514	31,27
528,758	30,98
529,002	31,67
529,247	37,01
529,491	39,42
529,735	47,18
529,979	50,24
530,223	55,17
530,467	54,47
530,712	55,88
530,956	56,91
531,2	60,74
531,444	61,22
531,688	65,15
531,932	68,42
532,176	72,72
532,42	79,15
532,664	83,28
532,908	86,62
533,152	90,69
533,396	95,75
533,64	103,96
533,884	110,25
534,128	118,67
534,371	133,46
534,615	147,38
534,859	160,43
535,103	175,77
535,347	192,83
535,59	212,03
535,834	229,05
536,078	255,59
536,322	286,15
536,565	323,18
536,809	359,38
537,053	407,41
537,296	462,81
537,54	530,38
537,784	605,75
538,027	696,31
538,271	788,97
538,514	885,75
538,758	980,25
539,001	1073,69
539,245	1167,01
539,488	1257,54
539,732	1346,35
539,975	1428,51
540,219	1512,01
540,462	1592,11
540,706	1672,52
540,949	1747,57
541,192	1820,89
541,436	1902,43
541,679	2000,63
541,922	2114,91
542,166	2242,23
542,409	2387,44
542,652	2540,24
542,895	2690,95
543,139	2821,98
543,382	2937,29
543,625	3031,4
543,868	3111,84
544,111	3176,65
544,354	3222,9
544,598	3253,88
544,841	3264,41
545,084	3254,14
545,327	3230,79
545,57	3193,64
545,813	3149,45
546,056	3093,97
546,299	3040,56
546,542	2985,3
546,785	2927,45
547,028	2870,98
547,271	2811,61
547,514	2754,4
547,756	2694,18
547,999	2635,15
548,242	2574,45
548,485	2512,12
548,728	2451,51
548,971	2380,08
549,213	2295,49
549,456	2186,1
549,699	2056,2
549,942	1911,62
550,184	1757,06
550,427	1601,26
550,67	1463,2
550,912	1335,46
551,155	1225,87
551,398	1125,41
551,64	1032,57
551,883	952,08
552,125	877,17
552,368	814,13
552,61	755,08
552,853	706,18
553,095	657,36
553,338	611,13
553,58	570,83
553,823	530,15
554,065	495,44
554,308	459,21
554,55	425,88
554,792	394,78
555,035	365,92
555,277	340,02
555,519	318,4
555,762	296,03
556,004	277,23
556,246	254,79
556,488	239,16
556,731	220,12
556,973	205,32
557,215	192,28
557,457	180,82
557,699	170,37
557,941	157,23
558,183	148,11
558,426	142,58
558,668	130,51
558,91	124,71
559,152	118,67
559,394	111,88
559,636	109,35
559,878	105,2
560,12	100,5
560,362	95,75
560,604	91,46
560,845	87,97
561,087	84,34
561,329	86,05
561,571	80,55
561,813	78,57
562,055	74,01
562,297	72,58
562,538	73,62
562,78	75,9
563,022	71,08
563,264	70,73
563,505	69,54
563,747	70,46
563,989	68,27
564,23	66,93
564,472	64,07
564,714	65,89
564,955	64,85
565,197	60,15
565,438	61,86
565,68	63,49
565,921	60,44
566,163	61,13
566,404	58,06
566,646	59,24
566,887	61,36
567,129	60,98
567,37	58,1
567,612	59,7
567,853	56,23
568,094	56,49
568,336	56,18
568,577	56,51
568,818	54,76
569,06	51,71
569,301	48,69
569,542	49,49
569,783	50,06
570,025	49,53
570,266	46,79
570,507	48,69
570,748	47,11
570,989	47,61
571,23	49,63
571,472	48,63
571,713	47,49
571,954	48,44
572,195	45,85
572,436	49,12
572,677	57,86
572,918	68,86
573,159	79,1
573,4	94,48
573,641	113,78
573,882	132,59
574,123	144,81
574,364	152,82
574,604	167,57
574,845	180,67
575,086	200,64
575,327	223,5
575,568	245,62
575,809	268,83
576,049	288,4
576,29	305,23
576,531	331,4
576,771	353,67
577,012	375,83
577,253	393,77
577,494	408,24
577,734	423,04
577,975	437,11
578,215	450,26
578,456	462,71
578,697	477,13
578,937	494,52
579,178	510,01
579,418	525,07
579,659	541,14
579,899	552,81
580,14	562,82
580,38	570,27
580,62	575,48
580,861	580,22
581,101	578,21
581,342	576,8
581,582	574,57
581,822	580,04
582,063	580,84
582,303	583,86
582,543	580,6
582,783	576,83
583,024	574,58
583,264	574,46
583,504	575,85
583,744	584
583,984	588,96
584,224	596,94
584,465	601,61
584,705	607,43
584,945	615,2
585,185	621,84
585,425	626,31
585,665	628,74
585,905	627,88
586,145	625,81
586,385	621,61
586,625	619,22
586,865	613,92
587,105	606,59
587,345	602,83
587,585	597,36
587,824	590,15
588,064	584,13
588,304	576,66
588,544	573,87
588,784	571,36
589,024	575,26
589,263	578,75
589,503	583,27
589,743	593,4
589,982	599,95
590,222	606,74
590,462	605,92
590,701	602,9
590,941	599,53
591,181	589,79
591,42	577,98
591,66	566,88
591,899	556,43
592,139	544,09
592,378	532,69
592,618	519,26
592,857	510,11
593,097	503,36
593,336	498,45
593,576	492,34
593,815	489,62
594,055	485,87
594,294	484,79
594,533	484,4
594,773	482,83
595,012	484,35
595,251	485,63
595,491	490,81
595,73	495,64
595,969	496,73
596,208	499,35
596,447	503,17
596,687	500,55
596,926	495,7
597,165	482,55
597,404	474,98
597,643	461,48
597,882	451,75
598,121	443,37
598,36	436,75
598,599	429,16
598,838	420,58
599,077	411,36
599,316	405,5
599,555	398,18
599,794	394,53
600,033	392,74
600,272	389,92
600,511	384,35
600,75	383,99
600,989	384,16
601,228	380,89
601,466	377,86
601,705	374,1
601,944	372,87
602,183	371
602,422	365,58
602,66	359
602,899	351,42
603,138	342,93
603,376	336,12
603,615	328,09
603,854	318,93
604,092	313,06
604,331	311,05
604,569	310,95
604,808	310,98
605,047	317,72
605,285	325,83
605,524	337
605,762	351,41
606	374,67
606,239	404,29
606,477	443,79
606,716	495,02
606,954	574,46
607,193	680,99
607,431	823,57
607,669	1000,44
607,908	1201,99
608,146	1414,53
608,384	1626,77
608,622	1827,08
608,861	2015,44
609,099	2188,11
609,337	2342,97
609,575	2484,83
609,813	2613,14
610,052	2726,35
610,29	2821,62
610,528	2910,56
610,766	2990,47
611,004	3063,84
611,242	3128,63
611,48	3188,53
611,718	3238,72
611,956	3287,28
612,194	3326,53
612,432	3358,72
612,67	3382,6
612,908	3401,07
613,146	3408,03
613,384	3409,75
613,621	3400,76
613,859	3381,11
614,097	3341,97
614,335	3278,75
614,573	3182,77
614,811	3050,53
615,048	2881,93
615,286	2691,59
615,524	2486,91
615,761	2279,15
615,999	2085,89
616,237	1904,55
616,474	1741,07
616,712	1592,86
616,95	1455,23
617,187	1333,1
617,425	1227,48
617,662	1135,28
617,9	1049,73
618,137	970,34
618,375	898,9
618,612	833,49
618,85	777,87
619,087	728,9
619,325	681,12
619,562	638,01
619,799	601,96
620,037	572,87
620,274	545,84
620,511	527,63
620,749	506,74
620,986	492,69
621,223	480,65
621,461	474,35
621,698	471,27
621,935	468,58
622,172	466,09
622,409	469,56
622,647	470,08
622,884	470,9
623,121	476,23
623,358	477,52
623,595	480,15
623,832	484,25
624,069	484,15
624,306	487,25
624,543	491,41
624,78	494,08
625,017	495,1
625,254	497,54
625,491	503,62
625,728	508,39
625,965	511,08
626,202	511,88
626,438	511,9
626,675	514,09
626,912	523,59
627,149	533,7
627,386	543,08
627,622	553,41
627,859	565,59
628,096	577,72
628,333	588,92
628,569	595,57
628,806	601,4
629,043	602,25
629,279	603,43
629,516	602,43
629,752	593,44
629,989	587,01
630,225	576,17
630,462	566,14
630,699	556,45
630,935	545,27
631,171	529,78
631,408	518,89
631,644	504,68
631,881	488,66
632,117	474,89
632,354	463,65
632,59	450,97
632,826	437,45
633,063	424,53
633,299	412,73
633,535	396,95
633,771	382,78
634,008	370,05
634,244	350,65
634,48	327,85
634,716	307,89
634,953	283,15
635,189	257,69
635,425	234,96
635,661	213,12
635,897	191,22
636,133	173,77
636,369	155,77
636,605	137,48
636,841	125,32
637,077	117,75
637,313	109,33
637,549	104,55
637,785	97,38
638,021	93,51
638,257	89,95
638,493	89,49
638,729	84,92
638,965	86,41
639,2	87,16
639,436	85,06
639,672	82,24
639,908	79,94
640,144	82,07
640,379	83,19
640,615	79,44
640,851	81,27
641,086	82,74
641,322	80,98
641,558	80,72
641,793	81,07
642,029	78,49
642,264	78,18
642,5	78,7
642,736	74,65
642,971	74,14
643,207	72,09
643,442	69,31
643,678	70,52
643,913	72,15
644,148	72,17
644,384	75,08
644,619	76,34
644,855	77,33
645,09	79,1
645,325	79,47
645,561	79,4
645,796	78,76
646,031	84,09
646,266	83,99
646,502	84,29
646,737	89,06
646,972	94,55
647,207	99,58
647,442	102,94
647,678	105,42
647,913	112,82
648,148	118,06
648,383	119,84
648,618	123,05
648,853	127,39
649,088	131,98
649,323	137,45
649,558	141,84
649,793	144,87
650,028	148,28
650,263	146,72
650,498	150,29
650,733	151,91
650,968	151,63
651,202	155,08
651,437	153,91
651,672	149,75
651,907	147,66
652,142	149,29
652,376	151,43
652,611	153,27
652,846	155,92
653,081	155,14
653,315	153,55
653,55	152,9
653,785	150,97
654,019	149,51
654,254	145,42
654,488	142,02
654,723	133,7
654,958	126,65
655,192	122,72
655,427	114,98
655,661	113,1
655,896	112,43
656,13	109,54
656,364	103,6
656,599	97,24
656,833	97,34
657,068	96,23
657,302	94,66
657,536	90,87
657,771	90,8
658,005	90,15
658,239	90,19
658,474	86,79
658,708	87,99
658,942	89,02
659,176	90,93
659,41	89,8
659,645	90,68
659,879	91,23
660,113	88,64
660,347	88,97
660,581	86,75
660,815	86,52
661,049	86,75
661,283	82,87
661,517	80,55
661,751	79,29
661,985	77,86
662,219	78,39
662,453	74,94
662,687	76,25
662,921	73,13
663,155	71,76
663,389	66,02
663,622	64,18
663,856	65,86
664,09	61,66
664,324	59,78
664,558	58,81
664,791	58,18
665,025	57,75
665,259	57,2
665,492	55,6
665,726	57,15
665,96	55,16
666,193	52,02
666,427	49,9
666,661	46,06
666,894	40,5
667,128	36,98
667,361	37,43
667,595	35
667,828	33,58
668,062	32,12
668,295	32,14
668,529	32,96
668,762	32,59
668,995	30,86
669,229	34,73
669,462	36,42
669,695	37,41
669,929	35,71
670,162	35,49
670,395	32,6
670,629	33,94
670,862	36,87
671,095	32,24
671,328	32,68
671,561	29,79
671,795	30,01
672,028	33,28
672,261	32,35
672,494	32,15
672,727	31,72
672,96	32,3
673,193	31,02
673,426	34,97
673,659	35,66
673,892	37,47
674,125	37,41
674,358	37,08
674,591	35,16
674,824	35,42
675,057	33,81
675,29	32,06
675,523	33
675,755	33,16
675,988	33,3
676,221	36,9
676,454	33,93
676,687	33,28
676,919	33,61
677,152	33,27
677,385	33,59
677,617	35,13
677,85	36,4
678,083	35,1
678,315	39,21
678,548	38,95
678,78	38,66
679,013	39,07
679,246	38,58
679,478	40,82
679,711	39,75
679,943	41,09
680,175	37,95
680,408	41,09
680,64	36,92
680,873	38,76
681,105	38,44
681,338	42
681,57	42,36
681,802	44,01
682,034	43,34
682,267	48,42
682,499	49,86
682,731	47,18
682,964	45,47
683,196	45,39
683,428	42,93
683,66	43,29
683,892	48,67
684,124	51,77
684,356	57,01
684,589	59,38
684,821	60,05
685,053	62,63
685,285	64,54
685,517	68,54
685,749	70,3
685,981	72,28
686,213	73,63
686,445	74,52
686,676	71,23
686,908	73,29
687,14	72,7
687,372	73,9
687,604	71,97
687,836	73,46
688,068	71,63
688,299	71,83
688,531	68,53
688,763	71,86
688,995	69,98
689,226	73,84
689,458	70,62
689,69	69,32
689,921	68,94
690,153	70,34
690,384	72,59
690,616	72,18
690,848	74,31
691,079	69,46
691,311	66,91
691,542	63
691,774	58,89
692,005	60,41
692,237	59,81
692,468	56,23
692,699	53,34
692,931	51,03
693,162	47,34
693,393	45,68
693,625	44,21
693,856	44,95
694,087	44,11
694,319	43,98
694,55	42,83
694,781	41,67
695,012	41,3
695,243	39,49
695,475	37,59
695,706	38,51
695,937	37,34
696,168	36,27
696,399	32,94
696,63	32,93
696,861	33,32
697,092	37,49
697,323	38,19
697,554	38,04
697,785	37,3
698,016	36,47
698,247	33,27
698,478	31,91
698,709	32,86
698,94	35,73
699,171	34,18
699,401	30,18
699,632	32
699,863	28,53
700,094	28,72
700,325	32,73
700,555	34,53
700,786	35,92
701,017	36,99
701,247	36,42
701,478	37,49
701,709	39,1
701,939	39,11
702,17	43,01
702,401	47,3
702,631	52,18
702,862	54,09
703,092	56,52
703,323	65,78
703,553	73,58
703,784	79,66
704,014	86,81
704,244	87,57
704,475	92,26
704,705	96,52
704,936	103,69
705,166	109,78
705,396	119,75
705,627	128,71
705,857	136,45
706,087	144,26
706,317	148,95
706,548	155,62
706,778	160,52
707,008	165,48
707,238	169,94
707,468	170,81
707,698	169,92
707,928	172,73
708,158	173,86
708,389	176,91
708,619	180,56
708,849	183,66
709,079	189,57
709,309	192,09
709,539	193,38
709,768	195,57
709,998	199,36
710,228	198,15
710,458	193,84
710,688	187,42
710,918	183,41
711,148	177,98
711,378	173,86
711,607	168,36
711,837	163,88
712,067	156,91
712,297	150,76
712,526	142,2
712,756	135,1
712,986	123,17
713,215	112,32
713,445	105,91
713,674	100,15
713,904	93,7
714,134	93,08
714,363	86,95
714,593	83,12
714,822	80,16
715,052	74,41
715,281	71,86
715,511	65,83
715,74	60,84
715,969	53,27
716,199	47,49
716,428	41,16
716,657	35,14
716,887	32,24
717,116	24,5
717,345	21,13
717,575	18,98
717,804	17,78
718,033	15,4
718,262	12,32
718,492	11,74
718,721	10,26
718,95	8,66
719,179	6,83
719,408	6,09
719,637	3,15
719,866	1,53
720,095	4,34
720,324	4,58
720,553	0,45
720,782	-2,23
721,011	-1,58
721,24	-4,47
721,469	-4,1
721,698	-3,59
721,927	-3,42
722,156	-4,06
722,385	-4,94
722,613	-1,18
722,842	-2,13
723,071	2,44
723,3	3,67
723,529	2,19
723,757	3,56
723,986	-0,42
724,215	-1,48
724,443	-0,1
724,672	1,25
724,901	1,37
725,129	1,79
725,358	5,33
725,586	1,17
725,815	0,93
726,043	-0,57
726,272	-1,78
726,5	-1,24
726,729	0,7
726,957	-3,3
727,186	-6
727,414	-5,56
727,642	-4,1
727,871	-1,59
728,099	-2,43
728,327	-2,87
728,556	-1,32
728,784	-0,85
729,012	-2,79
729,241	-0,32
729,469	-1,04
729,697	-2,92
729,925	-3,15
730,153	-4,68
730,381	-5,43
730,61	-5,1
730,838	-8,02
731,066	-7,27
731,294	-6,6
731,522	-8,6
731,75	-13,18
731,978	-13,24
732,206	-14,3
732,434	-16,76
732,662	-12,55
732,89	-13,36
733,118	-13,93
733,346	-13,39
733,573	-13,52
733,801	-14,11
734,029	-5,88
734,257	-3,69
734,485	-0,35
734,712	1,85
734,94	0,22
735,168	2,76
735,396	3,26
735,623	0,72
735,851	2,29
736,078	4,19
736,306	4,74
736,534	4,29
736,761	4,77
736,989	3,24
737,216	2,29
737,444	0,64
737,671	0,64
737,899	6
738,126	4,81
738,354	5,15
738,581	3,73
738,809	5,06
739,036	3,23
739,263	3,68
739,491	1,11
739,718	0,55
739,945	6,33
740,173	9,05
740,4	8,85
740,627	7,12
740,854	7,09
741,081	3,5
741,309	2,13
741,536	-2,19
741,763	-2,48
741,99	-0,03
742,217	-0,36
742,444	-2,46
742,671	0,7
742,898	-0,44
743,125	-2,82
743,352	-5,13
743,579	-4,86
743,806	-5,44
744,033	-1,75
744,26	-0,03
744,487	-0,47
744,714	0,68
744,941	-1,52
745,167	4,08
745,394	3,37
745,621	4,11
745,848	4,17
746,075	6,66
746,301	11,09
746,528	16,83
746,755	14,31
746,981	12,29
747,208	13,8
747,435	16,56
747,661	16,67
747,888	18,76
748,114	16,49
748,341	18,2
748,567	20,73
748,794	18,56
749,02	16,48
749,247	15,76
749,473	16,68
749,7	15,98
749,926	14,39
750,152	19,27
750,379	19,13
750,605	20,22
750,831	18,96
751,058	16,77
751,284	13,06
751,51	15,87
751,737	17,89
751,963	18,3
752,189	15,9
752,415	15,19
752,641	14,31
752,867	13,52
753,094	10,56
753,32	7,45
753,546	4,38
753,772	7,54
753,998	6,13
754,224	5,29
754,45	4,93
754,676	4,7
754,902	2,02
755,128	2,88
755,354	3,07
755,579	3,16
755,805	5,02
756,031	3,93
756,257	1,48
756,483	0,89
756,709	-2,21
756,934	-1,13
757,16	-4,07
757,386	-3
757,612	-5,72
757,837	-6,01
758,063	-2,17
758,289	1,92
758,514	0,71
758,74	-2,94
758,965	-5,97
759,191	-3,97
759,416	-2,05
759,642	0,83
759,868	1,79
760,093	5,82
760,318	4,59
760,544	5,35
760,769	3,26
760,995	2,66
761,22	1,82
761,445	3,85
761,671	4,67
761,896	8,77
762,121	9,61
762,347	7,91
762,572	5,49
762,797	4,9
763,022	6,04
763,248	11,43
763,473	12,01
763,698	12,19
763,923	13,4
764,148	13,24
764,373	11,67
764,598	13,79
764,823	15,98
765,048	11,78
765,273	8,86
765,498	8,68
765,723	9,25
765,948	10,38
766,173	7,21
766,398	6,06
766,623	2,99
766,848	2,83
767,073	-0,7
767,298	-0,24
767,522	-0,89
767,747	0,47
767,972	0,67
768,197	0,78
768,421	-2,16
768,646	-3,97
768,871	-7,65
769,095	-8,05
769,32	-5,96
769,545	-6,21
769,769	-4,1
769,994	-3,04
770,218	-6,85
770,443	-5,92
770,667	-4,67
770,892	-5,05
771,116	-5,17
771,341	-3,04
771,565	-3,16
771,79	-3,21
772,014	-2,12
772,238	-2,83
772,463	-1,28
772,687	-0,88
772,911	-1,8
773,136	-2,85
773,36	-0,96
773,584	2,46
773,808	-0,36
774,033	0,21
774,257	0,18
774,481	-0,8
774,705	-0,02
774,929	-1,57
775,153	-0,24
775,377	1,91
775,602	2,14
775,826	4,08
776,05	5,75
776,274	3,61
776,498	2,92
776,722	0,73
776,945	2,86
777,169	2,22
777,393	0,83
777,617	1,01
777,841	1,79
778,065	1,8
778,289	1,18
778,512	0,12
778,736	0,63
778,96	-0,97
779,184	0,81
779,407	-0,4
779,631	0,7
779,855	1,31
780,078	3,06
780,302	0,94
780,526	-3,22
780,749	-2,34
780,973	-0,12
781,196	1,08
781,42	0,13
781,643	-1,63
781,867	0,32
782,09	-3,69
782,314	-4,02
782,537	-3,61
782,76	-4,31
782,984	-2,54
783,207	-2,57
783,431	-0,75
783,654	-0,91
783,877	-4,92
784,1	-5,95
784,324	-5,83
784,547	-7,28
784,77	-11,89
784,993	-12,13
785,216	-13,27
785,44	-12,38
785,663	-14
785,886	-11,3
786,109	-11,59
786,332	-11,37
786,555	-12,36
786,778	-11,56
787,001	-9,96
787,224	-8,57
787,447	-6,61
787,67	-5,26
787,893	-6,29
788,116	-7,16
788,339	-5,69
788,561	-5,23
788,784	-9,11
789,007	-9,91
789,23	-12,3
789,453	-12,73
789,675	-14,59
789,898	-18,32
790,121	-19,12
790,344	-20,01
790,566	-19,21
790,789	-18,61
791,012	-16,48
791,234	-14,32
791,457	-8,67
791,679	-7,08
791,902	-6,16
792,124	-6,42
792,347	-7,24
792,569	-7,54
792,792	-10,57
793,014	-6,91
793,237	-5,84
793,459	-5,45
793,681	-5
793,904	-8,3
794,126	-9,16
794,348	-9,94
794,571	-8,83
794,793	-9,13
795,015	-7,72
795,237	-7,62
795,46	-6,59
795,682	-5,31
795,904	-2,7
796,126	-3,4
796,348	-4,19
796,57	-0,51
796,792	1,45
797,014	4,96
797,237	6,56
797,459	8,39
797,681	9,51
797,903	7,41
798,124	7,46
798,346	16,77
798,568	17,79
798,79	20,39
799,012	21,92
799,234	23,04
799,456	24,35
799,678	26,21
799,899	22,94
800,121	20,42
800,343	20,81
800,565	20,6
800,786	22,57
801,008	24,12
801,23	24,54
801,451	25,96
801,673	23,56
801,895	23,34
802,116	25,19
802,338	25,92
802,559	25,72
802,781	25,01
803,002	26,9
803,224	28,08
803,445	25,68
803,667	25,89
803,888	22,97
804,109	23,66
804,331	22,37
804,552	21,98
804,773	24,15
804,995	21,56
805,216	7,2
805,437	5,1
805,658	2,17
805,88	1,26
806,101	1,33
806,322	0,83
806,543	-1,1
806,764	-3,24
806,985	-1,73
807,207	-2,13
807,428	-1,94
807,649	-5,3
807,87	-6,15
808,091	-4,85
808,312	-4,88
808,533	1,32
808,754	1,59
808,975	-1,16
809,195	0,12
809,416	1,31
809,637	0,66
809,858	-1,2
810,079	-2,72
810,3	-0,98
810,52	-2,61
810,741	-4,04
810,962	-6,15
811,183	-5,87
811,403	-5,06
811,624	-4,92
811,845	-3,11
812,065	-1,33
812,286	-0,97
812,506	-0,41
812,727	-0,29
812,948	0,37
813,168	1,68
813,389	1,06
813,609	3,24
813,83	2,4
814,05	1,96
814,27	1,97
814,491	5,62
814,711	4,15
814,931	0,99
815,152	0,01
815,372	-2,99
815,592	-3,52
815,813	-3,21
816,033	-5,89
816,253	-5,3
816,473	-6,4
816,694	-4,62
816,914	-1,45
817,134	-1,92
817,354	-2,52
817,574	-1,86
817,794	-1,48
818,014	-3,55
818,234	-3,55
818,454	-6,59
818,674	-8,42
818,894	-11,61
819,114	-8,7
819,334	-8,65
819,554	-6,81
819,774	-4,23
819,994	-6,79
820,214	-6,74
820,433	-5,27
820,653	-5,87
820,873	-5,01
821,093	-3,89
821,312	-6,05
821,532	-4,21
821,752	-1,82
821,972	-3,17
822,191	-2,81
822,411	-4,55
822,63	-5,2
822,85	-3,5
823,07	-6,08
823,289	-4,96
823,509	-6,76
823,728	-5,61
823,948	-7,74
824,167	-8,2
824,387	-7,57
824,606	-6,47
824,825	-7,18
825,045	-9,58
825,264	-8,88
825,483	-6,25
825,703	-3,82
825,922	-7,04
826,141	-8,24
826,361	-9,28
826,58	-13,82
826,799	-15,26
827,018	-13,29
827,237	-14,69
827,456	-12,37
827,676	-10,83
827,895	-11,38
828,114	-9,7
828,333	-9,28
828,552	-9,78
828,771	-9,33
828,99	-11,81
829,209	-9,69
829,428	-6,38
829,647	-7,04
829,866	-5,67
830,084	-5,33
830,303	-4,51
830,522	-6,08
830,741	-5,39
830,96	-5,55
831,179	-5,49
831,397	-8
831,616	-7,07
831,835	-4,89
832,053	-4
832,272	-4,75
832,491	-4,34
832,709	-4,2
832,928	-2,99
833,147	-2,69
833,365	-0,4
833,584	4,1
833,802	6,27
834,021	5,29
834,239	5,89
834,458	3,06
834,676	-0,72
834,894	-2,31
835,113	-3,26
835,331	-3,69
835,55	-2,98
835,768	-1,57
835,986	-1,45
836,204	-4,04
836,423	-3,22
836,641	-4,14
836,859	-4,64
837,077	-4,72
837,296	-5,11
837,514	-5,64
837,732	-5,47
837,95	-6,32
838,168	-2,06
838,386	-3,18
838,604	-1,52
838,822	-0,88
839,04	-3,17
839,258	-1,77
839,476	1,43
839,694	0,98
839,912	-0,02
840,13	-1,17
840,348	1,07
840,566	-2,74
840,783	-1,45
841,001	-3,54
841,219	-2,18
841,437	-0,2
841,655	-0,06
841,872	-1,13
842,09	-0,98
842,308	-0,46
842,525	-0,59
842,743	-0,06
842,961	-1,45
843,178	-3,02
843,396	0,92
843,613	1,32
843,831	2,38
844,048	1,42
844,266	2,98
844,483	2,99
844,701	1,93
844,918	1,74
845,136	0,4
845,353	-1,58
845,57	-0,51
845,788	4,24
846,005	1,4
846,222	-1,17
846,439	-0,24
846,657	-0,83
846,874	-0,11
847,091	-3,25
847,308	-1,13
847,526	-1,28
847,743	-1,23
847,96	-2,49
848,177	-1,42
848,394	-1,28
848,611	-1,85
848,828	-2,11
849,045	-5,22
849,262	-4,64
849,479	-5,79
849,696	-6,23
849,913	-8,57
850,13	-13,56
850,347	-10,56
850,564	-10,77
850,78	-11,29
850,997	-13,49
851,214	-13,92
851,431	-12,58
851,647	-16,03
851,864	-13,15
852,081	-11,3
852,298	-14,94
852,514	-16,56
852,731	-14,93
852,948	-11,98
853,164	-11,13
853,381	-11,01
853,597	-12,85
853,814	-15,28
854,03	-18,82
854,247	-17,31
854,463	-17,24
854,68	-17,8
854,896	-17,85
855,113	-16,4
855,329	-14,74
855,545	-13,12
855,762	-11,6
855,978	-14,68
856,194	-16,14
856,411	-11,46
856,627	-8,22
856,843	-6,65
857,059	-5,28
857,275	-6,67
857,492	-5,02
857,708	-1,16
857,924	1,42
858,14	3,98
858,356	2,49
858,572	1,93
858,788	-0,21
859,004	0,54
859,22	-2,64
859,436	-2,56
859,652	-4,69
859,868	-5,82
860,084	-6,06
860,3	-5,55
860,516	-4,53
860,731	-3,57
860,947	-6,22
861,163	-5,7
861,379	-3,98
861,595	-2,57
861,81	-1,66
862,026	-1,78
862,242	-1,73
862,457	-2,88
862,673	-1,99
862,889	-1,26
863,104	-2,89
863,32	-3,25
863,535	-2,72
863,751	-7,19
863,966	-4,21
864,182	-2,97
864,397	-5,87
864,613	-9,11
864,828	-10,86
865,044	-8,65
865,259	-6,41
865,474	-7,13
865,69	-5,2
865,905	-3,39
866,12	-5,23
866,336	-5,32
866,551	-4,29
866,766	-4,58
866,981	-5,72
867,196	-5,5
867,412	-5,21
867,627	-5,13
867,842	-5,4
868,057	-7,36
868,272	-8,8
868,487	-10,64
868,702	-11,99
868,917	-12,5
869,132	-9,34
869,347	-7,62
869,562	-9,68
869,777	-10,57
869,992	-10,81
870,207	-11,47
870,422	-12,71
870,636	-14,54
870,851	-16,91
871,066	-18,14
871,281	-17,41
871,495	-18,95
871,71	-16,15
871,925	-19,46
872,14	-19,1
872,354	-20,76
872,569	-21,49
872,783	-19,06
872,998	-19,1
873,213	-20,09
873,427	-16,63
873,642	-13,41
873,856	-12,62
874,071	-11,32
874,285	-11,38
874,5	-13,44
874,714	-14,17
874,928	-14,58
875,143	-15,45
875,357	-15,66
875,571	-17,74
875,786	-17,18
876	-14,36
876,214	-11,84
876,429	-13,33
876,643	-13,16
876,857	-11,59
877,071	-10,56
877,285	-11,86
877,499	-13,92
877,714	-11,55
877,928	-8,31
878,142	-9,95
878,356	-12,44
878,57	-11,95
878,784	-12,15
878,998	-12,84
879,212	-10,55
879,426	-13,4
879,639	-12,01
879,853	-13,56
880,067	-14,49
880,281	-16,42
880,495	-15,77
880,709	-13,82
880,922	-13,82
881,136	-10,96
881,35	-7,56
881,564	-7,34
881,777	-9,18
881,991	-7,87
882,205	-4,37
882,418	-6,19
882,632	-8,29
882,845	-8,77
883,059	-8
883,273	-9,17
883,486	-10,28
883,7	-6,01
883,913	-6,79
884,126	-4,18
884,34	-7,03
884,553	-10,64
884,767	-5,41
884,98	-5,35
885,193	-6,15
885,407	-5,36
885,62	-2,38
885,833	-2,62
886,046	0,14
886,26	-0,99
886,473	-1,71
886,686	-2,64
886,899	-1,5
887,112	-2,99
887,326	-6,6
887,539	-4,43
887,752	-2,77
887,965	-5,89
888,178	-6,58
888,391	-4,87
888,604	-5,1
888,817	-7,33
889,03	-6,59
889,243	-8,63
889,455	-10,27
889,668	-10,54
889,881	-6,49
890,094	-7,91
890,307	-11,98
890,52	-9,78
890,732	-9,76
890,945	-9,39
891,158	-8,29
891,37	-10,94
891,583	-10,54
891,796	-7,44
892,008	-9,6
892,221	-11,29
892,434	-14,96
892,646	-16,15
892,859	-16,68
893,071	-14,26
893,284	-12,16
893,496	-13,33
893,709	-13,88
893,921	-12,16
894,133	-14,1
894,346	-15,18
894,558	-15,09
894,771	-14,24
894,983	-12,26
895,195	-11,38
895,407	-10,47
895,62	-13,71
895,832	-13,56
896,044	-10,91
896,256	-11,66
896,468	-15,68
896,681	-13,79
896,893	-13,18
897,105	-13,23
897,317	-13,46
897,529	-12,33
897,741	-11,5
897,953	-9,23
898,165	-11,55
898,377	-14,53
898,589	-14,19
898,801	-14,65
899,013	-12,01
899,224	-9,34
899,436	-7,59
899,648	-8,42
899,86	-10,69
900,072	-7,67
900,283	-5,1
900,495	-4,09
900,707	-1,76
900,919	-5,06
901,13	-3,34
901,342	-6,27
901,554	-6,39
901,765	-5,84
901,977	-8,73
902,188	-7,6
902,4	-7,57
902,611	-8,83
902,823	-9,5
903,034	-10,6
903,246	-12,58
903,457	-13,27
903,669	-13,35
903,88	-13,89
904,091	-13,31
904,303	-13,59
904,514	-16,13
904,725	-13,03
904,936	-10,94
905,148	-8,86
905,359	-7,09
905,57	-7,1
905,781	-10,26
905,992	-11,15
906,204	-9,61
906,415	-9,27
906,626	-11,63
906,837	-10,22
907,048	-11,26
907,259	-13,19
907,47	-13,15
907,681	-14,75
907,892	-9,79
908,103	-12,33
908,314	-15,25
908,525	-12,43
908,735	-12,2
908,946	-13,33
909,157	-14,92
909,368	-12,1
909,579	-10,79
909,789	-10,71
910	-12,69
910,211	-12,87
910,421	-12,42
910,632	-10,72
910,843	-13,76
911,053	-10,38
911,264	-7,63
911,475	-9,15
911,685	-8,15
911,896	-8,76
912,106	-7,53
912,317	-10,19
912,527	-7,27
912,737	-9,43
912,948	-9,49
913,158	-8,62
913,369	-11,99
913,579	-9,02
913,789	-8,42
914	-5,27
914,21	-5,7
914,42	-7,31
914,63	-6,93
914,841	-5,69
915,051	-4,81
915,261	-4,31
915,471	-0,81
915,681	1,04
915,891	0,68
916,101	0,08
916,311	-0,72
916,521	1,83
916,731	3,9
916,941	6,08
917,151	4,23
917,361	8,71
917,571	4,57
917,781	0,84
917,991	-1,36
918,201	-2,71
918,411	-5,49
918,621	-6,95
918,83	-4,12
919,04	-8,17
919,25	-4,32
919,46	-2,48
919,669	-6,85
919,879	-7,95
920,089	-10,86
920,298	-12,24
920,508	-11,76
920,717	-9,93
920,927	-11,2
921,136	-9,86
921,346	-11,51
921,555	-14,77
921,765	-13,42
921,974	-16,42
922,184	-20,35
922,393	-20,29
922,603	-21,01
922,812	-17,78
923,021	-19,51
923,23	-21,41
923,44	-25,11
923,649	-25,81
923,858	-26,36
924,067	-26,42
924,277	-28,39
924,486	-26,02
924,695	-26,96
924,904	-23,63
925,113	-23,91
925,322	-22,79
925,531	-21,21
925,74	-24,97
925,949	-27,32
926,158	-23,56
926,367	-21,47
926,576	-20,98
926,785	-20,95
926,994	-22,53
927,203	-21,36
927,412	-21,04
927,621	-21,47
927,83	-18
928,038	-16,52
928,247	-17,37
928,456	-16,51
928,665	-14,99
928,873	-13,29
929,082	-10,41
929,291	-10,4
929,499	-7,69
929,708	-10,78
929,916	-9,76
930,125	-10,69
930,333	-12,08
930,542	-8,94
930,75	-4,94
930,959	-3,66
931,167	-3,4
931,376	-4,52
931,584	-2,72
931,793	-2,55
932,001	-2,38
932,209	-3,99
932,418	-4,95
932,626	-6,22
932,834	-9,49
933,042	-11,47
933,251	-12,41
933,459	-13,41
933,667	-15,74
933,875	-15,68
934,083	-15,11
934,291	-15,05
934,499	-13,91
934,707	-14,73
934,915	-15,22
935,123	-11,77
935,331	-13,88
935,539	-17,45
935,747	-20,17
935,955	-21,47
936,163	-19,64
936,371	-19,43
936,579	-15,99
936,787	-16,73
936,995	-18,86
937,202	-21,83
937,41	-21,25
937,618	-20,89
937,826	-20,13
938,033	-25,56
938,241	-26,44
938,449	-25,09
938,656	-21,68
938,864	-21,94
939,071	-21,5
939,279	-17,93
939,486	-15,11
939,694	-15,29
939,901	-16,54
940,109	-14,61
940,316	-14,28
940,524	-15,81
940,731	-17,15
940,939	-16,58
941,146	-16,59
941,353	-16,26
941,561	-17,01
941,768	-17,27
941,975	-14,56
942,182	-13,67
942,39	-12,68
942,597	-8,28
942,804	-8,81
943,011	-10,14
943,218	-8,48
943,425	-8,23
943,632	-7,64
943,839	-11,07
944,046	-12,61
944,253	-12,28
944,46	-9,79
944,667	-6,73
944,874	-7,73
945,081	-7,13
945,288	-4,26
945,495	-2,53
945,702	-1,17
945,909	-4,76
946,115	-2,83
946,322	-2,49
946,529	-4,34
946,736	-5,31
946,942	-3,31
947,149	-4,63
947,356	-6,91
947,562	-8,79
947,769	-9,53
947,976	-10,86
948,182	-10,68
948,389	-11,94
948,595	-11,69
948,802	-11,07
949,008	-14,57
949,215	-12,5
949,421	-14,58
949,628	-16,94
949,834	-16,32
950,04	-16,14
950,247	-10,72
950,453	-9,1
950,659	-11,47
950,865	-10,63
951,072	-16,08
951,278	-13,16
951,484	-15,21
951,69	-19,08
951,896	-21,13
952,103	-22,52
952,309	-20,59
952,515	-19,3
952,721	-17,51
952,927	-16,74
953,133	-16,41
953,339	-16,04
953,545	-15,69
953,751	-14
953,957	-9,92
954,163	-11,5
954,369	-10,98
954,574	-12,32
954,78	-11,48
954,986	-10,26
955,192	-8,41
955,398	-8,9
955,603	-11,69
955,809	-9,22
956,015	-7,76
956,22	-7,08
956,426	-6,09
956,632	-9,53
956,837	-9,45
957,043	-8,38
957,248	-6,78
957,454	-5,3
957,66	-7,73
957,865	-7,29
958,07	-5,92
958,276	-5,65
958,481	-7,87
958,687	-7,95
958,892	-7,94
959,097	-8,11
959,303	-6,7
959,508	-8,63
959,713	-10,72
959,919	-10,44
960,124	-11,11
960,329	-12,3
960,534	-8,07
960,739	-7,13
960,945	-4,28
961,15	-5,24
961,355	-7,52
961,56	-12,45
961,765	-12,6
961,97	-12,39
962,175	-10,29
962,38	-13,39
962,585	-12,78
962,79	-15,82
962,995	-16,06
963,2	-18,69
963,404	-18,99
963,609	-21,92
963,814	-23,52
964,019	-26,29
964,224	-27,78
964,428	-25,73
964,633	-25,75
964,838	-24,35
965,042	-25,09
965,247	-27,81
965,452	-27,74
965,656	-27,43
965,861	-25,19
966,066	-25,33
966,27	-23,38
966,475	-18,82
966,679	-22,19
966,884	-20,98
967,088	-22,97
967,292	-24,18
967,497	-23,2
967,701	-22,66
967,906	-20,71
968,11	-18,76
968,314	-15,74
968,518	-17,55
968,723	-14,28
968,927	-12,99
969,131	-11,25
969,335	-10,09
969,539	-9,43
969,744	-8,15
969,948	-4,79
970,152	-2,23
970,356	-1,62
970,56	-2,01
970,764	-3,13
970,968	-0,2
971,172	0,35
971,376	1,24
971,58	1,45
971,784	2,21
971,988	-0,14
972,192	3
972,395	1,18
972,599	-1,14
972,803	-4,29
973,007	-2,05
973,21	-2,88
973,414	-3,93
973,618	-4,57
973,822	-4,72
974,025	-4,77
974,229	-4,26
974,432	-6,84
974,636	-8,99
974,84	-7,98
975,043	-7,52
975,247	-10
975,45	-9,85
975,654	-8,15
975,857	-5,84
976,06	-6,36
976,264	-8,82
976,467	-7,81
976,671	-7,53
976,874	-5,7
977,077	-8,11
977,28	-9,93
977,484	-12,99
977,687	-14,47
977,89	-10,69
978,093	-11,37
978,297	-8,98
978,5	-13,83
978,703	-11,58
978,906	-11,35
979,109	-11,92
979,312	-10,25
979,515	-11,27
979,718	-10,56
979,921	-10,11
980,124	-11,75
980,327	-11,15
980,53	-12,41
980,733	-9,84
980,936	-7,2
981,138	-10,06
981,341	-10,69
981,544	-10,98
981,747	-11,66
981,949	-13,84
982,152	-12,47
982,355	-14,05
982,558	-11,93
982,76	-15,36
982,963	-16,5
983,165	-16,35
983,368	-14,6
983,571	-13,98
983,773	-9,96
983,976	-8,23
984,178	-8,85
984,381	-10,37
984,583	-13,92
984,785	-12,79
984,988	-10,22
985,19	-8,98
985,392	-9,61
985,595	-13,21
985,797	-13,37
985,999	-11,59
986,202	-9,86
986,404	-11,01
986,606	-7,88
986,808	-7,96
987,01	-7,67
987,212	-9,52
987,415	-10,22
987,617	-9,5
987,819	-9,14
988,021	-8
988,223	-9,41
988,425	-11,13
988,627	-9,75
988,829	-13,15
989,031	-10,79
989,232	-10,62
989,434	-9,75
989,636	-9,66
989,838	-11,2
990,04	-10,84
990,242	-12,34
990,443	-14,61
990,645	-11,5
990,847	-7,18
991,048	-6,66
991,25	-9,78
991,452	-11,03
991,653	-11,92
991,855	-11,27
992,057	-12,09
992,258	-10,48
992,46	-10,23
992,661	-8,42
992,863	-11,64
993,064	-9,31
993,265	-10,45
993,467	-11,43
993,668	-8,43
993,87	-7,96
994,071	-8,04
994,272	-9
994,473	-6,81
994,675	-6,26
994,876	-6,18
995,077	-4,35
995,278	-2,9
995,48	-2,23
995,681	-3,97
995,882	-2,95
996,083	-3,16
996,284	-5,93
996,485	-5,35
996,686	-6,94
996,887	-7,9
997,088	-12,99
997,289	-14,99
997,49	-14,74
997,691	-14,48
997,892	-15,3
998,092	-10,97
998,293	-10,44
998,494	-12,18
998,695	-13,47
998,896	-9,62
999,096	-9,79
999,297	-10,74
999,498	-11,63
999,698	-14,21
999,899	-16,74
1000,1	-20,46
1000,3	-20,44
1000,501	-20,69
1000,701	-20,89
1000,902	-20,76
1001,102	-20,71
1001,303	-19,51
1001,503	-22,84
1001,704	-22,74
1001,904	-21,37
1002,105	-20,84
1002,305	-19,83
1002,505	-22,06
1002,706	-21,65
1002,906	-21,62
1003,106	-22,35
1003,306	-20,1
1003,507	-15,61
1003,707	-15,22
1003,907	-11,47
1004,107	-8,04
1004,307	-9,1
1004,507	-8,3
1004,707	-7,96
1004,907	-10,92
1005,107	-13,56
1005,308	-13,02
1005,507	-14,17
1005,707	-12,11
1005,907	-9,98
1006,107	-6,62
1006,307	-2,83
1006,507	-4,77
1006,707	-4,36
1006,907	-4,5
1007,106	-5,37
1007,306	-5,53
1007,506	-6,73
1007,706	-5,38
1007,905	-6,65
1008,105	-7,74
1008,305	-9,18
1008,504	-8,5
1008,704	-2,89
1008,903	-2,31
1009,103	0,8
1009,303	-2,35
1009,502	-1,35
1009,702	-4,27
1009,901	-4,11
1010,1	-9,19
1010,3	-9,37
1010,499	-11,63
1010,699	-12,81
1010,898	-14,61
1011,097	-14,13
1011,296	-14,02
1011,496	-14
1011,695	-14,3
1011,894	-15,9
1012,093	-13,03
1012,293	-14,23
1012,492	-15,17
1012,691	-14,67
1012,89	-14,22
1013,089	-16,45
1013,288	-15,36
1013,487	-15,87
1013,686	-15,39
1013,885	-16,85
1014,084	-16,32
1014,283	-17,25
1014,482	-18,48
1014,681	-19,07
1014,88	-21,87
1015,078	-20,71
1015,277	-24,89
1015,476	-25,34
1015,675	-26,18
1015,873	-25,03
1016,072	-26,88
1016,271	-22,2
1016,47	-25,49
1016,668	-24,44
1016,867	-25,84
1017,065	-27,58
1017,264	-27,92
1017,463	-27,85
1017,661	-27,69
1017,86	-28,18
1018,058	-27,35
1018,256	-29,29
1018,455	-31,57
1018,653	-31,89
1018,852	-30,94
1019,05	-32,76
1019,248	-33,47
1019,447	-33,42
1019,645	-33,13
1019,843	-34,84
1020,041	-31,88
1020,24	-30,75
1020,438	-25,53
1020,636	-24,66
1020,834	-28,29
1021,032	-26,49
1021,23	-28,19
1021,428	-25
1021,626	-19,86
1021,824	-19,31
1022,022	-21,12
1022,22	-19,03
1022,418	-19,49
1022,616	-20,54
1022,814	-20,51
1023,012	-20,63
1023,21	-16,59
1023,408	-15,22
1023,606	-16,23
1023,803	-11,53
1024,001	-10,47
1024,199	-12,85
1024,397	-12,75
1024,594	-11,51
1024,792	-13,66
1024,99	-12,99
1025,187	-13,5
1025,385	-9,34
1025,582	-9,85
1025,78	-10,2
1025,977	-8,72
1026,175	-10,11
1026,372	-11,13
1026,57	-14,6
1026,767	-12,25
1026,965	-10,47
1027,162	-10,58
1027,359	-11,31
1027,557	-10,95
1027,754	-14,34
1027,951	-16,45
1028,148	-14,36
1028,346	-16,55
1028,543	-18,28
1028,74	-17,85
1028,937	-20,76
1029,134	-19,76
1029,331	-22,25
1029,528	-21,8
1029,725	-22,05
1029,923	-26,28
1030,12	-23,06
1030,317	-21,65
1030,513	-20,2
1030,71	-18,83
1030,907	-15,3
1031,104	-16,33
1031,301	-16,16
1031,498	-16,6
1031,695	-17,31
1031,892	-16,55
1032,088	-17
1032,285	-17,97
1032,482	-18,4
1032,678	-21,7
1032,875	-24,97
1033,072	-23,88
1033,268	-23,02
1033,465	-22,89
1033,662	-24,8
1033,858	-23,13
1034,055	-20,91
1034,251	-19,1
1034,448	-18,09
1034,644	-18,66
1034,84	-15,29
1035,037	-12
1035,233	-12,24
1035,43	-9,33
1035,626	-10,14
1035,822	-9,25
1036,019	-9,55
1036,215	-13,54
1036,411	-13,91
1036,607	-14,68
1036,803	-17,77
1037	-19,39
1037,196	-19,35
1037,392	-20,53
1037,588	-22,46
1037,784	-20,79
1037,98	-22,17
1038,176	-22,36
1038,372	-23,57
1038,568	-21,92
1038,764	-18,58
1038,96	-15,59
1039,156	-16,81
1039,352	-18,86
1039,547	-16,46
1039,743	-16,15
1039,939	-15,53
1040,135	-17,86
1040,331	-20,21
1040,526	-18,11
1040,722	-18,09
1040,918	-19,73
1041,113	-23,06
1041,309	-23,9
1041,505	-26,58
1041,7	-25,92
1041,896	-26,59
1042,091	-27,28
1042,287	-26,8
1042,482	-26,29
1042,678	-27,33
1042,873	-26,13
1043,069	-26,49
1043,264	-26,43
1043,459	-23,52
1043,655	-22,92
1043,85	-24,88
1044,045	-23,44
1044,24	-23,04
1044,436	-20,2
1044,631	-20,98
1044,826	-22,78
1045,021	-25,88
1045,216	-24,68
