Data from FLMT021711__4__17-53-54-587.txt Node

Date: Tue Nov 05 17:53:54 CET 2024
User: Etudiants TP
Spectrometer: FLMT02171
Trigger mode: 0
Integration Time (sec): 1.000000E-1
Scans to average: 5
Electric dark correction enabled: true
Nonlinearity correction enabled: false
Boxcar width: 15
XAxis mode: Wavelengths
Number of Pixels in Spectrum: 3648
>>>>>Begin Spectral Data<<<<<
194.658	-67.97
194.923	-64.34
195.188	-56.94
195.453	-56.5
195.717	-49.76
195.982	-49.1
196.247	-47.39
196.512	-50.1
196.777	-47.56
197.042	-45.76
197.307	-45.59
197.572	-41.95
197.837	-41.55
198.101	-38.54
198.366	-35.8
198.631	-33.86
198.896	-26.54
199.161	-19.77
199.425	-11.85
199.69	-1.03
199.955	-0.75
200.22	-4.34
200.484	-4.62
200.749	-5.23
201.014	-3.37
201.278	-1.95
201.543	-1.69
201.807	-2.01
202.072	0.09
202.337	0.5
202.601	1.47
202.866	-0.49
203.13	0.72
203.395	-2.71
203.659	-2.18
203.924	-4.07
204.189	-3.76
204.453	-2.13
204.717	1.8
204.982	1.9
205.246	3.66
205.511	5.17
205.775	5.38
206.04	10.35
206.304	10.66
206.568	11.75
206.833	11.95
207.097	13.54
207.361	15.97
207.626	19.17
207.89	19.36
208.154	19.37
208.419	22.23
208.683	22.11
208.947	24.93
209.211	24.22
209.476	22.24
209.74	22.67
210.004	22.87
210.268	22.43
210.532	24.43
210.796	23.64
211.061	23.88
211.325	24.06
211.589	23.12
211.853	24.09
212.117	24.64
212.381	25.29
212.645	24.67
212.909	24.22
213.173	22.19
213.437	22.11
213.701	23.05
213.965	24.02
214.229	20.14
214.493	18.57
214.757	17.44
215.021	17.27
215.285	19.88
215.549	22.38
215.813	19.39
216.077	18.73
216.34	21.48
216.604	19.49
216.868	20.55
217.132	21.33
217.396	20.62
217.659	21.9
217.923	18.8
218.187	19.28
218.451	18.64
218.714	16.49
218.978	16.25
219.242	20.32
219.505	19.82
219.769	22.13
220.033	22.04
220.296	23.2
220.56	24.99
220.824	23.94
221.087	24.9
221.351	24.86
221.614	25.65
221.878	26.91
222.142	24.15
222.405	22.62
222.669	25.63
222.932	22.82
223.196	20.23
223.459	16.65
223.722	16.52
223.986	16.34
224.249	16.39
224.513	15.93
224.776	16.21
225.04	15.56
225.303	15.3
225.566	14.74
225.83	16.61
226.093	19.48
226.356	17.34
226.62	15.5
226.883	17.22
227.146	17.89
227.409	16.13
227.673	14.55
227.936	14.41
228.199	14.35
228.462	11.76
228.725	9.59
228.989	10.02
229.252	10.48
229.515	14.41
229.778	11.54
230.041	11.06
230.304	9.96
230.567	11.5
230.83	8.48
231.093	10.84
231.356	11.41
231.619	17.53
231.882	16.19
232.145	19.69
232.408	17.7
232.671	16.13
232.934	15.74
233.197	14.16
233.46	12.61
233.723	14.35
233.986	12.55
234.249	10.13
234.512	11.5
234.775	16.01
235.037	14.38
235.3	14.51
235.563	14.84
235.826	15.95
236.089	17.57
236.351	16.79
236.614	20.35
236.877	21.98
237.14	23.72
237.402	23.47
237.665	19.7
237.928	20.14
238.19	18.55
238.453	20.48
238.716	19.7
238.978	20.63
239.241	18.89
239.503	21.72
239.766	17.29
240.029	15.81
240.291	17.43
240.554	17.29
240.816	17.29
241.079	17.77
241.341	17.79
241.604	16.25
241.866	13.73
242.129	14.43
242.391	18.39
242.653	17.28
242.916	17.54
243.178	17.56
243.441	18.53
243.703	17.41
243.965	16.31
244.228	16.08
244.49	16.24
244.752	16.66
245.015	16.49
245.277	17.84
245.539	16.49
245.801	17.7
246.064	16.78
246.326	14.4
246.588	14.88
246.85	18.29
247.112	18.9
247.374	20.89
247.637	22.82
247.899	21.2
248.161	21.58
248.423	16.36
248.685	18.39
248.947	17.62
249.209	17.7
249.471	19.69
249.733	20.81
249.995	19.96
250.257	19.57
250.519	17.3
250.781	19.94
251.043	17.53
251.305	20.15
251.567	21.63
251.829	22.55
252.091	21.74
252.353	18.86
252.615	20.38
252.876	17.07
253.138	16.1
253.4	11.96
253.662	12.94
253.924	14.38
254.185	16.53
254.447	18.31
254.709	18.22
254.971	18.17
255.232	20.27
255.494	18.7
255.756	16.12
256.017	16.31
256.279	18.08
256.541	19.01
256.802	17.81
257.064	18.31
257.326	17.08
257.587	17.02
257.849	18.2
258.11	21.12
258.372	21.34
258.633	21.83
258.895	21.73
259.156	20.35
259.418	19
259.679	14.37
259.941	12.27
260.202	14.81
260.464	17.01
260.725	14.45
260.987	14.52
261.248	14.49
261.509	14.53
261.771	13.54
262.032	14.35
262.293	13.67
262.555	13.59
262.816	11.88
263.077	10.47
263.338	7.72
263.6	8.33
263.861	6.89
264.122	8.33
264.383	8.8
264.645	9.3
264.906	8.99
265.167	10.39
265.428	10.73
265.689	12.81
265.95	10.82
266.211	11.15
266.473	10.51
266.734	7.45
266.995	5.17
267.256	4.97
267.517	5.76
267.778	9.35
268.039	10.75
268.3	10.13
268.561	7.77
268.822	11.51
269.083	8.18
269.344	6.91
269.604	7.27
269.865	6.77
270.126	3.43
270.387	5.02
270.648	6.86
270.909	6.69
271.17	5.1
271.43	1.25
271.691	0.3
271.952	-0.35
272.213	0.97
272.473	-1.51
272.734	-0.13
272.995	0.5
273.256	1.17
273.516	3.3
273.777	-0.01
274.038	1.86
274.298	0.43
274.559	0.47
274.82	6.05
275.08	6.41
275.341	8.82
275.601	8.84
275.862	6.92
276.122	7.41
276.383	7.58
276.643	11
276.904	9.68
277.164	14.44
277.425	14.34
277.685	17.48
277.946	18.5
278.206	19.08
278.467	20.63
278.727	19.77
278.987	19.45
279.248	19.34
279.508	22.71
279.768	24.43
280.029	26.74
280.289	23.38
280.549	22.2
280.81	21.98
281.07	21.25
281.33	22.39
281.59	21.22
281.851	23.42
282.111	21.6
282.371	18.5
282.631	20.41
282.891	17.9
283.151	17.53
283.412	14.69
283.672	14.63
283.932	15.09
284.192	15.41
284.452	14.01
284.712	10.15
284.972	8.72
285.232	6.84
285.492	10.23
285.752	9.21
286.012	14.81
286.272	17.82
286.532	13.89
286.792	14.08
287.052	15.7
287.312	15.63
287.571	14.15
287.831	13.69
288.091	11.68
288.351	12.27
288.611	17.05
288.871	16.02
289.13	16.23
289.39	12.26
289.65	12.43
289.91	10.89
290.17	13.59
290.429	17.99
290.689	14.87
290.949	11.91
291.208	13.23
291.468	17.29
291.728	17.15
291.987	18.59
292.247	16.87
292.506	18.91
292.766	22.09
293.026	21.12
293.285	21.41
293.545	21.83
293.804	20.68
294.064	16.61
294.323	14.14
294.583	14.98
294.842	14.51
295.102	15.48
295.361	16.86
295.621	18.4
295.88	18.38
296.139	18.58
296.399	20.51
296.658	14.66
296.917	15.13
297.177	11.86
297.436	12.46
297.695	11.54
297.955	11.85
298.214	10.75
298.473	11.47
298.732	13.93
298.992	17.62
299.251	16.92
299.51	12.48
299.769	12.99
300.028	13.15
300.287	13.48
300.547	13.33
300.806	11.56
301.065	16.23
301.324	18.38
301.583	15.75
301.842	13.08
302.101	12.36
302.36	12.48
302.619	12.57
302.878	14.08
303.137	10.91
303.396	11.15
303.655	11.78
303.914	9.29
304.173	9.79
304.432	8.63
304.691	13.77
304.95	12.29
305.208	17.77
305.467	19.18
305.726	19
305.985	19.67
306.244	21.64
306.503	21.51
306.761	22.08
307.02	18.83
307.279	19.97
307.537	20.91
307.796	18.65
308.055	17.19
308.314	19.32
308.572	17.34
308.831	18.05
309.09	17.45
309.348	18.82
309.607	17.73
309.865	21.68
310.124	19.91
310.382	21.95
310.641	22.8
310.9	20.1
311.158	21.8
311.417	20.83
311.675	20.91
311.933	23.01
312.192	23.27
312.45	22.62
312.709	20.6
312.967	19.4
313.226	18.93
313.484	18.85
313.742	16.41
314.001	15.18
314.259	13.74
314.517	15.01
314.776	16.15
315.034	18.64
315.292	16.23
315.55	16.16
315.809	16
316.067	15.76
316.325	13.16
316.583	14.61
316.841	13.38
317.1	10.5
317.358	5.86
317.616	5.72
317.874	3.93
318.132	3.91
318.39	2.8
318.648	2
318.906	2.33
319.164	2.02
319.422	2.99
319.68	1.27
319.938	2.15
320.196	2.49
320.454	4.14
320.712	3.84
320.97	5.1
321.228	2.84
321.486	3.16
321.744	5.6
322.002	7.35
322.26	5.92
322.517	4.16
322.775	0.83
323.033	-1.27
323.291	1.12
323.549	2.03
323.806	4.22
324.064	4.76
324.322	6.87
324.58	5.38
324.837	8.3
325.095	7.88
325.353	9.94
325.61	12.36
325.868	11.75
326.126	14.51
326.383	13.59
326.641	11.97
326.898	14.27
327.156	13.83
327.413	14.25
327.671	15.82
327.928	16.77
328.186	16.55
328.443	14.8
328.701	18.4
328.958	18.13
329.216	19.13
329.473	18.08
329.731	19.11
329.988	18.76
330.245	21.23
330.503	22.06
330.76	23.41
331.017	26.47
331.275	23.19
331.532	23.31
331.789	20.3
332.047	19.45
332.304	17.13
332.561	18.3
332.818	15.74
333.076	17.37
333.333	17.67
333.59	17.16
333.847	18.98
334.104	17.77
334.361	17
334.618	17.52
334.876	14.28
335.133	15.28
335.39	12.91
335.647	13.56
335.904	9.78
336.161	8.42
336.418	9.52
336.675	5.76
336.932	7.63
337.189	6.15
337.446	6.58
337.703	5.05
337.96	1.7
338.216	0.24
338.473	-1.81
338.73	-1.93
338.987	-2.44
339.244	0.87
339.501	-0.58
339.757	0.85
340.014	2.52
340.271	3.3
340.528	4.53
340.785	8.99
341.041	8.8
341.298	6.68
341.555	7.27
341.811	6.1
342.068	3.75
342.325	4.41
342.581	6.32
342.838	8.44
343.094	7.02
343.351	6.16
343.608	3.27
343.864	5.53
344.121	7.2
344.377	5.99
344.634	5.63
344.89	5.06
345.147	5.58
345.403	5.4
345.66	5.51
345.916	8.03
346.172	7.89
346.429	6.86
346.685	5.57
346.942	5.07
347.198	2.06
347.454	2.13
347.711	2.41
347.967	-1.18
348.223	-0.01
348.48	-1.18
348.736	0.35
348.992	-0.63
349.248	2.35
349.504	1.04
349.761	1.63
350.017	2.2
350.273	1.8
350.529	1.51
350.785	-0.02
351.041	-0.36
351.297	2.22
351.554	1.11
351.81	-1.44
352.066	-3.33
352.322	-2.88
352.578	-2.86
352.834	-4.25
353.09	-4.05
353.346	-4.69
353.602	-5.57
353.858	-6.37
354.114	-7.69
354.369	-6.15
354.625	-3.27
354.881	-3.8
355.137	-1.95
355.393	-2.3
355.649	-2
355.905	-0.89
356.16	-1.89
356.416	-0.2
356.672	-5.87
356.928	-5.01
357.183	-7.21
357.439	-6.94
357.695	-8.65
357.951	-5.35
358.206	-6.52
358.462	-7.93
358.718	-8.67
358.973	-6.54
359.229	-5.87
359.484	-5.08
359.74	-0.71
359.996	-0.28
360.251	3.81
360.507	4.3
360.762	5.97
361.018	7.55
361.273	6.65
361.529	7.49
361.784	6.98
362.04	8.23
362.295	7.11
362.55	5.62
362.806	6.57
363.061	7.98
363.316	9.96
363.572	10.9
363.827	11.99
364.082	9.73
364.338	7.88
364.593	8.09
364.848	9.24
365.104	9.33
365.359	12.51
365.614	12.18
365.869	9.95
366.124	11.04
366.38	10.14
366.635	11.58
366.89	12.3
367.145	11.01
367.4	14.49
367.655	13.42
367.91	13.47
368.165	10.97
368.42	9.13
368.675	8.84
368.93	9.89
369.185	6.85
369.44	7.47
369.695	10.39
369.95	9.7
370.205	10.12
370.46	9.37
370.715	8.96
370.97	9.58
371.225	9.01
371.48	9.34
371.734	9.71
371.989	11.23
372.244	11.91
372.499	13.85
372.754	11.99
373.008	7.66
373.263	3.86
373.518	8.16
373.773	6.42
374.027	6.03
374.282	8.5
374.537	9.75
374.791	10.8
375.046	9.72
375.301	8.04
375.555	6.7
375.81	8.83
376.064	9.08
376.319	11.33
376.573	10.23
376.828	6.72
377.082	12.33
377.337	10.37
377.591	8.17
377.846	8.98
378.1	11.68
378.355	11.42
378.609	10.79
378.863	6.96
379.118	8.08
379.372	6.41
379.627	5.73
379.881	4.55
380.135	2.72
380.389	1.53
380.644	1.72
380.898	5.45
381.152	5.5
381.407	4.72
381.661	7.58
381.915	8.59
382.169	8.24
382.423	7.24
382.677	4.19
382.932	4.51
383.186	5.68
383.44	5.68
383.694	8.08
383.948	5.69
384.202	4.42
384.456	6.69
384.71	5.88
384.964	3.21
385.218	5.06
385.472	5.03
385.726	3.96
385.98	2.91
386.234	3.31
386.488	1.26
386.742	3.3
386.996	1.15
387.249	3.3
387.503	5.45
387.757	7.23
388.011	8.76
388.265	9.13
388.518	10.75
388.772	11.61
389.026	13.58
389.28	11.02
389.533	9.29
389.787	11.48
390.041	10.29
390.295	8.96
390.548	8.21
390.802	11.54
391.055	10.31
391.309	10.85
391.563	6.09
391.816	8.67
392.07	8.68
392.323	9.01
392.577	12.03
392.83	13.11
393.084	17.68
393.337	21.66
393.591	22.51
393.844	24.13
394.098	26.54
394.351	31.34
394.604	32.87
394.858	34.94
395.111	34.37
395.364	31.3
395.618	32.51
395.871	31.02
396.124	30.86
396.378	30.04
396.631	31.2
396.884	27.52
397.137	26.68
397.391	28.37
397.644	24.78
397.897	24.04
398.15	25
398.403	28.37
398.657	26.05
398.91	25.13
399.163	24.5
399.416	25.91
399.669	23.78
399.922	21.83
400.175	19.82
400.428	19.41
400.681	19.95
400.934	17.17
401.187	15
401.44	16.05
401.693	13.64
401.946	10.59
402.199	5.77
402.452	4.16
402.704	1.15
402.957	1.23
403.21	3.38
403.463	2.52
403.716	3.31
403.969	4.65
404.221	4.17
404.474	5.32
404.727	8.78
404.98	11.66
405.232	11.57
405.485	15.05
405.738	17.73
405.99	18.42
406.243	19.83
406.496	23.29
406.748	22.79
407.001	22.94
407.253	22.36
407.506	21.54
407.759	22.86
408.011	20.57
408.264	19.75
408.516	20.17
408.769	16.53
409.021	17.82
409.274	17.65
409.526	19.5
409.778	19.6
410.031	21.75
410.283	21.6
410.536	26.8
410.788	24.28
411.04	24.4
411.293	25.27
411.545	25.82
411.797	24.92
412.049	25.29
412.302	24.92
412.554	25.07
412.806	23.85
413.058	22.15
413.311	20.92
413.563	18.72
413.815	18.9
414.067	15.28
414.319	14.11
414.571	16.48
414.823	15.01
415.075	14.64
415.328	15.76
415.58	20.37
415.832	22.04
416.084	23.52
416.336	22.2
416.588	26.38
416.84	24.32
417.091	25.82
417.343	21.57
417.595	23.76
417.847	25.53
418.099	26.76
418.351	26.15
418.603	29.57
418.855	29.44
419.106	30.12
419.358	30.86
419.61	30.79
419.862	30
420.114	27.86
420.365	28.56
420.617	28.98
420.869	27.1
421.12	27
421.372	29.87
421.624	29.32
421.875	29.58
422.127	26.45
422.379	26.26
422.63	28.79
422.882	27.87
423.133	28.26
423.385	26.62
423.636	27.89
423.888	28.37
424.139	30.74
424.391	27.37
424.642	26.29
424.894	24.22
425.145	25.4
425.396	22.64
425.648	24.54
425.899	22.26
426.151	20.91
426.402	18.5
426.653	18.63
426.905	16.9
427.156	14.26
427.407	13.94
427.658	13.82
427.91	13.65
428.161	13.13
428.412	14.46
428.663	16.32
428.914	16.61
429.166	17.63
429.417	17.84
429.668	16.04
429.919	14.35
430.17	14.06
430.421	13.91
430.672	16.41
430.923	16.79
431.174	15.24
431.425	14.28
431.676	13.91
431.927	11.09
432.178	13.55
432.429	14.11
432.68	14.81
432.931	18.2
433.182	20.75
433.433	18.27
433.683	20.05
433.934	19.72
434.185	18.99
434.436	18.72
434.687	19.13
434.937	21.66
435.188	21.13
435.439	20.57
435.69	21.32
435.94	19.76
436.191	20.28
436.442	20.73
436.692	19.78
436.943	16.48
437.194	14.81
437.444	18.16
437.695	21.63
437.945	22.18
438.196	20.4
438.447	19.07
438.697	18.71
438.948	17.48
439.198	15.17
439.449	11.08
439.699	11.2
439.949	10.78
440.2	9.86
440.45	9.64
440.701	8.21
440.951	6.57
441.201	5.82
441.452	4.16
441.702	4.19
441.952	6.27
442.203	5.96
442.453	5.19
442.703	4.95
442.953	4.77
443.204	7.01
443.454	4.88
443.704	5.32
443.954	2.49
444.204	2.23
444.455	3.9
444.705	4.74
444.955	5.19
445.205	3.64
445.455	2.27
445.705	1.66
445.955	1.81
446.205	2.73
446.455	2.89
446.705	4.03
446.955	5.77
447.205	8.9
447.455	10.87
447.705	9.09
447.955	7.31
448.205	8.41
448.454	8.3
448.704	10.58
448.954	10.64
449.204	11.87
449.454	12.91
449.704	11.61
449.953	11.79
450.203	14.18
450.453	12.91
450.703	14.66
450.952	13.61
451.202	15.37
451.452	14.95
451.701	17.55
451.951	20.99
452.201	20.32
452.45	20.74
452.7	22.33
452.949	22.99
453.199	22.15
453.448	24.49
453.698	25.59
453.947	24.08
454.197	23.01
454.446	21.42
454.696	24.24
454.945	23.42
455.195	21.68
455.444	22.24
455.693	26.68
455.943	25.16
456.192	24.57
456.442	24.6
456.691	24.75
456.94	24.37
457.189	22.02
457.439	23.98
457.688	25.72
457.937	25.69
458.186	26.37
458.436	26.5
458.685	26.86
458.934	25.45
459.183	25.02
459.432	26.63
459.681	26.38
459.93	23.99
460.179	22.86
460.429	22.21
460.678	24.97
460.927	27.78
461.176	25.87
461.425	26.56
461.674	29.87
461.923	30.17
462.172	30.26
462.42	28.03
462.669	31.48
462.918	31.5
463.167	31.17
463.416	29.81
463.665	30.52
463.914	31.33
464.162	29.81
464.411	30.2
464.66	31.85
464.909	31.85
465.158	31.57
465.406	30.81
465.655	31.08
465.904	33.81
466.152	33.82
466.401	34.57
466.65	37.56
466.898	36.75
467.147	32.03
467.395	31.12
467.644	34.5
467.893	35.11
468.141	33.18
468.39	30.28
468.638	28.52
468.887	26.8
469.135	25.2
469.384	24.42
469.632	25.96
469.88	26.37
470.129	27.97
470.377	23.82
470.626	26.56
470.874	28.2
471.122	27.9
471.371	26.52
471.619	26.52
471.867	28.63
472.115	28.32
472.364	26.47
472.612	28.79
472.86	27.49
473.108	28.53
473.356	29.38
473.605	27.43
473.853	24.91
474.101	24.07
474.349	22.02
474.597	24.11
474.845	24.08
475.093	22.25
475.341	20.11
475.589	19.85
475.837	23.44
476.085	24.79
476.333	22.66
476.581	25.36
476.829	25.83
477.077	28.4
477.325	27
477.573	29.23
477.821	29.03
478.069	30.89
478.317	30.28
478.564	32.41
478.812	31.12
479.06	30.47
479.308	28.7
479.555	28.69
479.803	27.41
480.051	29.69
480.299	29.3
480.546	29.58
480.794	26.32
481.042	25.37
481.289	24.3
481.537	26.16
481.784	26.03
482.032	28.54
482.28	28.99
482.527	29.04
482.775	29.77
483.022	30.96
483.27	32.76
483.517	34.6
483.765	33.85
484.012	34.23
484.259	31.37
484.507	33.3
484.754	32.43
485.002	33.51
485.249	31.63
485.496	33.36
485.744	31.96
485.991	30.85
486.238	28.36
486.486	31.56
486.733	33.91
486.98	37.75
487.227	36.05
487.474	39.07
487.722	40.83
487.969	37.95
488.216	37.44
488.463	37.75
488.71	36.27
488.957	35.72
489.204	35.23
489.451	35.76
489.699	35.33
489.946	32.63
490.193	32.89
490.44	32.49
490.687	33.11
490.934	29.13
491.18	24.93
491.427	25.52
491.674	27.79
491.921	27.92
492.168	27.21
492.415	25.05
492.662	25.72
492.909	27.61
493.155	25.98
493.402	25.39
493.649	23.83
493.896	26
494.142	22.08
494.389	20.62
494.636	18.37
494.883	16.42
495.129	13.28
495.376	9.75
495.623	11.94
495.869	12.87
496.116	13.97
496.362	15.47
496.609	18.13
496.855	23.12
497.102	21.89
497.348	21.52
497.595	22.97
497.841	26.73
498.088	25.33
498.334	24.48
498.581	25.66
498.827	25.97
499.074	26.57
499.32	28.63
499.566	32.56
499.813	32.77
500.059	30.5
500.305	30.21
500.552	29.43
500.798	30.67
501.044	34.65
501.29	33.65
501.537	29.7
501.783	33.02
502.029	35.7
502.275	32.71
502.521	32.06
502.767	34.35
503.013	39.07
503.26	37.7
503.506	35.44
503.752	37.13
503.998	35.3
504.244	36.81
504.49	33.71
504.736	36.05
504.982	34.31
505.228	37.39
505.474	36.99
505.72	39.62
505.966	39.03
506.211	41.4
506.457	43.16
506.703	41.52
506.949	38.85
507.195	36.96
507.441	33.57
507.686	37.48
507.932	37.22
508.178	38.05
508.424	34.49
508.669	32.78
508.915	34.35
509.161	37.25
509.406	36.98
509.652	37.17
509.898	40.22
510.143	42.09
510.389	40.93
510.634	36.38
510.88	38.89
511.125	42.24
511.371	42.44
511.616	44.4
511.862	41.95
512.107	39.56
512.353	40.58
512.598	42.3
512.844	39.58
513.089	38.26
513.335	37.94
513.58	38.18
513.825	38.54
514.071	36.59
514.316	37.1
514.561	38.54
514.806	38.71
515.052	42.15
515.297	40.15
515.542	40.6
515.787	42.48
516.033	44.84
516.278	45.23
516.523	45.24
516.768	45.46
517.013	44.39
517.258	42.21
517.503	43.1
517.748	42.64
517.993	42.51
518.238	43.34
518.483	42.74
518.728	41.95
518.973	40.87
519.218	39.82
519.463	39.62
519.708	39.41
519.953	37.07
520.198	37.49
520.443	38.99
520.688	41.75
520.933	41.79
521.177	42.15
521.422	39.86
521.667	42.17
521.912	41.66
522.157	38.73
522.401	40.62
522.646	39.24
522.891	41.09
523.135	42.04
523.38	42.29
523.625	41.65
523.869	43.64
524.114	44.4
524.358	43.45
524.603	42.84
524.848	41.71
525.092	39.75
525.337	41.45
525.581	42.32
525.826	44.41
526.07	44.67
526.315	45.44
526.559	43.53
526.803	43.3
527.048	46.48
527.292	46.88
527.537	48.2
527.781	48.49
528.025	45.69
528.269	46.64
528.514	46.56
528.758	45.32
529.002	45.56
529.247	49.13
529.491	48.3
529.735	52.74
529.979	52.94
530.223	54.74
530.467	51.45
530.712	49.28
530.956	46.89
531.2	47.59
531.444	43.85
531.688	45.6
531.932	44.22
532.176	45.77
532.42	48.09
532.664	50.26
532.908	49.16
533.152	47.74
533.396	46.49
533.64	45.58
533.884	43.2
534.128	43.58
534.371	44.49
534.615	44.71
534.859	44.36
535.103	43.21
535.347	42.74
535.59	45.95
535.834	42.25
536.078	43.7
536.322	46.1
536.565	49.62
536.809	47.37
537.053	49.9
537.296	47.86
537.54	47.09
537.784	46.75
538.027	49.52
538.271	49.24
538.514	47.38
538.758	47.04
539.001	46.49
539.245	46.45
539.488	47.59
539.732	49.42
539.975	49.46
540.219	51.11
540.462	51.45
540.706	53.16
540.949	52.33
541.192	52.6
541.436	57.76
541.679	62.58
541.922	62.88
542.166	58.57
542.409	58.52
542.652	59.08
542.895	58.2
543.139	58.05
543.382	61.87
543.625	62.21
543.868	61.77
544.111	59.82
544.354	58.94
544.598	57.21
544.841	57.65
545.084	56.09
545.327	55.29
545.57	55.75
545.813	57.81
546.056	58.76
546.299	59.06
546.542	61.44
546.785	64.17
547.028	65.67
547.271	65.47
547.514	63.92
547.756	61.66
547.999	63.14
548.242	65.67
548.485	64.36
548.728	65.1
548.971	61.96
549.213	61.66
549.456	60.82
549.699	62.81
549.942	63.19
550.184	63.12
550.427	63.77
550.67	62.82
550.912	58.36
551.155	58.39
551.398	58.44
551.64	57.45
551.883	57.9
552.125	57.03
552.368	56.82
552.61	55.85
552.853	58.11
553.095	56.79
553.338	56.06
553.58	56.72
553.823	55.91
554.065	58.1
554.308	52.39
554.55	48.83
554.792	45.4
555.035	45.82
555.277	44.45
555.519	43.82
555.762	40.11
556.004	40.66
556.246	37.45
556.488	38.61
556.731	34.7
556.973	36.22
557.215	35.5
557.457	35.84
557.699	37.81
557.941	36.7
558.183	36.53
558.426	40.2
558.668	37.88
558.91	38.35
559.152	39.92
559.394	39.32
559.636	41.77
559.878	43.77
560.12	42.99
560.362	44.1
560.604	45.23
560.845	45.36
561.087	45.19
561.329	47.35
561.571	44.96
561.813	47.35
562.055	49.88
562.297	51.31
562.538	52.9
562.78	56.01
563.022	53.59
563.264	55.31
563.505	56.77
563.747	57.96
563.989	54.91
564.23	55.91
564.472	54.03
564.714	57.15
564.955	59.09
565.197	55.92
565.438	58.11
565.68	62.62
565.921	59.96
566.163	61.35
566.404	61.04
566.646	62.03
566.887	64.86
567.129	65.96
567.37	64.55
567.612	66.96
567.853	64.16
568.094	65.36
568.336	65.43
568.577	67.45
568.818	68.22
569.06	66.78
569.301	64.62
569.542	64.11
569.783	66.09
570.025	64.81
570.266	64.85
570.507	66.59
570.748	66.59
570.989	67.66
571.23	70.62
571.472	70.83
571.713	70.25
571.954	72.02
572.195	69.99
572.436	70.79
572.677	73.83
572.918	74.41
573.159	71.39
573.4	69.42
573.641	68.83
573.882	69.03
574.123	67.63
574.364	61.75
574.604	61.85
574.845	59.8
575.086	59.82
575.327	61.34
575.568	60.23
575.809	59.74
576.049	58.69
576.29	55.93
576.531	61.03
576.771	63.71
577.012	66.07
577.253	65.94
577.494	67.94
577.734	68.74
577.975	70.72
578.215	70.27
578.456	67.9
578.697	66.98
578.937	69.8
579.178	69.61
579.418	68.25
579.659	67.57
579.899	64.89
580.14	63.23
580.38	61.69
580.62	61.68
580.861	67.32
581.101	67.86
581.342	66.53
581.582	62.69
581.822	66.24
582.063	65.63
582.303	68.16
582.543	68.8
582.783	69.85
583.024	72.05
583.264	74.25
583.504	71.94
583.744	74.66
583.984	70.88
584.224	71.61
584.465	69.49
584.705	69.95
584.945	69.42
585.185	68.47
585.425	67.69
585.665	67.84
585.905	67.98
586.145	67.55
586.385	66.05
586.625	69.46
586.865	69.5
587.105	70.25
587.345	70.94
587.585	71.53
587.824	70.9
588.064	70.57
588.304	67.23
588.544	67.51
588.784	67.13
589.024	69.75
589.263	69.04
589.503	67.56
589.743	70.64
589.982	69.86
590.222	68.77
590.462	65.94
590.701	64.16
590.941	67.79
591.181	65.98
591.42	66.37
591.66	69.21
591.899	71.93
592.139	70.42
592.378	70.7
592.618	69.87
592.857	69.54
593.097	69.24
593.336	69.37
593.576	70.99
593.815	72.96
594.055	72.1
594.294	73.21
594.533	73.12
594.773	73.19
595.012	74.37
595.251	75.29
595.491	78.33
595.73	80.82
595.969	81.94
596.208	82.79
596.447	86.89
596.687	87.83
596.926	89.25
597.165	84.11
597.404	85.9
597.643	84.71
597.882	83.89
598.121	84.75
598.36	84.96
598.599	87.44
598.838	88.07
599.077	84.15
599.316	84.35
599.555	83.82
599.794	84
600.033	85
600.272	87.5
600.511	86.81
600.75	88.22
600.989	88.73
601.228	87.19
601.466	87.15
601.705	87.89
601.944	87.78
602.183	89.47
602.422	89.58
602.66	88.41
602.899	87.07
603.138	87.33
603.376	86.54
603.615	88.98
603.854	88.46
604.092	88.75
604.331	88.84
604.569	90.94
604.808	91.45
605.047	93.77
605.285	94.83
605.524	95.24
605.762	93.3
606	92.59
606.239	92.05
606.477	92.99
606.716	89.94
606.954	90.22
607.193	88.5
607.431	85.01
607.669	82.61
607.908	82.3
608.146	83.57
608.384	82.72
608.622	82.73
608.861	82.02
609.099	81.01
609.337	79.18
609.575	78.59
609.813	79.8
610.052	80.04
610.29	75.46
610.528	72.85
610.766	72.04
611.004	70.23
611.242	67.98
611.48	68.27
611.718	66.85
611.956	67.37
612.194	65.32
612.432	64.52
612.67	62.82
612.908	64.48
613.146	63.3
613.384	63.4
613.621	62.69
613.859	63.21
614.097	63.17
614.335	63.4
614.573	64.7
614.811	66.95
615.048	67.04
615.286	67.55
615.524	66.05
615.761	62.4
615.999	63.31
616.237	62.73
616.474	64.52
616.712	66.57
616.95	65.57
617.187	63.36
617.425	64.44
617.662	67.23
617.9	65.38
618.137	63.52
618.375	62.48
618.612	60.12
618.85	61
619.087	62.87
619.325	60.9
619.562	60.16
619.799	58.16
620.037	58.07
620.274	56.62
620.511	57.82
620.749	54.81
620.986	53.7
621.223	50.86
621.461	50.05
621.698	51.45
621.935	49.76
622.172	49.26
622.409	50.17
622.647	50.81
622.884	48.51
623.121	50.9
623.358	48.37
623.595	48.81
623.832	48.4
624.069	47.78
624.306	48.41
624.543	50.12
624.78	52.03
625.017	50.51
625.254	53.59
625.491	55.91
625.728	58.36
625.965	60.15
626.202	57.28
626.438	54.57
626.675	54.89
626.912	56.63
627.149	58.17
627.386	58.05
627.622	56.61
627.859	56.3
628.096	58.11
628.333	59.2
628.569	61.11
628.806	62.65
629.043	62.13
629.279	64.77
629.516	66.37
629.752	63.21
629.989	63.47
630.225	62.82
630.462	62.65
630.699	63.56
630.935	61.98
631.171	59.68
631.408	59.78
631.644	58.08
631.881	55.84
632.117	51.74
632.354	53.97
632.59	51.77
632.826	51.3
633.063	49.89
633.299	50.15
633.535	49.32
633.771	50.18
634.008	52.15
634.244	50.66
634.48	48.12
634.716	50.05
634.953	49.28
635.189	49.35
635.425	50.26
635.661	51.61
635.897	49.11
636.133	48.79
636.369	48.28
636.605	43.38
636.841	42.26
637.077	44.23
637.313	44.15
637.549	44.73
637.785	43.54
638.021	43.51
638.257	43.42
638.493	44.39
638.729	42.47
638.965	45.89
639.2	46.97
639.436	47.07
639.672	45.8
639.908	44.51
640.144	48.7
640.379	50.71
640.615	49.62
640.851	52.57
641.086	53.6
641.322	51.53
641.558	52.1
641.793	53.16
642.029	50.5
642.264	49.31
642.5	48.99
642.736	44.83
642.971	45.63
643.207	43.71
643.442	41.35
643.678	40.93
643.913	42.21
644.148	42.33
644.384	44.47
644.619	44.64
644.855	46.19
645.09	48.06
645.325	47.86
645.561	48.36
645.796	46.45
646.031	48.86
646.266	45.95
646.502	44.89
646.737	45.94
646.972	46.79
647.207	46.99
647.442	43.99
647.678	41.64
647.913	43.3
648.148	43.3
648.383	42.74
648.618	41.55
648.853	42
649.088	44.21
649.323	47.49
649.558	49.93
649.793	50.95
650.028	52.54
650.263	49.23
650.498	51.36
650.733	51.48
650.968	48.93
651.202	51.37
651.437	48.35
651.672	44.7
651.907	43.25
652.142	43.56
652.376	43.7
652.611	45.56
652.846	45.84
653.081	46.21
653.315	45.88
653.55	44.66
653.785	43.69
654.019	44.75
654.254	43.07
654.488	44.16
654.723	40.32
654.958	38.25
655.192	35.98
655.427	32.77
655.661	33.63
655.896	37.47
656.13	38.48
656.364	35.59
656.599	32.6
656.833	35.62
657.068	36.44
657.302	36.29
657.536	35.58
657.771	37.39
658.005	38.57
658.239	41.46
658.474	38.26
658.708	39.85
658.942	39.73
659.176	37.61
659.41	34.27
659.645	33.61
659.879	31.98
660.113	29.51
660.347	29.16
660.581	25.2
660.815	26.84
661.049	26.13
661.283	23.75
661.517	22.19
661.751	21.64
661.985	21.92
662.219	22.78
662.453	22.04
662.687	23.7
662.921	20.89
663.155	19.24
663.389	13.51
663.622	12.33
663.856	13.3
664.09	8.7
664.324	7.64
664.558	7.73
664.791	6.24
665.025	4.8
665.259	4.88
665.492	4.29
665.726	7.6
665.96	8.49
666.193	7.2
666.427	8.74
666.661	9.16
666.894	6.55
667.128	5.5
667.361	7.04
667.595	5.98
667.828	6.26
668.062	4.74
668.295	6.41
668.529	7.04
668.762	7.53
668.995	6.17
669.229	10.76
669.462	11.7
669.695	11.95
669.929	9.87
670.162	10.31
670.395	8.2
670.629	10.57
670.862	12.76
671.095	8.98
671.328	9.59
671.561	6.03
671.795	7.12
672.028	9.77
672.261	10.73
672.494	12.21
672.727	10.27
672.96	11.42
673.193	9.18
673.426	13.49
673.659	13.93
673.892	14.74
674.125	14.97
674.358	14.9
674.591	14.43
674.824	14.84
675.057	15.61
675.29	15.45
675.523	15.89
675.755	15.69
675.988	17.22
676.221	20.43
676.454	16.47
676.687	16.95
676.919	16.82
677.152	17.65
677.385	17.35
677.617	18.17
677.85	17.84
678.083	16.15
678.315	19.6
678.548	18.68
678.78	18.42
679.013	18.21
679.246	17.39
679.478	17.31
679.711	14.77
679.943	16.79
680.175	12.06
680.408	16.45
680.64	12.48
680.873	13.21
681.105	13.39
681.338	16.81
681.57	16.94
681.802	18.06
682.034	17.89
682.267	20.97
682.499	23.19
682.731	19.55
682.964	19.62
683.196	16.5
683.428	14.17
683.66	14.11
683.892	16.49
684.124	18.43
684.356	20.62
684.589	19.96
684.821	18.06
685.053	18.57
685.285	19.03
685.517	21.11
685.749	21.92
685.981	24.73
686.213	25.18
686.445	26.52
686.676	25.14
686.908	26.2
687.14	25.03
687.372	27.66
687.604	23.37
687.836	24.82
688.068	25.04
688.299	25.11
688.531	22.61
688.763	25.99
688.995	23.87
689.226	26.11
689.458	23.19
689.69	21.49
689.921	20.99
690.153	19.86
690.384	22.04
690.616	22.3
690.848	23.74
691.079	19.75
691.311	17.36
691.542	15.06
691.774	13.12
692.005	16.59
692.237	19.28
692.468	17.99
692.699	16.75
692.931	16.06
693.162	14.5
693.393	12.59
693.625	10.31
693.856	10.14
694.087	9.71
694.319	10.79
694.55	9.1
694.781	8.87
695.012	7.56
695.243	5.53
695.475	5.13
695.706	5.89
695.937	5.6
696.168	4.9
696.399	2.35
696.63	2.39
696.861	1.36
697.092	6.23
697.323	9.09
697.554	8.32
697.785	8.13
698.016	6.87
698.247	6.01
698.478	6.39
698.709	7.9
698.94	11.08
699.171	10.39
699.401	6.59
699.632	8.81
699.863	6.09
700.094	6.62
700.325	8.01
700.555	10.54
700.786	12.43
701.017	14.09
701.247	13.22
701.478	13.09
701.709	14.4
701.939	14.02
702.17	16.81
702.401	20.48
702.631	22.21
702.862	20.21
703.092	16.02
703.323	19.19
703.553	21.21
703.784	21.11
704.014	21.89
704.244	17.74
704.475	16.93
704.705	17.76
704.936	16.61
705.166	16.47
705.396	18.13
705.627	20.54
705.857	20.18
706.087	20.22
706.317	17.89
706.548	15.74
706.778	14.59
707.008	15.83
707.238	15.12
707.468	13.83
707.698	10.66
707.928	9.2
708.158	7.45
708.389	8.16
708.619	6.72
708.849	5.2
709.079	6.68
709.309	4.64
709.539	1.15
709.768	0.74
709.998	3.17
710.228	3.32
710.458	0.92
710.688	-1.07
710.918	-0.56
711.148	-1.18
711.378	0.14
711.607	-0.63
711.837	1.59
712.067	1.63
712.297	1.24
712.526	0.83
712.756	0.85
712.986	-2.02
713.215	-3.53
713.445	-2.54
713.674	-0.01
713.904	-0.26
714.134	1.42
714.363	1.52
714.593	0.37
714.822	-0.66
715.052	-0.56
715.281	1.02
715.511	-0.74
715.74	-0.3
715.969	-1.32
716.199	-2.76
716.428	-2.81
716.657	-3.01
716.887	-1.7
717.116	-4.45
717.345	-2.23
717.575	-0.44
717.804	-0.57
718.033	-2.12
718.262	-3.15
718.492	-2.94
718.721	-3.19
718.95	-5.37
719.179	-5.63
719.408	-4.67
719.637	-7.07
719.866	-10.09
720.095	-8.23
720.324	-9.95
720.553	-13.52
720.782	-15.01
721.011	-15.03
721.24	-17.31
721.469	-17.85
721.698	-16.73
721.927	-15.49
722.156	-16.55
722.385	-17.79
722.613	-14.59
722.842	-15.28
723.071	-12.11
723.3	-11.02
723.529	-11.05
723.757	-10.59
723.986	-14.68
724.215	-15.52
724.443	-15.28
724.672	-13.64
724.901	-12.13
725.129	-9.29
725.358	-5.85
725.586	-8.9
725.815	-8.76
726.043	-9.74
726.272	-10.28
726.5	-10.98
726.729	-9.91
726.957	-11.28
727.186	-12.86
727.414	-10.84
727.642	-9.35
727.871	-6.63
728.099	-7.31
728.327	-8.35
728.556	-6.99
728.784	-6.62
729.012	-7.46
729.241	-4.37
729.469	-4.28
729.697	-7.42
729.925	-5.99
730.153	-7.71
730.381	-7.09
730.61	-7.2
730.838	-9.27
731.066	-7.33
731.294	-6.04
731.522	-9.07
731.75	-13.31
731.978	-13.69
732.206	-16.22
732.434	-16.9
732.662	-13.71
732.89	-15.78
733.118	-14.89
733.346	-15.42
733.573	-14.43
733.801	-13.15
734.029	-6.81
734.257	-6.77
734.485	-2.78
734.712	-0.11
734.94	-3.58
735.168	0.2
735.396	2.64
735.623	0.76
735.851	2.2
736.078	3.27
736.306	2.39
736.534	2.81
736.761	4.95
736.989	2.06
737.216	1.7
737.444	-0.19
737.671	0.64
737.899	4.79
738.126	4.17
738.354	3.98
738.581	6.24
738.809	7.57
739.036	4.02
739.263	5.56
739.491	2.01
739.718	0.55
739.945	7
740.173	8.03
740.4	9.16
740.627	7.49
740.854	7.23
741.081	4.78
741.309	3.62
741.536	-0.72
741.763	-1.69
741.99	1.17
742.217	0.48
742.444	0
742.671	1.29
742.898	0.99
743.125	-1.03
743.352	-3.11
743.579	-4.39
743.806	-5.14
744.033	-2.08
744.26	-1.06
744.487	-1.49
744.714	-1.61
744.941	-2.47
745.167	0.84
745.394	0.33
745.621	-0.27
745.848	-0.65
746.075	4.2
746.301	7.47
746.528	12.3
746.755	10.68
746.981	8
747.208	8.38
747.435	9.42
747.661	10.9
747.888	11.92
748.114	8.21
748.341	11.42
748.567	12.46
748.794	10.35
749.02	8.27
749.247	5.32
749.473	4.22
749.7	4.13
749.926	3.09
750.152	6.52
750.379	7.49
750.605	7.89
750.831	7.79
751.058	7.4
751.284	6.16
751.51	9.36
751.737	10.92
751.963	9.72
752.189	8.27
752.415	8.22
752.641	7.34
752.867	8.27
753.094	5.36
753.32	3.01
753.546	1.36
753.772	4.13
753.998	2.72
754.224	2.03
754.45	2.41
754.676	1.81
754.902	1.26
755.128	3.68
755.354	2.5
755.579	3.4
755.805	5.86
756.031	5.48
756.257	5.45
756.483	4.99
756.709	3.77
756.934	3.93
757.16	1.77
757.386	1.03
757.612	-1.32
757.837	-2.89
758.063	-1.43
758.289	0.21
758.514	-2.45
758.74	-7.1
758.965	-8.96
759.191	-7.45
759.416	-6.13
759.642	-3.75
759.868	-4.41
760.093	-1.74
760.318	-2.2
760.544	-1.48
760.769	-3.09
760.995	-3.56
761.22	-4.26
761.445	-3.2
761.671	-2.04
761.896	-0.83
762.121	-0.84
762.347	-1.49
762.572	-2.76
762.797	-4.16
763.022	-3.35
763.248	0.17
763.473	0.87
763.698	0.72
763.923	0.86
764.148	1.43
764.373	1.23
764.598	2.92
764.823	5.54
765.048	2.74
765.273	0.51
765.498	0.06
765.723	1.51
765.948	3.1
766.173	1.18
766.398	1.47
766.623	-1.78
766.848	-1.48
767.073	-3.71
767.298	-3.92
767.522	-4.68
767.747	-2.97
767.972	-2.3
768.197	-0.6
768.421	-2.72
768.646	-4.62
768.871	-8.22
769.095	-8.61
769.32	-6.66
769.545	-7.58
769.769	-4.44
769.994	-3.16
770.218	-6.32
770.443	-5
770.667	-3.24
770.892	-1.91
771.116	-2.5
771.341	0.38
771.565	0.64
771.79	-0.37
772.014	-1.06
772.238	-2.02
772.463	0.78
772.687	1.49
772.911	1.15
773.136	-0.6
773.36	0.12
773.584	2.48
773.808	-0.11
774.033	0.77
774.257	-0.15
774.481	-1.18
774.705	-1.33
774.929	-2.38
775.153	-3.18
775.377	-2.25
775.602	-2.45
775.826	0.71
776.05	3.27
776.274	2.24
776.498	2.87
776.722	2.15
776.945	2.07
777.169	2.23
777.393	0.25
777.617	-1.05
777.841	-1.63
778.065	-1.26
778.289	-3.51
778.512	-4.57
778.736	-3.36
778.96	-4
779.184	-2.11
779.407	-3.22
779.631	-3.35
779.855	-4.13
780.078	-3.37
780.302	-5.23
780.526	-8.07
780.749	-6.66
780.973	-5.04
781.196	-3.76
781.42	-5.91
781.643	-6.05
781.867	-5.08
782.09	-7.35
782.314	-6.85
782.537	-7.06
782.76	-9.04
782.984	-8.62
783.207	-9.98
783.431	-8.82
783.654	-12.23
783.877	-13.92
784.1	-14.33
784.324	-14.3
784.547	-15.97
784.77	-19.05
784.993	-19.17
785.216	-20.33
785.44	-19.49
785.663	-21.62
785.886	-17.36
786.109	-17.11
786.332	-17.17
786.555	-16.03
786.778	-14.3
787.001	-13.56
787.224	-11.46
787.447	-9.87
787.67	-9.53
787.893	-11.06
788.116	-10.52
788.339	-9.15
788.561	-11.21
788.784	-13.86
789.007	-13.99
789.23	-14.51
789.453	-13.31
789.675	-14.72
789.898	-18.11
790.121	-19.15
790.344	-19.36
790.566	-16.33
790.789	-15.59
791.012	-14.21
791.234	-9.87
791.457	-5.36
791.679	-3.72
791.902	-4.26
792.124	-2.94
792.347	-3.79
792.569	-3.46
792.792	-7.5
793.014	-5.1
793.237	-3.98
793.459	-4.04
793.681	-4.24
793.904	-5.7
794.126	-7.26
794.348	-7.28
794.571	-5.83
794.793	-6.92
795.015	-7.12
795.237	-7.1
795.46	-4.47
795.682	-4.9
795.904	-3.29
796.126	-6.5
796.348	-7.51
796.57	-4.04
796.792	-2.24
797.014	1.81
797.237	3.99
797.459	4.36
797.681	4.81
797.903	2.45
798.124	0.84
798.346	11.36
798.568	12.02
798.79	15.82
799.012	16.19
799.234	17.12
799.456	18.49
799.678	21.52
799.899	18.67
800.121	15.93
800.343	15.13
800.565	14.9
800.786	15.67
801.008	16.3
801.23	16.15
801.451	16.91
801.673	16.06
801.895	16.32
802.116	18.16
802.338	18.82
802.559	20.4
802.781	18.83
803.002	22.44
803.224	23.05
803.445	21.52
803.667	22.27
803.888	20.04
804.109	18.21
804.331	17.02
804.552	16.51
804.773	19.61
804.995	16.52
805.216	2.71
805.437	1.21
805.658	-1.5
805.88	-2.72
806.101	-2.44
806.322	-3.88
806.543	-6.14
806.764	-7.32
806.985	-5.64
807.207	-6.24
807.428	-6.34
807.649	-8.74
807.87	-9.95
808.091	-9.46
808.312	-9.39
808.533	-3.92
808.754	-2.92
808.975	-5.01
809.195	-3.5
809.416	-2.6
809.637	-2.17
809.858	-4.39
810.079	-5.7
810.3	-4.39
810.52	-5.23
810.741	-6.33
810.962	-8.74
811.183	-8.32
811.403	-7.33
811.624	-8.58
811.845	-5.99
812.065	-4.17
812.286	-2.98
812.506	-3.07
812.727	-2.76
812.948	-0.6
813.168	2.19
813.389	2.21
813.609	3.01
813.83	2.16
814.05	1.55
814.27	2.15
814.491	6.31
814.711	5.82
814.931	3.22
815.152	2.88
815.372	0.04
815.592	-1.22
815.813	-2.09
816.033	-3.83
816.253	-2.44
816.473	-2.85
816.694	-1.85
816.914	0.87
817.134	-0.71
817.354	-2.24
817.574	-1.77
817.794	-0.8
818.014	-2.23
818.234	-2.86
818.454	-3.7
818.674	-6.47
818.894	-8.39
819.114	-6.58
819.334	-5.9
819.554	-3.56
819.774	-3.1
819.994	-6.59
820.214	-8.02
820.433	-7.85
820.653	-7.27
820.873	-4.54
821.093	-4.34
821.312	-6.84
821.532	-4.92
821.752	-1.77
821.972	-4.74
822.191	-3.93
822.411	-5.88
822.63	-4.82
822.85	-5.8
823.07	-9.39
823.289	-9.21
823.509	-10.39
823.728	-8.52
823.948	-9.4
824.167	-9.75
824.387	-10.35
824.606	-8.89
824.825	-10.24
825.045	-9.57
825.264	-9.03
825.483	-6.15
825.703	-4.92
825.922	-7.08
826.141	-9.41
826.361	-10.87
826.58	-14.83
826.799	-14.84
827.018	-13
827.237	-12.23
827.456	-11.75
827.676	-11.34
827.895	-11.47
828.114	-10.72
828.333	-9.88
828.552	-10.58
828.771	-7.86
828.99	-9.65
829.209	-8.01
829.428	-6
829.647	-5.73
829.866	-4.33
830.084	-4.64
830.303	-4.53
830.522	-7.25
830.741	-5.68
830.96	-6.11
831.179	-5.25
831.397	-5.82
831.616	-4.18
831.835	-5.29
832.053	-6.63
832.272	-7.57
832.491	-6.85
832.709	-7.43
832.928	-6.32
833.147	-4.92
833.365	-3.24
833.584	-0.39
833.802	1.24
834.021	0.76
834.239	2.15
834.458	1.09
834.676	-1.59
834.894	-1.73
835.113	-3.66
835.331	-4.02
835.55	-4.57
835.768	-3.27
835.986	-2.47
836.204	-3.72
836.423	-3.35
836.641	-5
836.859	-6.05
837.077	-5.28
837.296	-4.73
837.514	-5.98
837.732	-5.4
837.95	-5.57
838.168	-4.75
838.386	-6.35
838.604	-2.8
838.822	-0.72
839.04	-1.64
839.258	-1.82
839.476	-0.02
839.694	0.29
839.912	-2.26
840.13	-3.13
840.348	-0.57
840.566	-3.83
840.783	-2.43
841.001	-4.87
841.219	-4.13
841.437	-2.45
841.655	-0.74
841.872	-0.57
842.09	-1.24
842.308	-0.09
842.525	-0.51
842.743	-0.14
842.961	-1.14
843.178	-2.8
843.396	1.87
843.613	4.05
843.831	6.58
844.048	5.29
844.266	5.86
844.483	5.86
844.701	4.18
844.918	4.7
845.136	5.57
845.353	2.44
845.57	2.54
845.788	5.64
846.005	2.9
846.222	1.16
846.439	3
846.657	3.42
846.874	4
847.091	0.34
847.308	3.06
847.526	1.06
847.743	1.76
847.96	0.26
848.177	0.5
848.394	-1.14
848.611	-1.25
848.828	-1.31
849.045	-2.64
849.262	-2.16
849.479	-1.78
849.696	-2.29
849.913	-3.84
850.13	-7.92
850.347	-5.46
850.564	-7.15
850.78	-8.31
850.997	-10.93
851.214	-11.1
851.431	-8.89
851.647	-11.28
851.864	-11.62
852.081	-10.47
852.298	-13.51
852.514	-15.49
852.731	-13.02
852.948	-11.25
853.164	-10.5
853.381	-10.22
853.597	-10.88
853.814	-11.77
854.03	-14.39
854.247	-11.08
854.463	-10.8
854.68	-12.18
854.896	-11.97
855.113	-11.11
855.329	-11.11
855.545	-8.38
855.762	-9.26
855.978	-13.06
856.194	-15.37
856.411	-12.7
856.627	-10.09
856.843	-9.66
857.059	-7.79
857.275	-8.71
857.492	-7.18
857.708	-3.24
857.924	-2.02
858.14	-0.84
858.356	-2.41
858.572	-1
858.788	-2.01
859.004	-0.61
859.22	-2.03
859.436	-0.69
859.652	-1.56
859.868	-3.67
860.084	-2.66
860.3	-2.38
860.516	-2.5
860.731	-2.16
860.947	-5.16
861.163	-3.41
861.379	-1.77
861.595	-0.78
861.81	-0.38
862.026	0.82
862.242	-0.17
862.457	0.23
862.673	3.09
862.889	3.24
863.104	3.19
863.32	3.51
863.535	4
863.751	-1.95
863.966	0.6
864.182	1.96
864.397	0.52
864.613	-0.73
864.828	-2.15
865.044	0.26
865.259	2.02
865.474	1.43
865.69	2.48
865.905	2.87
866.12	0.46
866.336	-0.91
866.551	-0.52
866.766	-2.59
866.981	-3.21
867.196	-2.98
867.412	-2.38
867.627	-2.38
867.842	-3.84
868.057	-4.6
868.272	-4.74
868.487	-5.12
868.702	-7.5
868.917	-7.1
869.132	-5.96
869.347	-6.24
869.562	-7.25
869.777	-7.61
869.992	-9.29
870.207	-9.34
870.422	-8.66
870.636	-10.8
870.851	-13.28
871.066	-14.86
871.281	-14.56
871.495	-15.96
871.71	-14.78
871.925	-17.42
872.14	-17.58
872.354	-19.13
872.569	-18.57
872.783	-16.79
872.998	-15.54
873.213	-15.01
873.427	-12.06
873.642	-11.98
873.856	-13.32
874.071	-13.97
874.285	-14.06
874.5	-16.58
874.714	-16.98
874.928	-18.45
875.143	-19.67
875.357	-19.75
875.571	-21.15
875.786	-20.72
876	-17.9
876.214	-15.46
876.429	-18.4
876.643	-17.09
876.857	-15.26
877.071	-13.96
877.285	-15.9
877.499	-18.35
877.714	-15.17
877.928	-14.17
878.142	-14.68
878.356	-16.21
878.57	-16.66
878.784	-15.85
878.998	-16.54
879.212	-14.14
879.426	-16.88
879.639	-16.95
879.853	-19.02
880.067	-20.08
880.281	-19.67
880.495	-16.41
880.709	-13.42
880.922	-13.63
881.136	-11.14
881.35	-8.76
881.564	-10.2
881.777	-11.39
881.991	-9.69
882.205	-8.83
882.418	-8.4
882.632	-9.87
882.845	-11.15
883.059	-9.3
883.273	-9.41
883.486	-11.19
883.7	-9.44
883.913	-9.24
884.126	-6.55
884.34	-9.79
884.553	-12.02
884.767	-8.63
884.98	-8.97
885.193	-9.46
885.407	-11.05
885.62	-9.34
885.833	-10.47
886.046	-8.97
886.26	-9.38
886.473	-8.62
886.686	-8.93
886.899	-7.75
887.112	-9.61
887.326	-12.26
887.539	-10.98
887.752	-9.72
887.965	-12.25
888.178	-9.44
888.391	-9.42
888.604	-8.95
888.817	-10.31
889.03	-10.03
889.243	-11.92
889.455	-13.85
889.668	-13.49
889.881	-11.21
890.094	-12.15
890.307	-15.03
890.52	-12.44
890.732	-12.01
890.945	-12.45
891.158	-12.33
891.37	-14.42
891.583	-14.07
891.796	-11.76
892.008	-11.22
892.221	-11.47
892.434	-15.35
892.646	-15.24
892.859	-16.36
893.071	-15.38
893.284	-13.17
893.496	-14.17
893.709	-13.08
893.921	-12
894.133	-12.44
894.346	-14
894.558	-14.92
894.771	-15.7
894.983	-13.73
895.195	-13.56
895.407	-12.1
895.62	-15.29
895.832	-14.52
896.044	-11.55
896.256	-13
896.468	-15.07
896.681	-14.6
896.893	-14
897.105	-14.94
897.317	-16.16
897.529	-13.78
897.741	-12.45
897.953	-10.24
898.165	-11.55
898.377	-14.3
898.589	-12.95
898.801	-13.7
899.013	-11.15
899.224	-7.64
899.436	-4.88
899.648	-6.02
899.86	-7.98
900.072	-4.41
900.283	-4.41
900.495	-3.63
900.707	-3.7
900.919	-6.39
901.13	-4.93
901.342	-6.67
901.554	-7.75
901.765	-7.93
901.977	-10.02
902.188	-10.43
902.4	-12.44
902.611	-14.34
902.823	-15.08
903.034	-17.73
903.246	-17.99
903.457	-18.14
903.669	-18.64
903.88	-18.65
904.091	-19.17
904.303	-19.09
904.514	-21.27
904.725	-19.75
904.936	-17.62
905.148	-17.07
905.359	-14.38
905.57	-13.86
905.781	-17.3
905.992	-18.09
906.204	-16.76
906.415	-17.5
906.626	-20.34
906.837	-17.52
907.048	-18.45
907.259	-18.44
907.47	-18.56
907.681	-19.42
907.892	-16.42
908.103	-17.43
908.314	-19.81
908.525	-17.84
908.735	-15.42
908.946	-14.48
909.157	-14.4
909.368	-12.61
909.579	-9.36
909.789	-10.53
910	-12.02
910.211	-11.03
910.421	-11.47
910.632	-10.04
910.843	-11.46
911.053	-8.19
911.264	-5.6
911.475	-6.19
911.685	-6.04
911.896	-6.04
912.106	-6.33
912.317	-8.19
912.527	-6.2
912.737	-7.67
912.948	-6.51
913.158	-6.32
913.369	-9.64
913.579	-8.31
913.789	-8.1
914	-4.57
914.21	-3.89
914.42	-3.98
914.63	-3.44
914.841	-3.47
915.051	-2.34
915.261	-3.56
915.471	-1.24
915.681	-0.79
915.891	-1.37
916.101	-3.3
916.311	-2.73
916.521	-1.59
916.731	-0.12
916.941	3.1
917.151	0.61
917.361	3.49
917.571	-0.95
917.781	-2.93
917.991	-5.79
918.201	-6.03
918.411	-9.76
918.621	-9.41
918.83	-8.2
919.04	-11.06
919.25	-8.46
919.46	-7.32
919.669	-10.3
919.879	-10.53
920.089	-11.44
920.298	-13.58
920.508	-13.8
920.717	-12.31
920.927	-13.8
921.136	-13.23
921.346	-13.22
921.555	-16.36
921.765	-16.39
921.974	-20.06
922.184	-22.94
922.393	-22.25
922.603	-23.08
922.812	-21.07
923.021	-20.48
923.23	-22.31
923.44	-25.34
923.649	-24.76
923.858	-25.57
924.067	-24.62
924.277	-26.01
924.486	-21.87
924.695	-24.14
924.904	-21.7
925.113	-21.66
925.322	-20.62
925.531	-19.94
925.74	-22.92
925.949	-23.52
926.158	-21.34
926.367	-21.57
926.576	-20.54
926.785	-19.93
926.994	-22.58
927.203	-22.64
927.412	-23.16
927.621	-23.47
927.83	-20.45
928.038	-19.83
928.247	-19.26
928.456	-17.01
928.665	-15.56
928.873	-15.36
929.082	-13.06
929.291	-12.58
929.499	-11.84
929.708	-13.66
929.916	-11.82
930.125	-12.29
930.333	-13.63
930.542	-10.81
930.75	-9.38
930.959	-10.15
931.167	-9.15
931.376	-10.41
931.584	-9.62
931.793	-8.65
932.001	-8.65
932.209	-9.06
932.418	-11.39
932.626	-12.1
932.834	-13.46
933.042	-16.85
933.251	-17.21
933.459	-14.29
933.667	-15.51
933.875	-15.95
934.083	-15.58
934.291	-16.44
934.499	-14.94
934.707	-14.7
934.915	-15.15
935.123	-12.18
935.331	-12.53
935.539	-13.98
935.747	-15.15
935.955	-16.57
936.163	-16.63
936.371	-17.69
936.579	-15.46
936.787	-15.34
936.995	-16.88
937.202	-18.59
937.41	-18.34
937.618	-18.95
937.826	-17.84
938.033	-21.66
938.241	-24.47
938.449	-22.82
938.656	-21.92
938.864	-20.7
939.071	-20.51
939.279	-17.34
939.486	-13.87
939.694	-13.48
939.901	-16.95
940.109	-15.15
940.316	-14.68
940.524	-15.12
940.731	-16.47
940.939	-15.87
941.146	-17.13
941.353	-17.94
941.561	-18.64
941.768	-18.69
941.975	-16.75
942.182	-17.59
942.39	-16.47
942.597	-11.79
942.804	-11.63
943.011	-13.46
943.218	-12.57
943.425	-12.79
943.632	-10.65
943.839	-12.07
944.046	-12.31
944.253	-12.57
944.46	-12.2
944.667	-8.45
944.874	-9.66
945.081	-8.2
945.288	-7.79
945.495	-5.3
945.702	-6
945.909	-9.41
946.115	-8
946.322	-8.17
946.529	-11.46
946.736	-11.55
946.942	-9.48
947.149	-8.97
947.356	-10.19
947.562	-10.79
947.769	-10.6
947.976	-12.48
948.182	-11.2
948.389	-12.6
948.595	-12.41
948.802	-12.48
949.008	-15.63
949.215	-13.95
949.421	-13.45
949.628	-14.91
949.834	-15.02
950.04	-17.54
950.247	-13.55
950.453	-12.16
950.659	-13.55
950.865	-12.34
951.072	-16.05
951.278	-14.93
951.484	-15.9
951.69	-19.64
951.896	-22.1
952.103	-23.64
952.309	-20.34
952.515	-20.66
952.721	-18.78
952.927	-16.73
953.133	-18.08
953.339	-19.92
953.545	-20.23
953.751	-20.34
953.957	-17.87
954.163	-20.14
954.369	-19.65
954.574	-22.22
954.78	-23.39
954.986	-20.92
955.192	-18.74
955.398	-19.29
955.603	-22.04
955.809	-20.61
956.015	-18.95
956.22	-18.93
956.426	-17.42
956.632	-20.86
956.837	-21.43
957.043	-20.54
957.248	-19.07
957.454	-18.13
957.66	-19.05
957.865	-19.08
958.07	-17.09
958.276	-18.37
958.481	-18.99
958.687	-21.52
958.892	-22.64
959.097	-21.83
959.303	-22.08
959.508	-21.2
959.713	-20.46
959.919	-20.98
960.124	-21.44
960.329	-21.93
960.534	-18.12
960.739	-17.95
960.945	-14.95
961.15	-14.08
961.355	-16.12
961.56	-19.89
961.765	-21.31
961.97	-20.28
962.175	-18.82
962.38	-21.84
962.585	-21.47
962.79	-22.67
962.995	-22.74
963.2	-23.43
963.404	-23.45
963.609	-25.49
963.814	-27.15
964.019	-30.24
964.224	-32.93
964.428	-30.69
964.633	-27.91
964.838	-26.38
965.042	-26.87
965.247	-28.44
965.452	-29.7
965.656	-27.75
965.861	-27.65
966.066	-28.4
966.27	-25.78
966.475	-21.49
966.679	-25.25
966.884	-25.28
967.088	-26.78
967.292	-28.08
967.497	-26.69
967.701	-27.41
967.906	-26.17
968.11	-22.57
968.314	-19.58
968.518	-21.9
968.723	-19.64
968.927	-18.65
969.131	-16.67
969.335	-14.13
969.539	-14.52
969.744	-12.72
969.948	-10.44
970.152	-8.62
970.356	-6.33
970.56	-5.91
970.764	-6.74
970.968	-5.68
971.172	-5.54
971.376	-3.91
971.58	-1.86
971.784	-0.18
971.988	-2.51
972.192	1.02
972.395	-0.39
972.599	-3.75
972.803	-6.63
973.007	-3.85
973.21	-3.92
973.414	-2.58
973.618	-3.35
973.822	-4.01
974.025	-3.74
974.229	-5.17
974.432	-7.78
974.636	-10.11
974.84	-8.22
975.043	-7.87
975.247	-8.87
975.45	-11.04
975.654	-11.25
975.857	-9.39
976.06	-10.64
976.264	-12.53
976.467	-11.56
976.671	-12.25
976.874	-10.48
977.077	-12.78
977.28	-12.89
977.484	-15.02
977.687	-16.28
977.89	-14.27
978.093	-14.72
978.297	-13.23
978.5	-15.98
978.703	-14.58
978.906	-11.55
979.109	-12.07
979.312	-10
979.515	-9.93
979.718	-10.07
979.921	-9.78
980.124	-11.64
980.327	-12.8
980.53	-11.01
980.733	-8.76
980.936	-6.88
981.138	-8.75
981.341	-9.6
981.544	-8.78
981.747	-8.88
981.949	-11.77
982.152	-11.34
982.355	-12.46
982.558	-8.83
982.76	-12.16
982.963	-12.23
983.165	-12.42
983.368	-11.21
983.571	-13.17
983.773	-9.42
983.976	-8.47
984.178	-7.23
984.381	-7.41
984.583	-11.14
984.785	-11.06
984.988	-6.88
985.19	-6.24
985.392	-7.1
985.595	-11.21
985.797	-11.2
985.999	-9.57
986.202	-8.2
986.404	-8.5
986.606	-4.71
986.808	-7.95
987.01	-6.99
987.212	-7.92
987.415	-9.24
987.617	-7.77
987.819	-9.07
988.021	-8.11
988.223	-9.33
988.425	-10.45
988.627	-10.28
988.829	-15.68
989.031	-12.33
989.232	-13.2
989.434	-12.39
989.636	-11.28
989.838	-10.47
990.04	-10.12
990.242	-10.84
990.443	-14.07
990.645	-12.19
990.847	-7.78
991.048	-7.75
991.25	-11.42
991.452	-12.51
991.653	-13.88
991.855	-14.27
992.057	-15.21
992.258	-14.8
992.46	-15.29
992.661	-12.8
992.863	-15.25
993.064	-12.22
993.265	-13.83
993.467	-15.13
993.668	-11.99
993.87	-12.59
994.071	-13.13
994.272	-12.36
994.473	-9.59
994.675	-9.72
994.876	-7.67
995.077	-7.38
995.278	-7.01
995.48	-7
995.681	-7.55
995.882	-7.01
996.083	-8.46
996.284	-12.06
996.485	-11.86
996.686	-12.59
996.887	-14.37
997.088	-19.08
997.289	-20.72
997.49	-20.93
997.691	-21.28
997.892	-20.66
998.092	-14.93
998.293	-14.5
998.494	-15.64
998.695	-15.17
998.896	-14.49
999.096	-13.89
999.297	-13.47
999.498	-15.4
999.698	-17.43
999.899	-21.28
1000.1	-22.66
1000.3	-22.72
1000.501	-24.29
1000.701	-24.59
1000.902	-24.63
1001.102	-25.53
1001.303	-22.53
1001.503	-26.4
1001.704	-24.45
1001.904	-25
1002.105	-24.66
1002.305	-23.62
1002.505	-24.25
1002.706	-25.56
1002.906	-24.47
1003.106	-24.65
1003.306	-22.39
1003.507	-19.72
1003.707	-20.32
1003.907	-18.26
1004.107	-17.39
1004.307	-20.77
1004.507	-19.52
1004.707	-18.77
1004.907	-20.43
1005.107	-21.17
1005.308	-20.96
1005.507	-22.58
1005.707	-19.34
1005.907	-19.13
1006.107	-16.18
1006.307	-15.29
1006.507	-14.57
1006.707	-12.75
1006.907	-12.08
1007.106	-12.57
1007.306	-13.65
1007.506	-12.79
1007.706	-11.04
1007.905	-12.67
1008.105	-13.02
1008.305	-13.92
1008.504	-13.69
1008.704	-8.46
1008.903	-6.6
1009.103	-4.79
1009.303	-7.49
1009.502	-7.54
1009.702	-8.75
1009.901	-7.85
1010.1	-10.17
1010.3	-7.19
1010.499	-8.3
1010.699	-11.17
1010.898	-12.43
1011.097	-12.66
1011.296	-13.14
1011.496	-13.63
1011.695	-13.82
1011.894	-16.23
1012.093	-13.36
1012.293	-13.77
1012.492	-12.85
1012.691	-13.58
1012.89	-13.73
1013.089	-16.8
1013.288	-14.85
1013.487	-13.96
1013.686	-14.84
1013.885	-15.67
1014.084	-14.46
1014.283	-13.37
1014.482	-14.52
1014.681	-13.55
1014.88	-18.26
1015.078	-17.68
1015.277	-20.17
1015.476	-19.74
1015.675	-19.09
1015.873	-19.23
1016.072	-21.91
1016.271	-19.85
1016.47	-24.89
1016.668	-22.95
1016.867	-22.39
1017.065	-24.03
1017.264	-25.08
1017.463	-24.67
1017.661	-24.16
1017.86	-24.01
1018.058	-22.68
1018.256	-23.89
1018.455	-24.68
1018.653	-23.46
1018.852	-22.52
1019.05	-25.11
1019.248	-24.8
1019.447	-26.87
1019.645	-26.85
1019.843	-28.9
1020.041	-27.39
1020.24	-28.18
1020.438	-24.32
1020.636	-24.85
1020.834	-27.81
1021.032	-24.46
1021.23	-25.73
1021.428	-25.27
1021.626	-20.93
1021.824	-20.97
1022.022	-20.95
1022.22	-17.91
1022.418	-17.17
1022.616	-16.29
1022.814	-17.24
1023.012	-17.34
1023.21	-16.68
1023.408	-16.97
1023.606	-17.31
1023.803	-13.44
1024.001	-12.48
1024.199	-15.35
1024.397	-14.59
1024.594	-15.56
1024.792	-19.22
1024.99	-18.48
1025.187	-17.02
1025.385	-13.73
1025.582	-12.2
1025.78	-12.96
1025.977	-11.83
1026.175	-11.31
1026.372	-10.2
1026.57	-14.06
1026.767	-12.17
1026.965	-11.31
1027.162	-11.19
1027.359	-10.51
1027.557	-8.58
1027.754	-12.08
1027.951	-12.97
1028.148	-12.02
1028.346	-13.63
1028.543	-17.02
1028.74	-18.14
1028.937	-20.42
1029.134	-20.16
1029.331	-19.46
1029.528	-17.66
1029.725	-18.59
1029.923	-21.57
1030.12	-18.65
1030.317	-17.33
1030.513	-16.87
1030.71	-15.09
1030.907	-12.52
1031.104	-13.01
1031.301	-14.57
1031.498	-15.56
1031.695	-15.24
1031.892	-14.78
1032.088	-14.2
1032.285	-17.08
1032.482	-18.12
1032.678	-20.51
1032.875	-21.97
1033.072	-20.6
1033.268	-22.51
1033.465	-23.43
1033.662	-27.72
1033.858	-27.47
1034.055	-26.28
1034.251	-23.5
1034.448	-24.03
1034.644	-23.81
1034.84	-20.34
1035.037	-17.41
1035.233	-17.36
1035.43	-15.15
1035.626	-15.88
1035.822	-14.9
1036.019	-15.89
1036.215	-20.17
1036.411	-20.67
1036.607	-21.75
1036.803	-24.42
1037	-25.48
1037.196	-27.6
1037.392	-28.68
1037.588	-30.65
1037.784	-30.1
1037.98	-32.23
1038.176	-32.67
1038.372	-31.56
1038.568	-30.56
1038.764	-27.83
1038.96	-25.88
1039.156	-28.02
1039.352	-27.86
1039.547	-26.06
1039.743	-23.72
1039.939	-21.1
1040.135	-22.4
1040.331	-24.91
1040.526	-21.17
1040.722	-22.35
1040.918	-23.26
1041.113	-25.43
1041.309	-26.62
1041.505	-29.18
1041.7	-28.4
1041.896	-28.23
1042.091	-28.06
1042.287	-26.45
1042.482	-25.3
1042.678	-25.37
1042.873	-23.76
1043.069	-23.86
1043.264	-22.28
1043.459	-19.27
1043.655	-17.38
1043.85	-19.2
1044.045	-15.97
1044.24	-15.67
1044.436	-13.95
1044.631	-14.61
1044.826	-15.43
1045.021	-17.32
1045.216	-15.12
