Data from FLMT021711__12__17-55-25-998.txt Node

Date: Tue Nov 05 17:55:25 CET 2024
User: Etudiants TP
Spectrometer: FLMT02171
Trigger mode: 0
Integration Time (sec): 1.000000E-1
Scans to average: 5
Electric dark correction enabled: true
Nonlinearity correction enabled: false
Boxcar width: 15
XAxis mode: Wavelengths
Number of Pixels in Spectrum: 3648
>>>>>Begin Spectral Data<<<<<
194.658	-67.02
194.923	-65.88
195.188	-58.47
195.453	-59.11
195.717	-53.57
195.982	-52.48
196.247	-50.52
196.512	-55
196.777	-52.9
197.042	-51.15
197.307	-51.68
197.572	-47.11
197.837	-46.82
198.101	-43.84
198.366	-41.46
198.631	-39.62
198.896	-32.68
199.161	-25.67
199.425	-17.27
199.69	-6.05
199.955	-6.14
200.22	-11.02
200.484	-12.62
200.749	-12.71
201.014	-12.08
201.278	-12.45
201.543	-11.17
201.807	-12.68
202.072	-12.24
202.337	-12.55
202.601	-12.94
202.866	-13.94
203.13	-13.08
203.395	-15.3
203.659	-15.17
203.924	-17.22
204.189	-15.66
204.453	-15.91
204.717	-11.87
204.982	-11.58
205.246	-10.72
205.511	-8.14
205.775	-8.27
206.04	-2.55
206.304	-2.55
206.568	0.01
206.833	-0.56
207.097	1.06
207.361	4.04
207.626	6.95
207.89	5.46
208.154	4.38
208.419	6.86
208.683	8.61
208.947	10.73
209.211	11.3
209.476	10.16
209.74	10.56
210.004	11.08
210.268	12.04
210.532	16.11
210.796	16.4
211.061	16.29
211.325	17.43
211.589	16.87
211.853	18.72
212.117	18.88
212.381	18.29
212.645	19.31
212.909	19.39
213.173	17.86
213.437	18.19
213.701	17.74
213.965	17.21
214.229	12.55
214.493	12.66
214.757	10.54
215.021	11.52
215.285	15.12
215.549	16.29
215.813	13.2
216.077	12.84
216.34	15.48
216.604	15.07
216.868	15.56
217.132	15.21
217.396	14.93
217.659	16.45
217.923	11.62
218.187	10.69
218.451	8.95
218.714	4.77
218.978	4.56
219.242	8.05
219.505	8.09
219.769	9.06
220.033	8.89
220.296	11.49
220.56	12.13
220.824	10.41
221.087	10.73
221.351	10.24
221.614	10.16
221.878	12.81
222.142	11.37
222.405	10.23
222.669	11.8
222.932	9.33
223.196	6.44
223.459	2.22
223.722	2.76
223.986	2.99
224.249	2.42
224.513	2.28
224.776	3.5
225.04	2.67
225.303	1.56
225.566	0.8
225.83	2.86
226.093	6.52
226.356	5.48
226.62	4.65
226.883	7.23
227.146	7.15
227.409	5.64
227.673	5.08
227.936	4.22
228.199	5.37
228.462	2.22
228.725	1.73
228.989	1.83
229.252	2.9
229.515	8.19
229.778	7.42
230.041	6.41
230.304	4.67
230.567	6.34
230.83	3.02
231.093	4.26
231.356	5.19
231.619	12.38
231.882	11.39
232.145	12.2
232.408	11.21
232.671	9.53
232.934	7.89
233.197	6.32
233.46	5.71
233.723	6.81
233.986	4.2
234.249	1.54
234.512	4.08
234.775	8.19
235.037	7.59
235.3	7.24
235.563	6.19
235.826	6.43
236.089	7.78
236.351	6.07
236.614	8.93
236.877	9.2
237.14	11.77
237.402	10.63
237.665	4.67
237.928	4.41
238.19	0.36
238.453	3.33
238.716	2.53
238.978	3.45
239.241	3.35
239.503	4.71
239.766	0.24
240.029	-2.15
240.291	1.85
240.554	2.31
240.816	2.81
241.079	3.39
241.341	3.35
241.604	4.05
241.866	2.23
242.129	2.61
242.391	5.43
242.653	3.62
242.916	4.55
243.178	4.28
243.441	4.94
243.703	4.99
243.965	3.43
244.228	4.75
244.49	4.76
244.752	5.41
245.015	5.19
245.277	6.03
245.539	5.15
245.801	8
246.064	6.3
246.326	7.13
246.588	6.53
246.85	8
247.112	8.61
247.374	9.15
247.637	11.74
247.899	9.93
248.161	11.14
248.423	5.02
248.685	5.02
248.947	4.99
249.209	5.86
249.471	7.06
249.733	5.88
249.995	3.78
250.257	3.13
250.519	1.49
250.781	5.23
251.043	0.78
251.305	2.78
251.567	4.72
251.829	5.21
252.091	5.34
252.353	1.14
252.615	1.71
252.876	-0.7
253.138	-0.96
253.4	-4.93
253.662	-3.1
253.924	-2.95
254.185	-1.12
254.447	-0.26
254.709	0.92
254.971	2.54
255.232	3.83
255.494	2.71
255.756	0.83
256.017	1.36
256.279	2.43
256.541	4.4
256.802	3.2
257.064	4.74
257.326	1.99
257.587	3.22
257.849	4.83
258.11	8.27
258.372	8.93
258.633	9.51
258.895	7.93
259.156	7.72
259.418	4.33
259.679	-0.06
259.941	-3.6
260.202	-1.56
260.464	0.35
260.725	-0.13
260.987	-0.96
261.248	-1.95
261.509	0.28
261.771	-1.11
262.032	1.38
262.293	1.41
262.555	0.75
262.816	-2.57
263.077	-4.53
263.338	-7.1
263.6	-6.26
263.861	-6.93
264.122	-7.57
264.383	-5.04
264.645	-5.78
264.906	-6.59
265.167	-6.19
265.428	-5.38
265.689	-4.74
265.95	-6.31
266.211	-4.83
266.473	-4.14
266.734	-7.24
266.995	-10.86
267.256	-10.67
267.517	-7.74
267.778	-4.04
268.039	-1.05
268.3	-2.89
268.561	-4.93
268.822	-2.08
269.083	-3.69
269.344	-5.53
269.604	-7.03
269.865	-6.62
270.126	-11.37
270.387	-9.93
270.648	-8.17
270.909	-8.32
271.17	-9.65
271.43	-12.04
271.691	-15.14
271.952	-16.53
272.213	-13.26
272.473	-17.12
272.734	-14.37
272.995	-11.68
273.256	-12.14
273.516	-10.46
273.777	-13.45
274.038	-11.32
274.298	-15.16
274.559	-16.59
274.82	-10.43
275.08	-6.68
275.341	-5.21
275.601	-7.15
275.862	-8.34
276.122	-7.69
276.383	-6.88
276.643	-5.31
276.904	-6.9
277.164	-3.95
277.425	-2.6
277.685	0.55
277.946	1.19
278.206	2.87
278.467	3.03
278.727	2.64
278.987	2.32
279.248	2.43
279.508	4.09
279.768	6.7
280.029	8.04
280.289	2.81
280.549	1.39
280.81	1.28
281.07	0.42
281.33	2.18
281.59	1.06
281.851	3.95
282.111	2.14
282.371	2.14
282.631	2.88
282.891	0.68
283.151	-1.25
283.412	-2.54
283.672	-2
283.932	-1.75
284.192	-0.2
284.452	-2.28
284.712	-4.69
284.972	-5.48
285.232	-7.72
285.492	-5.02
285.752	-7.37
286.012	-2.64
286.272	0.45
286.532	-2.09
286.792	-2.11
287.052	-0.13
287.312	-0.02
287.571	-0.62
287.831	0.15
288.091	-1.9
288.351	-0.22
288.611	4.77
288.871	3.73
289.13	2.67
289.39	-2.22
289.65	-0.95
289.91	-2.71
290.17	0.98
290.429	3.42
290.689	2.11
290.949	-1.36
291.208	-0.24
291.468	3.39
291.728	4.09
291.987	6.3
292.247	4.47
292.506	7.69
292.766	11
293.026	9.71
293.285	10.5
293.545	12.84
293.804	13.79
294.064	11.23
294.323	8.01
294.583	9.42
294.842	9.84
295.102	10.74
295.361	11.42
295.621	12.63
295.88	13.15
296.139	12.89
296.399	13.38
296.658	7.92
296.917	8.35
297.177	6.86
297.436	10.1
297.695	7.73
297.955	7.92
298.214	5.12
298.473	6.56
298.732	8.82
298.992	13.09
299.251	13.46
299.51	9.37
299.769	10.25
300.028	8.76
300.287	8.61
300.547	7.58
300.806	5.36
301.065	7.95
301.324	10.08
301.583	5.45
301.842	0.96
302.101	-1.34
302.36	-2.09
302.619	-2.63
302.878	-2.44
303.137	-4.66
303.396	-3.64
303.655	-2.16
303.914	-5.38
304.173	-4.23
304.432	-4.61
304.691	-1.64
304.95	-4.49
305.208	0.26
305.467	-0.11
305.726	0.53
305.985	2.15
306.244	3.79
306.503	3.52
306.761	2.39
307.02	-1.63
307.279	-1.64
307.537	-0.83
307.796	-3.87
308.055	-6.34
308.314	-4.82
308.572	-5.76
308.831	-4.03
309.09	-2.71
309.348	-2.4
309.607	-3.4
309.865	1.46
310.124	0.49
310.382	3.45
310.641	4.93
310.9	2.97
311.158	4.28
311.417	2.64
311.675	3.17
311.933	4
312.192	4.69
312.45	3.87
312.709	3.57
312.967	3.56
313.226	2.84
313.484	1.1
313.742	-0.2
314.001	-2.78
314.259	-3.78
314.517	-1.82
314.776	-0.95
315.034	2.92
315.292	0.76
315.55	-0.62
315.809	-1.31
316.067	-0.88
316.325	-2.24
316.583	-0.69
316.841	-2.31
317.1	-5.54
317.358	-7.81
317.616	-7.5
317.874	-9.02
318.132	-9.11
318.39	-10.63
318.648	-12.59
318.906	-11.77
319.164	-13.69
319.422	-13.08
319.68	-16.14
319.938	-15.21
320.196	-14.53
320.454	-11.89
320.712	-12.46
320.97	-12.41
321.228	-14.53
321.486	-12.46
321.744	-11.36
322.002	-9.17
322.26	-10.7
322.517	-12.82
322.775	-14.77
323.033	-17.13
323.291	-15.03
323.549	-13.28
323.806	-11.16
324.064	-10.01
324.322	-8.59
324.58	-10.25
324.837	-7.88
325.095	-9.87
325.353	-8.7
325.61	-5.85
325.868	-7.03
326.126	-3.96
326.383	-4.66
326.641	-5.5
326.898	-5.73
327.156	-4.49
327.413	-4.32
327.671	-1.71
327.928	-0.68
328.186	-0.02
328.443	-2.54
328.701	1.78
328.958	2.42
329.216	2.44
329.473	1.1
329.731	2.74
329.988	3.19
330.245	5.51
330.503	8.03
330.76	7.62
331.017	9.53
331.275	7.58
331.532	7.35
331.789	4.07
332.047	3.44
332.304	0.47
332.561	1.8
332.818	-0.18
333.076	3.43
333.333	5.02
333.59	4.84
333.847	6.57
334.104	5.23
334.361	4.73
334.618	3.86
334.876	3
335.133	2.77
335.39	1.14
335.647	0.44
335.904	-2.55
336.161	-4.47
336.418	-2.98
336.675	-7.67
336.932	-6.39
337.189	-7.55
337.446	-7.3
337.703	-9.67
337.96	-13.68
338.216	-12.94
338.473	-17.07
338.73	-15.5
338.987	-16.02
339.244	-12.71
339.501	-14.31
339.757	-11.58
340.014	-10.96
340.271	-10.47
340.528	-10.3
340.785	-6.18
341.041	-5.42
341.298	-9.72
341.555	-10.1
341.811	-10.24
342.068	-13.32
342.325	-13.1
342.581	-10.35
342.838	-8.2
343.094	-7.02
343.351	-7.34
343.608	-9.61
343.864	-7.76
344.121	-7.03
344.377	-8.08
344.634	-9.49
344.89	-10.31
345.147	-8.94
345.403	-9.78
345.66	-9.36
345.916	-6.05
346.172	-8.87
346.429	-9.23
346.685	-9.31
346.942	-9.12
347.198	-13.87
347.454	-12.82
347.711	-12.59
347.967	-15.3
348.223	-14.68
348.48	-15.76
348.736	-12.5
348.992	-14.79
349.248	-10.94
349.504	-11.51
349.761	-11.78
350.017	-10.57
350.273	-10.57
350.529	-10.67
350.785	-11.98
351.041	-14.05
351.297	-13.36
351.554	-13.85
351.81	-14.63
352.066	-16.47
352.322	-16.51
352.578	-14.63
352.834	-14.81
353.09	-15.15
353.346	-15.34
353.602	-17.28
353.858	-19.7
354.114	-19.61
354.369	-17.54
354.625	-16.3
354.881	-17.35
355.137	-14.54
355.393	-14.47
355.649	-14.69
355.905	-12.88
356.16	-12.34
356.416	-11.59
356.672	-18.79
356.928	-18.55
357.183	-19.53
357.439	-19.53
357.695	-20.39
357.951	-15.52
358.206	-16.71
358.462	-17.04
358.718	-18.73
358.973	-17.22
359.229	-15.6
359.484	-14.86
359.74	-12.13
359.996	-11.52
360.251	-8.57
360.507	-8
360.762	-8.94
361.018	-5.94
361.273	-7.02
361.529	-5.07
361.784	-5.17
362.04	-4.42
362.295	-6.18
362.55	-6.35
362.806	-4.99
363.061	-4.71
363.316	-4.35
363.572	-3.2
363.827	-1.88
364.082	-4.85
364.338	-5.41
364.593	-4.55
364.848	-3.87
365.104	-6.35
365.359	-3.72
365.614	-3.3
365.869	-7.71
366.124	-6.16
366.38	-7.55
366.635	-4.74
366.89	-3.94
367.145	-3.81
367.4	0.53
367.655	-0.34
367.91	0.49
368.165	-2.23
368.42	-5.28
368.675	-4.4
368.93	-5.14
369.185	-7
369.44	-7.07
369.695	-4.39
369.95	-4.37
370.205	-4.04
370.46	-6.09
370.715	-7.4
370.97	-6.74
371.225	-6.94
371.48	-6.24
371.734	-6.43
371.989	-5.16
372.244	-4.52
372.499	-4.31
372.754	-4.67
373.008	-4.61
373.263	-9.58
373.518	-7
373.773	-7.46
374.027	-9.12
374.282	-7.03
374.537	-6.81
374.791	-5.99
375.046	-8.29
375.301	-10.69
375.555	-12.42
375.81	-11.58
376.064	-11.19
376.319	-8.77
376.573	-8.6
376.828	-12.38
377.082	-8.15
377.337	-10.44
377.591	-14.26
377.846	-14.54
378.1	-13.33
378.355	-12.83
378.609	-12.37
378.863	-14.38
379.118	-13.02
379.372	-13.84
379.627	-15.71
379.881	-17.07
380.135	-18.04
380.389	-17.9
380.644	-16.64
380.898	-15.66
381.152	-14.6
381.407	-16.3
381.661	-14.81
381.915	-13.08
382.169	-13.49
382.423	-14.75
382.677	-17.54
382.932	-16.23
383.186	-15.45
383.44	-13.76
383.694	-13.74
383.948	-14.68
384.202	-15.69
384.456	-14.69
384.71	-12.27
384.964	-12.68
385.218	-8.98
385.472	-7.77
385.726	-7.63
385.98	-7.43
386.234	-6.6
386.488	-9.65
386.742	-8.77
386.996	-11.21
387.249	-10.84
387.503	-8.11
387.757	-5.61
388.011	-4.59
388.265	-3.59
388.518	-2.86
388.772	-1.25
389.026	1.57
389.28	1.03
389.533	0.69
389.787	3.14
390.041	2.09
390.295	1.85
390.548	1.64
390.802	4.79
391.055	4.28
391.309	3.01
391.563	2.49
391.816	3.38
392.07	3.01
392.323	5.67
392.577	6.75
392.83	6.7
393.084	11.26
393.337	15.07
393.591	15.71
393.844	16.19
394.098	19.96
394.351	25.51
394.604	26.83
394.858	28.91
395.111	28.94
395.364	26.47
395.618	27.96
395.871	26.18
396.124	24.55
396.378	23.43
396.631	23.48
396.884	19.6
397.137	18.06
397.391	18.44
397.644	14.92
397.897	15.82
398.15	16.35
398.403	19.67
398.657	18.23
398.91	17.11
399.163	16.47
399.416	16.46
399.669	14.24
399.922	13.16
400.175	9.02
400.428	7.29
400.681	8.58
400.934	3.33
401.187	2.41
401.44	2.21
401.693	0.64
401.946	-3.63
402.199	-9.1
402.452	-10.44
402.704	-13.74
402.957	-14.55
403.21	-11.45
403.463	-12.91
403.716	-12.13
403.969	-11.6
404.221	-13.22
404.474	-12.88
404.727	-9.41
404.98	-7.05
405.232	-6.43
405.485	-3.85
405.738	-1.66
405.99	-0.05
406.243	0.11
406.496	2.04
406.748	1.74
407.001	2.15
407.253	2.67
407.506	4.9
407.759	6.15
408.011	4.97
408.264	5.05
408.516	4.67
408.769	3.14
409.021	3.6
409.274	2.79
409.526	3.89
409.778	3.37
410.031	6.3
410.283	7.1
410.536	11.25
410.788	9.72
411.04	8.75
411.293	9.99
411.545	10.49
411.797	10.58
412.049	10.54
412.302	11.94
412.554	11.8
412.806	9.97
413.058	8.35
413.311	7.41
413.563	4.34
413.815	3.35
414.067	2.06
414.319	0.25
414.571	1.62
414.823	0.92
415.075	-0.99
415.328	-1.17
415.58	1.57
415.832	3.04
416.084	5.28
416.336	4.42
416.588	7.53
416.84	7.15
417.091	10.51
417.343	7.84
417.595	10.36
417.847	10.94
418.099	11.98
418.351	12.08
418.603	15.05
418.855	15.83
419.106	17.69
419.358	17.39
419.61	17.54
419.862	19.13
420.114	16.79
420.365	17.08
420.617	18.26
420.869	17.37
421.12	17.62
421.372	19.2
421.624	18.7
421.875	18
422.127	15.43
422.379	15.7
422.63	18.34
422.882	17.47
423.133	16.3
423.385	16.28
423.636	18.25
423.888	17.77
424.139	19.39
424.391	17.5
424.642	14.42
424.894	12.35
425.145	12.49
425.396	9.41
425.648	11.47
425.899	9.56
426.151	8.87
426.402	7.49
426.653	5.68
426.905	2.94
427.156	1.53
427.407	1.66
427.658	-0.16
427.91	-3.35
428.161	-5.1
428.412	-3.45
428.663	-3.24
428.914	-3.2
429.166	-2.29
429.417	-1.82
429.668	-2.99
429.919	-5.65
430.17	-6.87
430.421	-8.97
430.672	-4.5
430.923	-2.49
431.174	-3.68
431.425	-5
431.676	-4.52
431.927	-7.62
432.178	-5.7
432.429	-5.26
432.68	-5.82
432.931	-1.36
433.182	1.93
433.433	-0.45
433.683	0.69
433.934	0.45
434.185	-0.51
434.436	-0.74
434.687	0.61
434.937	1.54
435.188	0.13
435.439	0.9
435.69	3
435.94	2.17
436.191	1.97
436.442	3.12
436.692	1.35
436.943	-1.1
437.194	-2.67
437.444	-1.53
437.695	3.56
437.945	4.13
438.196	4.52
438.447	2.91
438.697	2.34
438.948	1.46
439.198	0.23
439.449	-3.87
439.699	-2.4
439.949	-3.32
440.2	-2.34
440.45	-1.04
440.701	-3.89
440.951	-4.63
441.201	-3.76
441.452	-4.97
441.702	-5.26
441.952	-3.83
442.203	-2.9
442.453	-5.66
442.703	-3.86
442.953	-3.32
443.204	-1.66
443.454	-3.21
443.704	-2.29
443.954	-4.54
444.204	-4.74
444.455	-2.11
444.705	-0.84
444.955	-1.47
445.205	-1.22
445.455	-5.07
445.705	-5.02
445.955	-4.79
446.205	-5.97
446.455	-4.79
446.705	-3.68
446.955	-4.07
447.205	-1.66
447.455	-1.48
447.705	-3.01
447.955	-5.14
448.205	-4.53
448.454	-5.14
448.704	-3.94
448.954	-5.12
449.204	-4.14
449.454	-4.58
449.704	-6.68
449.953	-7.59
450.203	-4.59
450.453	-7.47
450.703	-4.92
450.952	-7.8
451.202	-5.83
451.452	-5.97
451.701	-2.75
451.951	0.77
452.201	-0.46
452.45	-1.32
452.7	1.16
452.949	0.83
453.199	2.02
453.448	2.87
453.698	3.01
453.947	2.18
454.197	1.73
454.446	-0.01
454.696	3.54
454.945	1.85
455.195	1.21
455.444	2.28
455.693	5.2
455.943	2.91
456.192	5.03
456.442	4.48
456.691	4.09
456.94	3.33
457.189	2.86
457.439	5.11
457.688	8.64
457.937	7.77
458.186	9.07
458.436	8.43
458.685	11.01
458.934	10.43
459.183	11.11
459.432	12.46
459.681	11.81
459.93	10.93
460.179	11.8
460.429	9.98
460.678	12.73
460.927	14.44
461.176	13.79
461.425	13.63
461.674	15.95
461.923	15.06
462.172	15.12
462.42	12.92
462.669	16.27
462.918	17.41
463.167	16.39
463.416	14.15
463.665	15.92
463.914	15.23
464.162	13.79
464.411	15.47
464.66	17.06
464.909	15.13
465.158	14.95
465.406	12.39
465.655	14.56
465.904	17.39
466.152	16.79
466.401	16.86
466.65	18.4
466.898	16.42
467.147	13.09
467.395	12.23
467.644	14.03
467.893	12.93
468.141	12.85
468.39	10.07
468.638	7.81
468.887	7.08
469.135	6.44
469.384	6.52
469.632	7.43
469.88	8.04
470.129	8.99
470.377	5.67
470.626	7.66
470.874	9.93
471.122	12.21
471.371	10.58
471.619	9.34
471.867	12.33
472.115	12.76
472.364	10.57
472.612	14.91
472.86	14.53
473.108	15.14
473.356	13.63
473.605	12.04
473.853	10.51
474.101	9.14
474.349	8.81
474.597	12.24
474.845	10.56
475.093	9.44
475.341	8
475.589	7.6
475.837	8.56
476.085	10.85
476.333	10.07
476.581	11.71
476.829	11.66
477.077	14.38
477.325	13.85
477.573	14.19
477.821	12.34
478.069	14.2
478.317	13.02
478.564	16.05
478.812	14.19
479.06	13.72
479.308	13.85
479.555	12.97
479.803	10.2
480.051	12.94
480.299	10.32
480.546	10.18
480.794	7.83
481.042	8.08
481.289	7.56
481.537	9.29
481.784	9.9
482.032	11.55
482.28	11.05
482.527	11.95
482.775	11.99
483.022	13.12
483.27	14.85
483.517	17.42
483.765	16.09
484.012	16.67
484.259	14.62
484.507	16.87
484.754	16.7
485.002	15.74
485.249	14.01
485.496	18.34
485.744	17.46
485.991	16.53
486.238	13.9
486.486	17.62
486.733	18.29
486.98	19.93
487.227	18.35
487.474	20.98
487.722	23.73
487.969	22.2
488.216	22.7
488.463	24.26
488.71	23.67
488.957	22.89
489.204	21.35
489.451	21.33
489.699	20.67
489.946	17.81
490.193	15.79
490.44	17.2
490.687	16.11
490.934	14.64
491.18	11.89
491.427	12.78
491.674	16.48
491.921	16.91
492.168	16.14
492.415	13.87
492.662	15.82
492.909	18.28
493.155	16.13
493.402	15.08
493.649	13.02
493.896	12.81
494.142	8.04
494.389	7.4
494.636	6.09
494.883	4.82
495.129	2
495.376	-1.54
495.623	1.83
495.869	3.46
496.116	4.85
496.362	6.8
496.609	10.07
496.855	15.99
497.102	15.21
497.348	14.15
497.595	16.31
497.841	22.18
498.088	18.8
498.334	19.98
498.581	18.86
498.827	19.17
499.074	20.36
499.32	20.49
499.566	23.75
499.813	24.28
500.059	22.98
500.305	22.11
500.552	22.29
500.798	21.8
501.044	25.38
501.29	25.16
501.537	24.05
501.783	27.11
502.029	31.6
502.275	29.36
502.521	27.54
502.767	29.64
503.013	32.61
503.26	29.74
503.506	26.41
503.752	27.82
503.998	24.96
504.244	25.56
504.49	22.73
504.736	25.42
504.982	26.38
505.228	27.93
505.474	27.62
505.72	30.5
505.966	28.95
506.211	33.3
506.457	33.26
506.703	31.58
506.949	29.01
507.195	27.65
507.441	24.78
507.686	27.04
507.932	28.27
508.178	31.14
508.424	30.21
508.669	29.05
508.915	30.92
509.161	32
509.406	32.77
509.652	30.05
509.898	33.95
510.143	36.68
510.389	36.63
510.634	32.32
510.88	35.85
511.125	38.37
511.371	37.69
511.616	39.18
511.862	35.99
512.107	33.21
512.353	33.51
512.598	34.11
512.844	32.43
513.089	30.42
513.335	30.98
513.58	31.62
513.825	31.87
514.071	31.79
514.316	31.16
514.561	34.7
514.806	33.84
515.052	36.39
515.297	36.34
515.542	38.39
515.787	38
516.033	40.99
516.278	40.8
516.523	40.89
516.768	40.7
517.013	38.73
517.258	39.72
517.503	40.38
517.748	41.34
517.993	40.54
518.238	41.55
518.483	41.66
518.728	41.59
518.973	40.19
519.218	41.1
519.463	43.48
519.708	43.22
519.953	42.15
520.198	42.54
520.443	45.11
520.688	48.11
520.933	47.73
521.177	48.49
521.422	45.91
521.667	50.08
521.912	51.57
522.157	46.31
522.401	49.42
522.646	49.76
522.891	50.54
523.135	50.1
523.38	50.31
523.625	47.93
523.869	50.95
524.114	52.61
524.358	53.35
524.603	54.22
524.848	52.59
525.092	51.35
525.337	53.53
525.581	55.98
525.826	59.35
526.07	59.87
526.315	61.98
526.559	62
526.803	59.93
527.048	63.52
527.292	65.57
527.537	65.92
527.781	65.27
528.025	62.74
528.269	64.05
528.514	63.6
528.758	63.86
529.002	64.51
529.247	65.98
529.491	64.26
529.735	68.95
529.979	69.15
530.223	70.23
530.467	68.21
530.712	66.53
530.956	65.61
531.2	67.57
531.444	65.03
531.688	67.35
531.932	67.35
532.176	68.68
532.42	70.18
532.664	71.82
532.908	69.33
533.152	67.79
533.396	65.84
533.64	63.45
533.884	60.34
534.128	59.69
534.371	62.45
534.615	61.87
534.859	61.72
535.103	62.17
535.347	63.57
535.59	64.88
535.834	60.98
536.078	64.03
536.322	65.34
536.565	68.38
536.809	66.31
537.053	69.07
537.296	68.52
537.54	67.69
537.784	66.9
538.027	68.5
538.271	68.01
538.514	66.96
538.758	68.04
539.001	66.38
539.245	65.01
539.488	66.5
539.732	68.69
539.975	69.63
540.219	71.01
540.462	71.96
540.706	73.07
540.949	73.63
541.192	76.1
541.436	82.29
541.679	88.5
541.922	86.81
542.166	82.38
542.409	83.37
542.652	83.15
542.895	82.67
543.139	83.6
543.382	89.44
543.625	88.44
543.868	87.96
544.111	86.79
544.354	86.09
544.598	85.48
544.841	86.18
545.084	86.59
545.327	86.52
545.57	87.47
545.813	90.4
546.056	92.25
546.299	92.74
546.542	96.5
546.785	100.04
547.028	100.21
547.271	99.47
547.514	98.22
547.756	97.53
547.999	98.26
548.242	100.41
548.485	98.54
548.728	99.37
548.971	94.58
549.213	94.75
549.456	95.96
549.699	97.31
549.942	97.82
550.184	98.22
550.427	98.17
550.67	98.99
550.912	94.33
551.155	96.35
551.398	96.32
551.64	96.25
551.883	97.1
552.125	95.85
552.368	96.07
552.61	93.66
552.853	96.56
553.095	95.27
553.338	95.72
553.58	96.21
553.823	94.38
554.065	97.13
554.308	92.95
554.55	91.74
554.792	89.85
555.035	90.86
555.277	88.42
555.519	90.03
555.762	88.51
556.004	90.29
556.246	87.81
556.488	89.79
556.731	88.42
556.973	91.07
557.215	90.21
557.457	92.37
557.699	95.8
557.941	95.19
558.183	94.24
558.426	96.67
558.668	93.58
558.91	95.49
559.152	95.93
559.394	95.74
559.636	98.47
559.878	99.26
560.12	99.89
560.362	102.54
560.604	103.43
560.845	102.5
561.087	101.16
561.329	104.41
561.571	101.98
561.813	104.29
562.055	103.89
562.297	106.27
562.538	107.82
562.78	112.46
563.022	111.39
563.264	112.86
563.505	115.27
563.747	116.36
563.989	116.66
564.23	116.94
564.472	116.38
564.714	121.56
564.955	121.99
565.197	119.72
565.438	122.06
565.68	127.73
565.921	128.15
566.163	130.94
566.404	132.34
566.646	137.23
566.887	142.25
567.129	144.71
567.37	146.03
567.612	150.29
567.853	148.25
568.094	151.35
568.336	153.89
568.577	157.34
568.818	158.41
569.06	159.62
569.301	159.9
569.542	163.25
569.783	165.31
570.025	167.86
570.266	171.49
570.507	174.13
570.748	176.72
570.989	179.08
571.23	183.9
571.472	185.1
571.713	184.98
571.954	187.57
572.195	187.53
572.436	191.42
572.677	196.04
572.918	200.91
573.159	199.29
573.4	199.46
573.641	200.98
573.882	202.71
574.123	201.2
574.364	198.27
574.604	200.96
574.845	201.84
575.086	203.25
575.327	206.96
575.568	209.42
575.809	209.88
576.049	210.47
576.29	210.24
576.531	215.37
576.771	220.45
577.012	222.89
577.253	226.41
577.494	226.99
577.734	226.74
577.975	227.85
578.215	228.65
578.456	228.18
578.697	229.47
578.937	232.77
579.178	233.81
579.418	234.44
579.659	235.99
579.899	234.38
580.14	235.08
580.38	235.73
580.62	238.56
580.861	243.2
581.101	246.14
581.342	247.68
581.582	246.95
581.822	250.23
582.063	250.17
582.303	252.66
582.543	254.2
582.783	255.42
583.024	257.66
583.264	262.76
583.504	263.33
583.744	267.36
583.984	267.31
584.224	268.05
584.465	268.77
584.705	270.17
584.945	272.83
585.185	273.73
585.425	277.23
585.665	278.74
585.905	279.02
586.145	281.19
586.385	281.26
586.625	286.83
586.865	286.48
587.105	287.45
587.345	289.48
587.585	291.16
587.824	290.26
588.064	291.54
588.304	291.33
588.544	292.32
588.784	291.68
589.024	294.58
589.263	294.77
589.503	294.13
589.743	298.86
589.982	299.42
590.222	301.05
590.462	301.33
590.701	299.03
590.941	302.19
591.181	303.64
591.42	304.25
591.66	307.8
591.899	312.31
592.139	312.41
592.378	314.56
592.618	314.93
592.857	314.75
593.097	317.38
593.336	319.82
593.576	321.24
593.815	324.91
594.055	325.06
594.294	328.79
594.533	329.84
594.773	331.39
595.012	334.92
595.251	337.94
595.491	342.84
595.73	346.63
595.969	348.75
596.208	351.92
596.447	359.17
596.687	362.64
596.926	366.72
597.165	364.76
597.404	367.67
597.643	369.38
597.882	368.77
598.121	373.4
598.36	375.84
598.599	376.73
598.838	377.4
599.077	374.83
599.316	375.07
599.555	376.44
599.794	377.56
600.033	381.18
600.272	384.44
600.511	383.73
600.75	387.26
600.989	388.83
601.228	389.95
601.466	389.33
601.705	390.19
601.944	393.49
602.183	395.42
602.422	393.89
602.66	393.76
602.899	392.38
603.138	391.76
603.376	392.64
603.615	393.85
603.854	392.14
604.092	392.32
604.331	393.76
604.569	395.75
604.808	394.96
605.047	394.83
605.285	396.04
605.524	394.76
605.762	392.27
606	395.03
606.239	397.19
606.477	397.37
606.716	394.64
606.954	394.45
607.193	390.87
607.431	387.54
607.669	383.92
607.908	382.25
608.146	381.2
608.384	379.2
608.622	376.63
608.861	376.17
609.099	376.15
609.337	373.88
609.575	372.37
609.813	372.2
610.052	370.39
610.29	365.51
610.528	362.69
610.766	359.99
611.004	359.47
611.242	358.17
611.48	356.47
611.718	352.58
611.956	350.76
612.194	348.61
612.432	346.29
612.67	343.2
612.908	343.46
613.146	341.85
613.384	340.03
613.621	336.19
613.859	335.7
614.097	334.45
614.335	333.33
614.573	334.16
614.811	335.46
615.048	334.7
615.286	335.24
615.524	334.76
615.761	331.09
615.999	331.33
616.237	330.23
616.474	330.48
616.712	330.47
616.95	329.79
617.187	328.36
617.425	329.38
617.662	329.33
617.9	327.67
618.137	324.77
618.375	322.58
618.612	317.92
618.85	318.53
619.087	320.95
619.325	318.43
619.562	317.07
619.799	316.02
620.037	315.99
620.274	313.23
620.511	313.46
620.749	309.57
620.986	308.47
621.223	305.34
621.461	304.43
621.698	304.84
621.935	302.6
622.172	299.54
622.409	300.71
622.647	299.84
622.884	297.68
623.121	299.47
623.358	296.18
623.595	294.12
623.832	292.55
624.069	290.03
624.306	288.53
624.543	288.9
624.78	288.38
625.017	287.69
625.254	289.32
625.491	291.54
625.728	292.01
625.965	291.12
626.202	289.5
626.438	286.44
626.675	286.76
626.912	287.13
627.149	287.4
627.386	286.14
627.622	284.67
627.859	283.16
628.096	282.28
628.333	280.43
628.569	280.9
628.806	281.59
629.043	279.31
629.279	280.41
629.516	281.49
629.752	278.29
629.989	276.85
630.225	273.95
630.462	272.38
630.699	272.9
630.935	271.87
631.171	269.26
631.408	269.22
631.644	267.07
631.881	262.81
632.117	258.92
632.354	258.09
632.59	255.57
632.826	253.59
633.063	250.37
633.299	251.43
633.535	248.26
633.771	246.32
634.008	246.27
634.244	246.79
634.48	244.46
634.716	244.48
634.953	243
635.189	241.79
635.425	242
635.661	244.76
635.897	242.19
636.133	241.14
636.369	239.54
636.605	234.39
636.841	232.48
637.077	233.13
637.313	231.38
637.549	231.5
637.785	230.3
638.021	228.8
638.257	228.85
638.493	229.38
638.729	226.11
638.965	228.95
639.2	229.56
639.436	228.56
639.672	228.41
639.908	226.59
640.144	228.14
640.379	230.51
640.615	226.2
640.851	228.29
641.086	228.27
641.322	224.94
641.558	221.66
641.793	221.36
642.029	219.31
642.264	217.18
642.5	217.45
642.736	213.72
642.971	212.95
643.207	210.75
643.442	207.36
643.678	206.27
643.913	207.63
644.148	206.29
644.384	205.93
644.619	204.95
644.855	205.72
645.09	205.14
645.325	204.47
645.561	202.55
645.796	198.75
646.031	201.17
646.266	196.56
646.502	196.39
646.737	197.63
646.972	195.64
647.207	195.14
647.442	192.56
647.678	188.28
647.913	190.91
648.148	189.34
648.383	187.65
648.618	186.86
648.853	188.19
649.088	189.53
649.323	191.04
649.558	191.81
649.793	190.89
650.028	190.31
650.263	185.27
650.498	186.97
650.733	185.91
650.968	183.68
651.202	184.16
651.437	180.1
651.672	176.31
651.907	175.98
652.142	174.75
652.376	174.15
652.611	174.48
652.846	175.75
653.081	176.02
653.315	174.36
653.55	174.89
653.785	172.53
654.019	172.35
654.254	170.72
654.488	170.4
654.723	165.02
654.958	162.77
655.192	160.17
655.427	156.08
655.661	156.52
655.896	157.49
656.13	156.75
656.364	153.16
656.599	149.89
656.833	156.73
657.068	158.88
657.302	159.01
657.536	156.7
657.771	157.4
658.005	157.03
658.239	158.92
658.474	155.61
658.708	156.13
658.942	156.04
659.176	152.87
659.41	148.12
659.645	146.64
659.879	144.52
660.113	140
660.347	137.99
660.581	134.31
660.815	132.91
661.049	130.26
661.283	127.29
661.517	124.46
661.751	123.52
661.985	123.97
662.219	124.21
662.453	122.02
662.687	124.51
662.921	121.26
663.155	121.13
663.389	114.44
663.622	111.29
663.856	111.71
664.09	103.03
664.324	100.41
664.558	99.15
664.791	97.16
665.025	95.91
665.259	96.44
665.492	94.45
665.726	96.73
665.96	96.96
666.193	94.84
666.427	97.05
666.661	96.24
666.894	93.76
667.128	92.05
667.361	93.9
667.595	92.74
667.828	91.84
668.062	90.65
668.295	91.17
668.529	91.43
668.762	92.64
668.995	89.81
669.229	92.8
669.462	93.75
669.695	94.46
669.929	91.28
670.162	90.25
670.395	87.23
670.629	89.36
670.862	90.41
671.095	86.88
671.328	86.32
671.561	82.19
671.795	83.44
672.028	86.44
672.261	85.16
672.494	85.33
672.727	82.47
672.96	82.91
673.193	81.98
673.426	85.45
673.659	84.6
673.892	84.33
674.125	84.21
674.358	84.22
674.591	82.7
674.824	82.01
675.057	81.02
675.29	78.25
675.523	79.09
675.755	76.22
675.988	76.34
676.221	78.88
676.454	76.76
676.687	75.76
676.919	74.89
677.152	75.44
677.385	75.76
677.617	75.31
677.85	75.38
678.083	74.81
678.315	76.79
678.548	74.95
678.78	73.75
679.013	70.83
679.246	69.92
679.478	71.71
679.711	68.42
679.943	69.15
680.175	65.17
680.408	67.32
680.64	61.61
680.873	62.67
681.105	63.81
681.338	66.47
681.57	64.06
681.802	65.01
682.034	64.83
682.267	67.81
682.499	68.62
682.731	65.83
682.964	65.91
683.196	63.17
683.428	61.48
683.66	58.8
683.892	61.47
684.124	62.41
684.356	63.73
684.589	63.8
684.821	63.25
685.053	63.24
685.285	63.39
685.517	64.15
685.749	64.51
685.981	66.17
686.213	67.92
686.445	67.96
686.676	62.86
686.908	63.91
687.14	63.93
687.372	64.63
687.604	61.5
687.836	63.53
688.068	61.36
688.299	60.63
688.531	58.28
688.763	62.74
688.995	60.63
689.226	62.85
689.458	60.02
689.69	58.69
689.921	56.94
690.153	57.78
690.384	58.82
690.616	57.69
690.848	59.97
691.079	56.05
691.311	53.4
691.542	50.96
691.774	48.64
692.005	50.4
692.237	52.54
692.468	49.93
692.699	48.65
692.931	47.97
693.162	46.27
693.393	44.03
693.625	42.91
693.856	43.98
694.087	44.59
694.319	44.23
694.55	42.91
694.781	41.81
695.012	41.53
695.243	39.47
695.475	37.85
695.706	37.05
695.937	36.21
696.168	35.16
696.399	33.15
696.63	32.57
696.861	33.24
697.092	38.29
697.323	39.38
697.554	41.17
697.785	41.02
698.016	39.95
698.247	38.38
698.478	39.41
698.709	39.58
698.94	42.86
699.171	42.02
699.401	38.59
699.632	40.79
699.863	37.26
700.094	37.1
700.325	38.64
700.555	40.13
700.786	41.01
701.017	42.2
701.247	41.57
701.478	41.39
701.709	41.84
701.939	40.83
702.17	41.72
702.401	43.96
702.631	44.6
702.862	43.32
703.092	39.09
703.323	41.25
703.553	40.93
703.784	40.35
704.014	40.63
704.244	35.64
704.475	34.49
704.705	33.83
704.936	33.53
705.166	32.8
705.396	34.38
705.627	33.37
705.857	33.46
706.087	32.43
706.317	30.39
706.548	27.54
706.778	26.15
707.008	27.15
707.238	26.07
707.468	23.87
707.698	20.7
707.928	19.54
708.158	18.02
708.389	15.22
708.619	13.6
708.849	11.74
709.079	12.74
709.309	11.51
709.539	8.7
709.768	8.8
709.998	10.62
710.228	11.56
710.458	10.02
710.688	8.44
710.918	8.54
711.148	7.69
711.378	8.21
711.607	5.63
711.837	5.48
712.067	6.01
712.297	4.94
712.526	4.64
712.756	6.17
712.986	3.35
713.215	-0
713.445	0.13
713.674	2.53
713.904	2.85
714.134	4.46
714.363	4.66
714.593	4.41
714.822	3.56
715.052	3.43
715.281	3.76
715.511	2.39
715.74	2.51
715.969	1.95
716.199	0.89
716.428	0.94
716.657	0.43
716.887	3.02
717.116	0.45
717.345	0.54
717.575	0.3
717.804	1.39
718.033	1.33
718.262	-0.19
718.492	0.43
718.721	1.8
718.95	0.78
719.179	-1.08
719.408	0.01
719.637	-4.97
719.866	-7.2
720.095	-4.84
720.324	-4.81
720.553	-8.14
720.782	-9.71
721.011	-10.49
721.24	-11.58
721.469	-11.97
721.698	-12.68
721.927	-11.71
722.156	-12.56
722.385	-12.44
722.613	-8.02
722.842	-7.04
723.071	-4.45
723.3	-3.02
723.529	-4.48
723.757	-3.46
723.986	-7.21
724.215	-7.72
724.443	-6.26
724.672	-3.99
724.901	-5
725.129	-4.21
725.358	-1.57
725.586	-3.92
725.815	-3.99
726.043	-5.51
726.272	-8.72
726.5	-9.2
726.729	-6.1
726.957	-8.59
727.186	-11.08
727.414	-10.4
727.642	-7.98
727.871	-6.57
728.099	-7.34
728.327	-8.14
728.556	-7.37
728.784	-5.73
729.012	-6.12
729.241	-5.17
729.469	-6.27
729.697	-8.77
729.925	-7.89
730.153	-9.35
730.381	-10.31
730.61	-10.06
730.838	-12.72
731.066	-11.89
731.294	-10.73
731.522	-14.16
731.75	-17.44
731.978	-17.37
732.206	-18.64
732.434	-20.92
732.662	-20.6
732.89	-23.66
733.118	-24.41
733.346	-21.74
733.573	-20.94
733.801	-21
734.029	-14.25
734.257	-12.98
734.485	-10.2
734.712	-9.15
734.94	-11.37
735.168	-8.32
735.396	-8.7
735.623	-9.86
735.851	-8.09
736.078	-6.98
736.306	-6.54
736.534	-7.97
736.761	-8.18
736.989	-10.95
737.216	-11.69
737.444	-12.55
737.671	-12.16
737.899	-7.03
738.126	-9.18
738.354	-10.01
738.581	-8.38
738.809	-7.94
739.036	-9.61
739.263	-8.45
739.491	-9.75
739.718	-10.04
739.945	-4.11
740.173	-1.1
740.4	-1.91
740.627	-3.18
740.854	-2.91
741.081	-5.49
741.309	-7.51
741.536	-10.77
741.763	-11.62
741.99	-9.81
742.217	-11.75
742.444	-11.01
742.671	-9.84
742.898	-11.53
743.125	-13.52
743.352	-16.42
743.579	-16.4
743.806	-16.86
744.033	-14.47
744.26	-13.23
744.487	-13.36
744.714	-12.68
744.941	-13.32
745.167	-8.78
745.394	-9.27
745.621	-9.2
745.848	-8.02
746.075	-5.6
746.301	-2.26
746.528	2.94
746.755	2.05
746.981	0.52
747.208	1.12
747.435	2.95
747.661	3.57
747.888	5.09
748.114	1.21
748.341	4.32
748.567	5.69
748.794	3.76
749.02	2.05
749.247	1.91
749.473	1.54
749.7	2.32
749.926	0.92
750.152	4.98
750.379	5.89
750.605	6.91
750.831	6.88
751.058	5.37
751.284	3.87
751.51	6.56
751.737	9.49
751.963	7.79
752.189	7.31
752.415	6.07
752.641	5.87
752.867	4.25
753.094	2.14
753.32	-0.69
753.546	-4.75
753.772	-2.99
753.998	-4.41
754.224	-5.31
754.45	-5.24
754.676	-6.05
754.902	-8.25
755.128	-6.03
755.354	-6.64
755.579	-5.24
755.805	-2.46
756.031	-3.66
756.257	-5.14
756.483	-6.87
756.709	-8.61
756.934	-7.04
757.16	-9.81
757.386	-9.06
757.612	-11.51
757.837	-12.48
758.063	-10.38
758.289	-8.07
758.514	-10.99
758.74	-16.86
758.965	-19.96
759.191	-18.9
759.416	-15.77
759.642	-15
759.868	-15.31
760.093	-11.62
760.318	-13.39
760.544	-13.02
760.769	-13.43
760.995	-13.75
761.22	-14.1
761.445	-12.39
761.671	-9.86
761.896	-6.57
762.121	-6.42
762.347	-7.05
762.572	-9.91
762.797	-10.92
763.022	-9.22
763.248	-4.27
763.473	-3.32
763.698	-3.78
763.923	-2.76
764.148	-3.8
764.373	-4.67
764.598	-2.5
764.823	-1.22
765.048	-4.82
765.273	-8.19
765.498	-8.36
765.723	-6.89
765.948	-4.11
766.173	-6.7
766.398	-7.21
766.623	-10.47
766.848	-10.34
767.073	-13.93
767.298	-14.47
767.522	-13.58
767.747	-12.39
767.972	-12.48
768.197	-11.61
768.421	-13
768.646	-17.74
768.871	-21.77
769.095	-22.04
769.32	-20.84
769.545	-21.11
769.769	-20.24
769.994	-19.53
770.218	-22.13
770.443	-21.11
770.667	-20.55
770.892	-21.27
771.116	-20.73
771.341	-18.18
771.565	-18.39
771.79	-17.73
772.014	-17.35
772.238	-18.36
772.463	-16.37
772.687	-16.44
772.911	-18.27
773.136	-21.17
773.36	-20.83
773.584	-18.22
773.808	-19.95
774.033	-18.9
774.257	-18.34
774.481	-20.45
774.705	-20.5
774.929	-20.92
775.153	-22.08
775.377	-21.14
775.602	-20.36
775.826	-18.55
776.05	-17.3
776.274	-18.9
776.498	-17.86
776.722	-18.62
776.945	-17.07
777.169	-19.47
777.393	-19.74
777.617	-19.99
777.841	-19.43
778.065	-18.25
778.289	-19.22
778.512	-20.19
778.736	-19.22
778.96	-19.82
779.184	-16.72
779.407	-16.49
779.631	-15.67
779.855	-16.17
780.078	-14.49
780.302	-16.17
780.526	-18.43
780.749	-16.85
780.973	-15.09
781.196	-12.72
781.42	-14.39
781.643	-14.14
781.867	-12.88
782.09	-16.11
782.314	-18.51
782.537	-18.23
782.76	-19.34
782.984	-18.41
783.207	-18.14
783.431	-18.83
783.654	-21.69
783.877	-25.5
784.1	-25.38
784.324	-26.42
784.547	-27.45
784.77	-30.96
784.993	-32.53
785.216	-33.96
785.44	-33.84
785.663	-35.86
785.886	-33.22
786.109	-33.76
786.332	-34.78
786.555	-33.82
786.778	-31.92
787.001	-31.53
787.224	-29.84
787.447	-28.78
787.67	-28.02
787.893	-29.6
788.116	-30.95
788.339	-28.38
788.561	-30.45
788.784	-34.31
789.007	-33.4
789.23	-33.82
789.453	-34.2
789.675	-34.65
789.898	-36.78
790.121	-38.7
790.344	-39.44
790.566	-35.63
790.789	-34.65
791.012	-33.63
791.234	-30.28
791.457	-25.73
791.679	-25.28
791.902	-24.19
792.124	-23.68
792.347	-25.25
792.569	-25.32
792.792	-28.4
793.014	-25.41
793.237	-23.73
793.459	-24.98
793.681	-25.23
793.904	-25.81
794.126	-28.37
794.348	-28.6
794.571	-27.76
794.793	-27.71
795.015	-27.29
795.237	-27.46
795.46	-25.88
795.682	-24.02
795.904	-21.89
796.126	-22.97
796.348	-22.17
796.57	-19.65
796.792	-17.89
797.014	-13.58
797.237	-11.06
797.459	-10.38
797.681	-9.3
797.903	-10.51
798.124	-10.82
798.346	-2.18
798.568	0.44
798.79	2.52
799.012	2.28
799.234	3.52
799.456	5.06
799.678	8.2
799.899	4.88
800.121	1.21
800.343	1.48
800.565	1.67
800.786	3.86
801.008	6.34
801.23	6.03
801.451	6.91
801.673	5.59
801.895	5.41
802.116	7.82
802.338	8.38
802.559	7.95
802.781	5.76
803.002	9.05
803.224	10.73
803.445	9.13
803.667	10.11
803.888	8.15
804.109	8
804.331	7.12
804.552	7.56
804.773	9.38
804.995	7.03
805.216	-5.42
805.437	-8.8
805.658	-10.83
805.88	-11.16
806.101	-9.05
806.322	-10.33
806.543	-12.71
806.764	-14.75
806.985	-11.58
807.207	-11.95
807.428	-12.06
807.649	-16.35
807.87	-17.81
808.091	-16.81
808.312	-16.98
808.533	-12.32
808.754	-10.29
808.975	-13.79
809.195	-11.32
809.416	-10.04
809.637	-9.92
809.858	-12.66
810.079	-14.78
810.3	-13.51
810.52	-15.38
810.741	-17.95
810.962	-20.06
811.183	-21.17
811.403	-20.86
811.624	-21.42
811.845	-19.79
812.065	-18.15
812.286	-16.49
812.506	-16.53
812.727	-15.83
812.948	-17.01
813.168	-14.83
813.389	-14.35
813.609	-11.9
813.83	-13.39
814.05	-13.94
814.27	-13.14
814.491	-9.29
814.711	-9.87
814.931	-13.1
815.152	-14.12
815.372	-17.16
815.592	-18.55
815.813	-18.28
816.033	-20.45
816.253	-20.13
816.473	-21.44
816.694	-20.22
816.914	-18.09
817.134	-18.5
817.354	-19.65
817.574	-19.08
817.794	-18.88
818.014	-19.45
818.234	-20.1
818.454	-22.04
818.674	-24.95
818.894	-27.64
819.114	-25.48
819.334	-25.29
819.554	-23.75
819.774	-21.5
819.994	-23.53
820.214	-24.21
820.433	-24.69
820.653	-26.04
820.873	-23.27
821.093	-22.71
821.312	-24.3
821.532	-21.78
821.752	-18.12
821.972	-18.75
822.191	-17.23
822.411	-19.28
822.63	-18.68
822.85	-17.89
823.07	-20.31
823.289	-18.76
823.509	-21.01
823.728	-19.98
823.948	-21.17
824.167	-22.03
824.387	-22.69
824.606	-20.72
824.825	-22.04
825.045	-21.45
825.264	-21.44
825.483	-19.48
825.703	-17.56
825.922	-20.48
826.141	-22.09
826.361	-23.86
826.58	-27.44
826.799	-28.74
827.018	-28.66
827.237	-28.2
827.456	-26.51
827.676	-27.46
827.895	-28.2
828.114	-26.66
828.333	-29.07
828.552	-29.1
828.771	-29.24
828.99	-32.21
829.209	-31.64
829.428	-28.73
829.647	-29.35
829.866	-28.45
830.084	-27.26
830.303	-26.69
830.522	-28.23
830.741	-28.65
830.96	-27.89
831.179	-27.88
831.397	-30.69
831.616	-29.5
831.835	-30.65
832.053	-28.99
832.272	-28.67
832.491	-28.12
832.709	-28.34
832.928	-27.43
833.147	-26.56
833.365	-24.34
833.584	-21.78
833.802	-18.98
834.021	-19.29
834.239	-16.68
834.458	-17.99
834.676	-21.76
834.894	-22.71
835.113	-21.86
835.331	-22.47
835.55	-22.83
835.768	-20.51
835.986	-19.35
836.204	-22.75
836.423	-22.32
836.641	-22.11
836.859	-24.84
837.077	-23.1
837.296	-22.71
837.514	-23.15
837.732	-23.73
837.95	-23.52
838.168	-20.4
838.386	-21.29
838.604	-19.65
838.822	-19.41
839.04	-19.42
839.258	-19.14
839.476	-17.93
839.694	-18.19
839.912	-19.11
840.13	-19.87
840.348	-17.74
840.566	-20.68
840.783	-17.93
841.001	-21.63
841.219	-20.65
841.437	-17.55
841.655	-17.73
841.872	-17.27
842.09	-18.31
842.308	-17.58
842.525	-18.42
842.743	-17.26
842.961	-18.47
843.178	-20.62
843.396	-18.23
843.613	-16.42
843.831	-16.06
844.048	-17.7
844.266	-17.21
844.483	-17.89
844.701	-18.15
844.918	-17.7
845.136	-18.32
845.353	-19.6
845.57	-19.35
845.788	-17.3
846.005	-19.37
846.222	-19.65
846.439	-17.81
846.657	-18.35
846.874	-17.95
847.091	-21.05
847.308	-19.04
847.526	-21.95
847.743	-20.31
847.96	-22.14
848.177	-21.67
848.394	-21.18
848.611	-22.4
848.828	-21.88
849.045	-21.4
849.262	-20.6
849.479	-21.62
849.696	-22.27
849.913	-22.53
850.13	-26.49
850.347	-24.75
850.564	-24.56
850.78	-24.7
850.997	-26
851.214	-25.19
851.431	-24.43
851.647	-27.88
851.864	-25.83
852.081	-24.87
852.298	-27.42
852.514	-28.94
852.731	-27.05
852.948	-25.78
853.164	-25.41
853.381	-24.33
853.597	-26.21
853.814	-27.25
854.03	-31.25
854.247	-28.69
854.463	-30.01
854.68	-30.56
854.896	-30.56
855.113	-30.87
855.329	-29.63
855.545	-28.8
855.762	-30.17
855.978	-34.56
856.194	-36.87
856.411	-31.56
856.627	-30.78
856.843	-30.53
857.059	-27.02
857.275	-28.06
857.492	-27.25
857.708	-22.67
857.924	-20.94
858.14	-18.38
858.356	-18.55
858.572	-19.5
858.788	-19.79
859.004	-18.95
859.22	-20.54
859.436	-21.5
859.652	-22.34
859.868	-24.18
860.084	-24.99
860.3	-22.94
860.516	-22.51
860.731	-20.37
860.947	-24.02
861.163	-21.79
861.379	-20.38
861.595	-20.37
861.81	-19.35
862.026	-19.45
862.242	-19.11
862.457	-19.56
862.673	-15.95
862.889	-14.86
863.104	-15.48
863.32	-14.88
863.535	-13.06
863.751	-19.02
863.966	-17.14
864.182	-16.25
864.397	-19.55
864.613	-21.8
864.828	-23.67
865.044	-23.24
865.259	-21.58
865.474	-22.11
865.69	-20.15
865.905	-20.1
866.12	-21.75
866.336	-21.82
866.551	-20.26
866.766	-20.72
866.981	-23.24
867.196	-23.24
867.412	-22.7
867.627	-22.37
867.842	-23.65
868.057	-24.3
868.272	-24.6
868.487	-26.66
868.702	-28.25
868.917	-28.95
869.132	-26.21
869.347	-26.65
869.562	-27.17
869.777	-28.71
869.992	-29.34
870.207	-30.13
870.422	-30.12
870.636	-32.13
870.851	-33.07
871.066	-34.78
871.281	-34.65
871.495	-36.03
871.71	-32.3
871.925	-35.28
872.14	-36.5
872.354	-38.52
872.569	-38.35
872.783	-35.68
872.998	-35.35
873.213	-36.6
873.427	-33.97
873.642	-32.68
873.856	-32.48
874.071	-32.6
874.285	-32.24
874.5	-33.08
874.714	-33.82
874.928	-33.25
875.143	-33.13
875.357	-33.45
875.571	-33.8
875.786	-34.48
876	-32.26
876.214	-31.21
876.429	-32.99
876.643	-32.73
876.857	-31.35
877.071	-30.26
877.285	-29.96
877.499	-32.41
877.714	-28.48
877.928	-24.52
878.142	-25.48
878.356	-28.82
878.57	-27.26
878.784	-25.98
878.998	-27.4
879.212	-25.1
879.426	-26.83
879.639	-27.17
879.853	-28.19
880.067	-29.01
880.281	-30.24
880.495	-27.7
880.709	-25.96
880.922	-24.78
881.136	-24.46
881.35	-21.87
881.564	-22.83
881.777	-24.52
881.991	-22.2
882.205	-20.73
882.418	-20.62
882.632	-22.97
882.845	-23.18
883.059	-23
883.273	-22.35
883.486	-23.7
883.7	-21.5
883.913	-22.15
884.126	-20.68
884.34	-24.64
884.553	-28.26
884.767	-24.01
884.98	-23.05
885.193	-24.44
885.407	-25.13
885.62	-21.72
885.833	-21.98
886.046	-20.37
886.26	-20.4
886.473	-20.5
886.686	-20.21
886.899	-17.3
887.112	-19.44
887.326	-23.23
887.539	-22.67
887.752	-21.36
887.965	-24.33
888.178	-23
888.391	-21.88
888.604	-23.4
888.817	-25.05
889.03	-24.41
889.243	-25.13
889.455	-26.58
889.668	-25.12
889.881	-23.23
890.094	-24.1
890.307	-27.59
890.52	-26.45
890.732	-25.3
890.945	-24.76
891.158	-25.25
891.37	-27.94
891.583	-26.87
891.796	-24.16
892.008	-25.12
892.221	-26.86
892.434	-30.43
892.646	-32.52
892.859	-33.47
893.071	-32.82
893.284	-31.22
893.496	-33.47
893.709	-33.7
893.921	-30.87
894.133	-31.59
894.346	-32.93
894.558	-32.28
894.771	-33.2
894.983	-30.47
895.195	-28.67
895.407	-27.12
895.62	-29.75
895.832	-28.77
896.044	-26.32
896.256	-26.57
896.468	-29.12
896.681	-26.68
896.893	-24.6
897.105	-24.72
897.317	-25.83
897.529	-24.61
897.741	-22.84
897.953	-20.34
898.165	-24.16
898.377	-27
898.589	-25.05
898.801	-26.71
899.013	-24.16
899.224	-20.77
899.436	-18.7
899.648	-18.67
899.86	-21.79
900.072	-19.39
900.283	-17.59
900.495	-17.27
900.707	-16.95
900.919	-18.08
901.13	-16.79
901.342	-18.93
901.554	-20.38
901.765	-21.11
901.977	-24.1
902.188	-24.78
902.4	-27.08
902.611	-29.03
902.823	-31.35
903.034	-32.41
903.246	-35.09
903.457	-35.06
903.669	-36.73
903.88	-36.94
904.091	-36.74
904.303	-36.77
904.514	-38.5
904.725	-35.05
904.936	-33.58
905.148	-34.61
905.359	-31.78
905.57	-33.08
905.781	-35.25
905.992	-36.3
906.204	-34.67
906.415	-34.25
906.626	-35.98
906.837	-34.94
907.048	-36.91
907.259	-37.85
907.47	-39.65
907.681	-41.21
907.892	-37.84
908.103	-39.16
908.314	-41.31
908.525	-38.62
908.735	-38.05
908.946	-37.06
909.157	-37.17
909.368	-33.29
909.579	-31.42
909.789	-32.85
910	-35.39
910.211	-32.3
910.421	-32.6
910.632	-31.32
910.843	-33.3
911.053	-30.22
911.264	-28.86
911.475	-28.89
911.685	-27.63
911.896	-27.13
912.106	-25.83
912.317	-26.92
912.527	-25.12
912.737	-26.95
912.948	-25.93
913.158	-25.62
913.369	-27.78
913.579	-24.86
913.789	-24.56
914	-20.25
914.21	-20.08
914.42	-20.47
914.63	-20.36
914.841	-18.45
915.051	-17.66
915.261	-15.99
915.471	-14.09
915.681	-13.5
915.891	-14.71
916.101	-17.01
916.311	-15.32
916.521	-13.69
916.731	-13.79
916.941	-11.29
917.151	-12.28
917.361	-10.57
917.571	-14.3
917.781	-14.9
917.991	-17.92
918.201	-18.22
918.411	-21.27
918.621	-21.86
918.83	-20.97
919.04	-22.87
919.25	-20.5
919.46	-18.91
919.669	-21.01
919.879	-21.33
920.089	-23.09
920.298	-23.18
920.508	-21.7
920.717	-20.38
920.927	-21.36
921.136	-20.36
921.346	-22.69
921.555	-24.2
921.765	-24.8
921.974	-26.23
922.184	-29.02
922.393	-29.29
922.603	-30.09
922.812	-27.69
923.021	-28.83
923.23	-30.36
923.44	-32.13
923.649	-32.13
923.858	-31.78
924.067	-30.9
924.277	-34.23
924.486	-31.23
924.695	-32.48
924.904	-30.36
925.113	-31.27
925.322	-30.47
925.531	-30.1
925.74	-33.24
925.949	-34.14
926.158	-32.68
926.367	-32.34
926.576	-31.12
926.785	-32.28
926.994	-35.03
927.203	-34.42
927.412	-35.36
927.621	-36.39
927.83	-34.34
928.038	-35.39
928.247	-34.77
928.456	-34.57
928.665	-33.06
928.873	-32.18
929.082	-29.87
929.291	-29.59
929.499	-28.14
929.708	-29.25
929.916	-29.29
930.125	-30.69
930.333	-32.33
930.542	-30.61
930.75	-26.24
930.959	-25.47
931.167	-25.16
931.376	-25.35
931.584	-23.05
931.793	-23.12
932.001	-23.09
932.209	-24.11
932.418	-26.84
932.626	-27.31
932.834	-29.98
933.042	-32.53
933.251	-31.62
933.459	-32.18
933.667	-33.17
933.875	-32.95
934.083	-31.32
934.291	-30.8
934.499	-29.7
934.707	-31.02
934.915	-31.06
935.123	-28.98
935.331	-29.89
935.539	-31.72
935.747	-33.9
935.955	-34.31
936.163	-33.98
936.371	-34.01
936.579	-31.16
936.787	-31.38
936.995	-33.27
937.202	-36.7
937.41	-35.78
937.618	-34.71
937.826	-33.74
938.033	-38.03
938.241	-39.19
938.449	-36.68
938.656	-33.86
938.864	-34.7
939.071	-34.67
939.279	-30.7
939.486	-28.78
939.694	-28.84
939.901	-30.56
940.109	-30.06
940.316	-29.49
940.524	-30.43
940.731	-31.51
940.939	-30.79
941.146	-30.22
941.353	-30.86
941.561	-30.65
941.768	-31.53
941.975	-30.26
942.182	-30.67
942.39	-30.54
942.597	-28.11
942.804	-27.73
943.011	-29.79
943.218	-28.12
943.425	-27.68
943.632	-26.99
943.839	-29
944.046	-30.96
944.253	-31.12
944.46	-30.02
944.667	-26
944.874	-27.4
945.081	-25.11
945.288	-22.75
945.495	-20.77
945.702	-20.54
945.909	-22.84
946.115	-22.53
946.322	-22.19
946.529	-23.6
946.736	-23.03
946.942	-21.03
947.149	-21.17
947.356	-22.32
947.562	-24.5
947.769	-24.35
947.976	-26.48
948.182	-24.84
948.389	-25.88
948.595	-24.52
948.802	-23.24
949.008	-24.72
949.215	-23.77
949.421	-23.43
949.628	-25.42
949.834	-25.84
950.04	-26.17
950.247	-23.3
950.453	-21.35
950.659	-23.67
950.865	-21.71
951.072	-27.49
951.278	-25.7
951.484	-28.66
951.69	-31.84
951.896	-33.05
952.103	-35.52
952.309	-32.81
952.515	-32.95
952.721	-30.38
952.927	-28.2
953.133	-28.81
953.339	-30.71
953.545	-30.54
953.751	-29.34
953.957	-27.13
954.163	-28
954.369	-26.75
954.574	-29.07
954.78	-28.52
954.986	-27.65
955.192	-27.61
955.398	-28.86
955.603	-30.23
955.809	-28.54
956.015	-27.03
956.22	-25.85
956.426	-23.86
956.632	-27.57
956.837	-27.55
957.043	-26.61
957.248	-26.26
957.454	-25.06
957.66	-27.3
957.865	-26.88
958.07	-24.17
958.276	-24.87
958.481	-25.33
958.687	-27.85
958.892	-28.15
959.097	-28.58
959.303	-28.8
959.508	-30.18
959.713	-29.06
959.919	-30.31
960.124	-31.42
960.329	-30.11
960.534	-26.83
960.739	-25.73
960.945	-24.12
961.15	-24.61
961.355	-25.88
961.56	-27.83
961.765	-28.93
961.97	-28.75
962.175	-27.56
962.38	-30.14
962.585	-30.19
962.79	-33.31
962.995	-32.36
963.2	-34.76
963.404	-34.48
963.609	-37.7
963.814	-38.59
964.019	-41.14
964.224	-42.6
964.428	-41.02
964.633	-39.54
964.838	-38.31
965.042	-37.37
965.247	-38.81
965.452	-38.38
965.656	-36.47
965.861	-34.42
966.066	-36.54
966.27	-33.46
966.475	-28.82
966.679	-32.3
966.884	-32.86
967.088	-35.05
967.292	-35.13
967.497	-34.29
967.701	-34.66
967.906	-34.19
968.11	-30.04
968.314	-27.36
968.518	-29.12
968.723	-26.84
968.927	-25.49
969.131	-22.7
969.335	-20.5
969.539	-20.06
969.744	-19.1
969.948	-16.06
970.152	-14.13
970.356	-12.84
970.56	-13.58
970.764	-15.58
970.968	-13.44
971.172	-12.16
971.376	-10.95
971.58	-9.41
971.784	-9.77
971.988	-11.16
972.192	-10.59
972.395	-10.43
972.599	-12.84
972.803	-15.64
973.007	-14.43
973.21	-14.48
973.414	-15.09
973.618	-15.02
973.822	-15.08
974.025	-14.81
974.229	-14.92
974.432	-18.19
974.636	-20.2
974.84	-20.21
975.043	-20.86
975.247	-23.64
975.45	-25.46
975.654	-25.5
975.857	-23.6
976.06	-24.61
976.264	-26.04
976.467	-24.47
976.671	-24.97
976.874	-22.83
977.077	-23.08
977.28	-24.99
977.484	-27.59
977.687	-29.78
977.89	-29
978.093	-29.61
978.297	-29.92
978.5	-32.04
978.703	-30.38
978.906	-29.03
979.109	-29.16
979.312	-27.54
979.515	-28.77
979.718	-27.35
979.921	-27.44
980.124	-29.09
980.327	-29.78
980.53	-28.63
980.733	-26.93
980.936	-24.98
981.138	-25.74
981.341	-25.35
981.544	-23.29
981.747	-24.75
981.949	-26.31
982.152	-25.99
982.355	-26.44
982.558	-23.35
982.76	-27.05
982.963	-27.38
983.165	-26.85
983.368	-27.08
983.571	-27.27
983.773	-24.71
983.976	-22.2
984.178	-20.6
984.381	-20.93
984.583	-24.34
984.785	-23.33
984.988	-22.24
985.19	-20.21
985.392	-21.94
985.595	-25.64
985.797	-24.97
985.999	-23.43
986.202	-22.1
986.404	-21.7
986.606	-18.76
986.808	-20.49
987.01	-19.42
987.212	-20.36
987.415	-22.29
987.617	-21.39
987.819	-24.34
988.021	-22.82
988.223	-24.67
988.425	-26.23
988.627	-26.61
988.829	-31.65
989.031	-28.9
989.232	-30.23
989.434	-29.45
989.636	-29.06
989.838	-30.53
990.04	-29.66
990.242	-31.86
990.443	-34.41
990.645	-31.91
990.847	-29.33
991.048	-29.24
991.25	-31.81
991.452	-33.5
991.653	-34.96
991.855	-34.33
992.057	-35.77
992.258	-36.08
992.46	-37.29
992.661	-36.47
992.863	-38.33
993.064	-37.32
993.265	-38.63
993.467	-40.95
993.668	-37.85
993.87	-37.64
994.071	-36.69
994.272	-36.6
994.473	-34.68
994.675	-33.37
994.876	-32.29
995.077	-30.8
995.278	-29.95
995.48	-27.38
995.681	-29.76
995.882	-27.99
996.083	-27.33
996.284	-30.64
996.485	-29.16
996.686	-30.44
996.887	-32.1
997.088	-34.77
997.289	-35.87
997.49	-35.11
997.691	-36.3
997.892	-35.51
998.092	-30.17
998.293	-28.67
998.494	-27.89
998.695	-27.73
998.896	-26.4
999.096	-26.6
999.297	-26.41
999.498	-28.83
999.698	-30.09
999.899	-33.43
1000.1	-36.11
1000.3	-36.07
1000.501	-37.02
1000.701	-37.26
1000.902	-37.93
1001.102	-38.2
1001.303	-35.82
1001.503	-38.59
1001.704	-38.48
1001.904	-39.18
1002.105	-40.48
1002.305	-39.79
1002.505	-41.09
1002.706	-41.29
1002.906	-40.3
1003.106	-41.57
1003.306	-40.05
1003.507	-38.96
1003.707	-39.49
1003.907	-36.48
1004.107	-34.88
1004.307	-38.13
1004.507	-36.41
1004.707	-37.66
1004.907	-39.6
1005.107	-39.41
1005.308	-39.34
1005.507	-41.4
1005.707	-37.47
1005.907	-37.84
1006.107	-33.79
1006.307	-30.44
1006.507	-31.09
1006.707	-29.23
1006.907	-27.59
1007.106	-28.69
1007.306	-29.46
1007.506	-29.95
1007.706	-29.42
1007.905	-31.05
1008.105	-30.4
1008.305	-31.74
1008.504	-31.96
1008.704	-25.49
1008.903	-26.06
1009.103	-24.98
1009.303	-26.24
1009.502	-24.39
1009.702	-24.49
1009.901	-24.53
1010.1	-27.31
1010.3	-26.52
1010.499	-26.73
1010.699	-28.73
1010.898	-30.45
1011.097	-29.1
1011.296	-29.88
1011.496	-29.75
1011.695	-30.37
1011.894	-31.95
1012.093	-28.37
1012.293	-30.2
1012.492	-31.94
1012.691	-31.91
1012.89	-32.36
1013.089	-34.18
1013.288	-33.14
1013.487	-32.59
1013.686	-33.1
1013.885	-34.89
1014.084	-33.64
1014.283	-34.42
1014.482	-34.32
1014.681	-34.34
1014.88	-39.3
1015.078	-37.34
1015.277	-38.54
1015.476	-39
1015.675	-39.84
1015.873	-38.87
1016.072	-40.27
1016.271	-37.38
1016.47	-40.4
1016.668	-40.28
1016.867	-40.89
1017.065	-41.84
1017.264	-42.86
1017.463	-43.19
1017.661	-43.7
1017.86	-42.33
1018.058	-42.08
1018.256	-43.43
1018.455	-44.04
1018.653	-43.54
1018.852	-42.77
1019.05	-45.02
1019.248	-47.2
1019.447	-46.98
1019.645	-46.96
1019.843	-48.71
1020.041	-46.32
1020.24	-46.87
1020.438	-42.37
1020.636	-42.48
1020.834	-45.02
1021.032	-42.91
1021.23	-45.38
1021.428	-45.05
1021.626	-42.03
1021.824	-42.54
1022.022	-43.32
1022.22	-39.67
1022.418	-39.09
1022.616	-39.64
1022.814	-40.12
1023.012	-41.46
1023.21	-39.18
1023.408	-39.31
1023.606	-39.61
1023.803	-35.02
1024.001	-34.44
1024.199	-36.41
1024.397	-36.17
1024.594	-35.61
1024.792	-37.06
1024.99	-36.26
1025.187	-34.94
1025.385	-31.73
1025.582	-31.5
1025.78	-31.82
1025.977	-30.28
1026.175	-31.18
1026.372	-31.07
1026.57	-35.23
1026.767	-32.65
1026.965	-30.56
1027.162	-29.97
1027.359	-30.62
1027.557	-29.11
1027.754	-31.4
1027.951	-32.56
1028.148	-31.85
1028.346	-34.34
1028.543	-37.32
1028.74	-36.42
1028.937	-38.11
1029.134	-38.54
1029.331	-39.86
1029.528	-38.36
1029.725	-39.06
1029.923	-43.13
1030.12	-39.86
1030.317	-39.3
1030.513	-37.89
1030.71	-36.38
1030.907	-33.25
1031.104	-34.72
1031.301	-35.73
1031.498	-34.78
1031.695	-35.34
1031.892	-34.52
1032.088	-35.22
1032.285	-35.29
1032.482	-36.31
1032.678	-37.64
1032.875	-39.5
1033.072	-39.45
1033.268	-41.43
1033.465	-40.29
1033.662	-42.94
1033.858	-42.24
1034.055	-41.29
1034.251	-38.56
1034.448	-39.1
1034.644	-38.99
1034.84	-36.86
1035.037	-34.66
1035.233	-32.76
1035.43	-30.38
1035.626	-31.55
1035.822	-30.1
1036.019	-30.43
1036.215	-34.74
1036.411	-34.92
1036.607	-35.38
1036.803	-38.89
1037	-39.41
1037.196	-39.61
1037.392	-39.88
1037.588	-42.27
1037.784	-41.54
1037.98	-43.17
1038.176	-42.45
1038.372	-43.3
1038.568	-41.34
1038.764	-37.7
1038.96	-35.3
1039.156	-36.6
1039.352	-36.8
1039.547	-35.3
1039.743	-34.94
1039.939	-32.2
1040.135	-33.24
1040.331	-34.84
1040.526	-33.05
1040.722	-33.55
1040.918	-35.34
1041.113	-38.24
1041.309	-38.61
1041.505	-41.17
1041.7	-40.79
1041.896	-40.78
1042.091	-40.51
1042.287	-38.88
1042.482	-37.8
1042.678	-38.96
1042.873	-37.37
1043.069	-39.1
1043.264	-38.45
1043.459	-36.77
1043.655	-35.92
1043.85	-36.88
1044.045	-34.82
1044.24	-34.78
1044.436	-32.3
1044.631	-33.23
1044.826	-35.65
1045.021	-39.28
1045.216	-37.45
