Data from FLMT021711__22__17-57-08-857.txt Node

Date: Tue Nov 05 17:57:08 CET 2024
User: Etudiants TP
Spectrometer: FLMT02171
Trigger mode: 0
Integration Time (sec): 1,000000E-1
Scans to average: 5
Electric dark correction enabled: true
Nonlinearity correction enabled: false
Boxcar width: 15
XAxis mode: Wavelengths
Number of Pixels in Spectrum: 3648
>>>>>Begin Spectral Data<<<<<
194,658	-66,68
194,923	-63,72
195,188	-56,03
195,453	-56,61
195,717	-52,79
195,982	-50,28
196,247	-48,02
196,512	-50,14
196,777	-48,68
197,042	-45,58
197,307	-46,13
197,572	-40,36
197,837	-39,83
198,101	-37,4
198,366	-35,45
198,631	-33,36
198,896	-27,84
199,161	-21,21
199,425	-14,39
199,69	-4,13
199,955	-3,33
200,22	-6,19
200,484	-7,6
200,749	-6,4
201,014	-5,67
201,278	-5,18
201,543	-3,85
201,807	-5,33
202,072	-3,91
202,337	-4,62
202,601	-5,11
202,866	-6,42
203,13	-5,3
203,395	-8,13
203,659	-7,01
203,924	-7,34
204,189	-6,82
204,453	-6,57
204,717	-2,99
204,982	-1,45
205,246	-1,02
205,511	1,08
205,775	-1,54
206,04	3,14
206,304	3,32
206,568	5,94
206,833	4,97
207,097	7,73
207,361	9,35
207,626	14,03
207,89	14,86
208,154	15,34
208,419	17,06
208,683	17,92
208,947	19,89
209,211	19,63
209,476	19,39
209,74	20,54
210,004	21,9
210,268	22,64
210,532	25,57
210,796	26,45
211,061	27,15
211,325	26,27
211,589	25,81
211,853	27,01
212,117	26,36
212,381	25,37
212,645	26,31
212,909	24,82
213,173	21,83
213,437	23,64
213,701	24,73
213,965	25,35
214,229	20,63
214,493	20,79
214,757	19,09
215,021	20,24
215,285	22,33
215,549	25,32
215,813	21,66
216,077	20,69
216,34	22,83
216,604	20,68
216,868	22,18
217,132	23,66
217,396	23,48
217,659	23,62
217,923	18,48
218,187	17,23
218,451	16,33
218,714	13,98
218,978	14,15
219,242	15,2
219,505	16,22
219,769	18
220,033	17,74
220,296	20,63
220,56	22,61
220,824	18,88
221,087	20,23
221,351	20,45
221,614	18,12
221,878	20,4
222,142	19,43
222,405	20,73
222,669	23,64
222,932	19,82
223,196	18,46
223,459	16,14
223,722	16,45
223,986	16,03
224,249	15,11
224,513	13,73
224,776	15,63
225,04	13,91
225,303	12,67
225,566	12,6
225,83	14,36
226,093	17,35
226,356	15,68
226,62	13,58
226,883	15,7
227,146	16,46
227,409	16,98
227,673	16,07
227,936	14,23
228,199	14,31
228,462	10,76
228,725	9,39
228,989	11,75
229,252	11,71
229,515	17,01
229,778	14,87
230,041	12,95
230,304	11,45
230,567	11,48
230,83	6,74
231,093	9,93
231,356	9,14
231,619	13,6
231,882	12,35
232,145	15
232,408	14,87
232,671	14,32
232,934	12,77
233,197	11,02
233,46	10,98
233,723	12,7
233,986	10,07
234,249	8,21
234,512	11,11
234,775	15,68
235,037	13,98
235,3	13,23
235,563	13,07
235,826	13,19
236,089	15,7
236,351	15,38
236,614	18,61
236,877	19,73
237,14	21,03
237,402	21,36
237,665	14,73
237,928	15,13
238,19	12,54
238,453	14,59
238,716	14,29
238,978	16,07
239,241	14,56
239,503	16,81
239,766	12,4
240,029	11,14
240,291	13,83
240,554	13,44
240,816	12,78
241,079	13,03
241,341	12,87
241,604	10,16
241,866	5,92
242,129	7,8
242,391	10,76
242,653	9,45
242,916	8,56
243,178	8,22
243,441	9,39
243,703	8,4
243,965	6,66
244,228	6,11
244,49	5,98
244,752	6,06
245,015	5,96
245,277	8,65
245,539	7,86
245,801	9,48
246,064	9,1
246,326	8,05
246,588	7,41
246,85	9,15
247,112	9,16
247,374	10,7
247,637	13,37
247,899	14,55
248,161	13,54
248,423	8,55
248,685	8,88
248,947	9,59
249,209	9,61
249,471	12,12
249,733	13,64
249,995	12,53
250,257	12,6
250,519	10,87
250,781	14,35
251,043	9,34
251,305	11,84
251,567	13,31
251,829	14,39
252,091	13,92
252,353	10,89
252,615	11,24
252,876	8,75
253,138	7,11
253,4	2
253,662	3,03
253,924	5,53
254,185	8,05
254,447	8,02
254,709	7,86
254,971	9,32
255,232	10,55
255,494	9,21
255,756	6,67
256,017	7,26
256,279	8,54
256,541	8,33
256,802	8,16
257,064	8,53
257,326	7,49
257,587	8,73
257,849	9,34
258,11	12,53
258,372	12,85
258,633	13,43
258,895	11,51
259,156	13,02
259,418	10,9
259,679	5,79
259,941	3,29
260,202	7,04
260,464	9,36
260,725	8,39
260,987	8,14
261,248	7,97
261,509	10,02
261,771	8,18
262,032	9,99
262,293	10,08
262,555	11,56
262,816	10,87
263,077	7,68
263,338	6,67
263,6	7,17
263,861	6,58
264,122	5,31
264,383	6,75
264,645	7,85
264,906	7,88
265,167	9,47
265,428	9,25
265,689	8,44
265,95	8,42
266,211	10,79
266,473	8,22
266,734	5,39
266,995	4,06
267,256	5,79
267,517	10,05
267,778	13,37
268,039	15,28
268,3	14,1
268,561	11,4
268,822	15,07
269,083	12,96
269,344	11,8
269,604	11,12
269,865	11,51
270,126	7,61
270,387	6,96
270,648	8,56
270,909	9,3
271,17	9,09
271,43	5,87
271,691	3,48
271,952	1,69
272,213	3,99
272,473	2,46
272,734	3,92
272,995	4,37
273,256	4
273,516	6,16
273,777	2,72
274,038	3,46
274,298	-0,41
274,559	0,73
274,82	5,94
275,08	8,88
275,341	9,78
275,601	6,65
275,862	6,22
276,122	5,19
276,383	5,46
276,643	7,43
276,904	6,04
277,164	10,88
277,425	11,88
277,685	15,31
277,946	15,74
278,206	16,76
278,467	19,38
278,727	19,23
278,987	17,22
279,248	16,24
279,508	18,66
279,768	21,85
280,029	24,02
280,289	20,16
280,549	18,15
280,81	17
281,07	17,15
281,33	18,43
281,59	16,57
281,851	20,34
282,111	19,99
282,371	19,99
282,631	21,21
282,891	18,95
283,151	15,91
283,412	13,84
283,672	13,71
283,932	13,14
284,192	16,25
284,452	14,23
284,712	11,72
284,972	9,01
285,232	6,47
285,492	8,73
285,752	6,39
286,012	13,26
286,272	15,33
286,532	11,2
286,792	9,93
287,052	13,39
287,312	15,16
287,571	12,26
287,831	13,44
288,091	9,95
288,351	10,8
288,611	15,25
288,871	15,22
289,13	14,15
289,39	10,12
289,65	12,45
289,91	9,22
290,17	11,11
290,429	14,18
290,689	11,85
290,949	9,64
291,208	10,4
291,468	13,55
291,728	14,59
291,987	17,11
292,247	14,67
292,506	17,8
292,766	22,09
293,026	21,85
293,285	22,58
293,545	23,96
293,804	23,71
294,064	19,56
294,323	17,19
294,583	18,53
294,842	19,46
295,102	19,15
295,361	18,63
295,621	19,46
295,88	19,58
296,139	20,08
296,399	20,85
296,658	15,45
296,917	16,7
297,177	14,73
297,436	15,74
297,695	14,22
297,955	16,3
298,214	14,36
298,473	14,68
298,732	17,07
298,992	19,39
299,251	18,77
299,51	15,45
299,769	16,39
300,028	15,18
300,287	14,79
300,547	14,83
300,806	11,34
301,065	15,28
301,324	16,94
301,583	13,55
301,842	9,54
302,101	6,07
302,36	6,55
302,619	5,57
302,878	6,86
303,137	4,25
303,396	4,24
303,655	7,54
303,914	3,12
304,173	4,96
304,432	4,91
304,691	9,27
304,95	5,14
305,208	9,67
305,467	11,23
305,726	9,85
305,985	10,86
306,244	13,89
306,503	12,95
306,761	10,76
307,02	7,72
307,279	8,49
307,537	9,24
307,796	4,71
308,055	2,74
308,314	4,94
308,572	0,74
308,831	2,18
309,09	1,38
309,348	0,83
309,607	0,38
309,865	4,61
310,124	5,78
310,382	7,44
310,641	8,57
310,9	6,32
311,158	7,61
311,417	8,8
311,675	7,86
311,933	10,23
312,192	10,43
312,45	10,17
312,709	9,26
312,967	9,88
313,226	9,41
313,484	7,94
313,742	6,99
314,001	5,29
314,259	2,56
314,517	4,07
314,776	6,7
315,034	9,66
315,292	8,06
315,55	4,41
315,809	6,12
316,067	6,01
316,325	3,57
316,583	5,63
316,841	5,87
317,1	3,53
317,358	1,19
317,616	0,92
317,874	-0,43
318,132	-1,93
318,39	-2,9
318,648	-3,6
318,906	-4,5
319,164	-5,56
319,422	-7,25
319,68	-8,4
319,938	-9,34
320,196	-9,31
320,454	-8,73
320,712	-8,28
320,97	-7,44
321,228	-10,45
321,486	-9
321,744	-7,71
322,002	-6,16
322,26	-8,05
322,517	-9,04
322,775	-11,48
323,033	-12,5
323,291	-11,19
323,549	-8,47
323,806	-6,02
324,064	-5,68
324,322	-3,72
324,58	-4,36
324,837	-2,6
325,095	-3,15
325,353	-2,78
325,61	-1,07
325,868	-1,29
326,126	1
326,383	-0,3
326,641	-0,74
326,898	1,31
327,156	1,69
327,413	1,29
327,671	1,05
327,928	3,34
328,186	4,75
328,443	3,41
328,701	5,75
328,958	6,4
329,216	7,55
329,473	6,17
329,731	7,97
329,988	8,62
330,245	12,18
330,503	13,88
330,76	13,6
331,017	14,93
331,275	13,2
331,532	14,73
331,789	12,06
332,047	12,49
332,304	8,85
332,561	9,99
332,818	7,67
333,076	9,51
333,333	11,41
333,59	11,02
333,847	11,85
334,104	10,78
334,361	10,03
334,618	8,84
334,876	7,44
335,133	7,13
335,39	7,11
335,647	9,43
335,904	5,6
336,161	1,99
336,418	2,82
336,675	-1,4
336,932	0,61
337,189	-0,77
337,446	0,7
337,703	-0,22
337,96	-4,22
338,216	-4,77
338,473	-8,56
338,73	-7,34
338,987	-6,93
339,244	-3,33
339,501	-7,28
339,757	-7,31
340,014	-5,06
340,271	-3,13
340,528	-3,39
340,785	0,65
341,041	0,23
341,298	-3,26
341,555	-2,4
341,811	-2,23
342,068	-3,9
342,325	-3,1
342,581	-0,46
342,838	0,02
343,094	0,14
343,351	-0,31
343,608	-3,73
343,864	-1,03
344,121	0,91
344,377	0,26
344,634	-0,26
344,89	-2,77
345,147	-2,3
345,403	-4,08
345,66	-4,86
345,916	-3,61
346,172	-5,56
346,429	-5,7
346,685	-7,6
346,942	-8,57
347,198	-12,45
347,454	-8,6
347,711	-8,92
347,967	-13,92
348,223	-12,8
348,48	-13,04
348,736	-10,45
348,992	-10,88
349,248	-7,26
349,504	-8,29
349,761	-8,81
350,017	-8,63
350,273	-9,44
350,529	-9,93
350,785	-9,98
351,041	-10,52
351,297	-9
351,554	-9,51
351,81	-11,1
352,066	-12,16
352,322	-12,43
352,578	-11,5
352,834	-12,01
353,09	-12,26
353,346	-12,8
353,602	-14,58
353,858	-15,38
354,114	-16,23
354,369	-14,54
354,625	-12,74
354,881	-14,14
355,137	-10,67
355,393	-12,17
355,649	-10,74
355,905	-8,33
356,16	-8,16
356,416	-7,68
356,672	-14,32
356,928	-14,31
357,183	-15,01
357,439	-14,62
357,695	-15,56
357,951	-10,89
358,206	-10,9
358,462	-11,87
358,718	-13,23
358,973	-11,56
359,229	-11,08
359,484	-10,37
359,74	-7,3
359,996	-6,87
360,251	-3,25
360,507	-3,55
360,762	-3,24
361,018	-0,72
361,273	-2,2
361,529	-0,56
361,784	0,2
362,04	1,5
362,295	-0,92
362,55	0,32
362,806	3,21
363,061	2,29
363,316	3,45
363,572	2,94
363,827	5,39
364,082	1,99
364,338	1,16
364,593	1,19
364,848	2,35
365,104	1,14
365,359	3,66
365,614	4,77
365,869	1,68
366,124	3
366,38	2,74
366,635	5,2
366,89	6,48
367,145	5,57
367,4	10,08
367,655	9,42
367,91	9,05
368,165	6,77
368,42	3,4
368,675	3,46
368,93	4,14
369,185	2,57
369,44	2,85
369,695	5,28
369,95	4,67
370,205	5,75
370,46	4,7
370,715	3,91
370,97	5,09
371,225	4,57
371,48	5,72
371,734	3,82
371,989	6,52
372,244	7,07
372,499	9,19
372,754	8,28
373,008	5,51
373,263	-0,03
373,518	3,04
373,773	1,81
374,027	0,22
374,282	2,73
374,537	2,9
374,791	2,79
375,046	0,61
375,301	-1,4
375,555	-2,91
375,81	-0,51
376,064	-0,45
376,319	4,89
376,573	4,51
376,828	1,76
377,082	6,17
377,337	4,02
377,591	1,39
377,846	2,79
378,1	5,62
378,355	5,64
378,609	5,09
378,863	1,48
379,118	2,65
379,372	1,02
379,627	-0,96
379,881	-3,46
380,135	-2,62
380,389	-2,17
380,644	-1,43
380,898	0,43
381,152	3,25
381,407	1,14
381,661	2,44
381,915	4,79
382,169	4,39
382,423	3,27
382,677	1,5
382,932	3,06
383,186	3,2
383,44	3,67
383,694	5,94
383,948	4,93
384,202	3,99
384,456	6,76
384,71	7,51
384,964	5,41
385,218	7,72
385,472	8,78
385,726	7,62
385,98	7,16
386,234	6,57
386,488	3,29
386,742	4,87
386,996	2,38
387,249	4,84
387,503	8,07
387,757	9,33
388,011	9,53
388,265	8,81
388,518	9,74
388,772	11,31
389,026	11,78
389,28	8,41
389,533	8,24
389,787	9,91
390,041	7,32
390,295	7,35
390,548	7,3
390,802	10,85
391,055	10,77
391,309	10,51
391,563	6,13
391,816	7,18
392,07	5,66
392,323	5,99
392,577	7,19
392,83	8,92
393,084	15,46
393,337	18,3
393,591	20,3
393,844	20,46
394,098	25,36
394,351	30,67
394,604	31,91
394,858	34,72
395,111	33,43
395,364	31,16
395,618	32,73
395,871	30,06
396,124	28,44
396,378	26,56
396,631	25,77
396,884	23,36
397,137	24,29
397,391	24,4
397,644	20,32
397,897	21,11
398,15	21,23
398,403	23,12
398,657	22,43
398,91	20,45
399,163	20,68
399,416	21,58
399,669	19,52
399,922	17,06
400,175	15,25
400,428	13,52
400,681	15,04
400,934	9,44
401,187	7,8
401,44	6,08
401,693	3,43
401,946	-1,89
402,199	-8,09
402,452	-9,2
402,704	-13
402,957	-12,28
403,21	-10,11
403,463	-9,43
403,716	-8,63
403,969	-5,66
404,221	-5,67
404,474	-3,66
404,727	-0,8
404,98	2,93
405,232	4,29
405,485	7,67
405,738	10,38
405,99	11,43
406,243	12,03
406,496	12,77
406,748	12,79
407,001	11,67
407,253	10,71
407,506	12,48
407,759	14,42
408,011	12,59
408,264	14,32
408,516	13,84
408,769	10,86
409,021	11,31
409,274	11,71
409,526	14,74
409,778	15,22
410,031	20,64
410,283	22,06
410,536	26,79
410,788	24,72
411,04	22,81
411,293	22,84
411,545	25,08
411,797	22,17
412,049	21,19
412,302	23,46
412,554	24,77
412,806	21,9
413,058	20,61
413,311	19,63
413,563	17,4
413,815	16,66
414,067	14,69
414,319	13,49
414,571	15,2
414,823	13,95
415,075	14,01
415,328	13,91
415,58	18,66
415,832	18,77
416,084	19,73
416,336	17,01
416,588	22,15
416,84	20,26
417,091	22,69
417,343	18,6
417,595	19,98
417,847	19,08
418,099	19,48
418,351	19,29
418,603	22,51
418,855	24,06
419,106	25,05
419,358	23,88
419,61	25,18
419,862	27,39
420,114	23,36
420,365	21,99
420,617	21,97
420,869	19,7
421,12	19,17
421,372	20,81
421,624	20,23
421,875	19,77
422,127	17,79
422,379	16,57
422,63	18,35
422,882	16,83
423,133	17,66
423,385	15,76
423,636	17,62
423,888	19,06
424,139	22,57
424,391	18,77
424,642	17,97
424,894	15,21
425,145	14,85
425,396	12,48
425,648	14,75
425,899	12,53
426,151	12,86
426,402	10,64
426,653	11,66
426,905	9,7
427,156	7,92
427,407	7,77
427,658	5,96
427,91	4,62
428,161	3,91
428,412	6,8
428,663	7,53
428,914	8,81
429,166	9,02
429,417	10,13
429,668	9,52
429,919	5,84
430,17	6,83
430,421	7,6
430,672	12,26
430,923	10,52
431,174	8,81
431,425	8,4
431,676	6,13
431,927	2,99
432,178	4,44
432,429	5,66
432,68	5,55
432,931	10,04
433,182	12,05
433,433	9,87
433,683	11,84
433,934	10,34
434,185	9,94
434,436	6,7
434,687	8,72
434,937	11,51
435,188	9,37
435,439	8,94
435,69	9,14
435,94	9,59
436,191	10,6
436,442	12,19
436,692	10,78
436,943	8,76
437,194	5,43
437,444	8,14
437,695	13,1
437,945	13,65
438,196	12,78
438,447	10,28
438,697	10,74
438,948	11,26
439,198	9,49
439,449	6,16
439,699	7,28
439,949	7,98
440,2	7,77
440,45	9,56
440,701	7,33
440,951	7,03
441,201	7,85
441,452	5,89
441,702	6,11
441,952	8,3
442,203	9,33
442,453	6,11
442,703	6,17
442,953	8,47
443,204	10,66
443,454	9,4
443,704	10,61
443,954	6,3
444,204	6,07
444,455	6,99
444,705	8,82
444,955	10,44
445,205	9,45
445,455	8,13
445,705	8,01
445,955	8,88
446,205	8,5
446,455	10,23
446,705	10,6
446,955	11,32
447,205	13,26
447,455	15,18
447,705	12,94
447,955	11,92
448,205	12,69
448,454	13,3
448,704	15,12
448,954	13,99
449,204	16,23
449,454	16,33
449,704	14,68
449,953	15,63
450,203	18,49
450,453	15,36
450,703	17,13
450,952	16,37
451,202	19,22
451,452	18,49
451,701	21,53
451,951	25,89
452,201	26,2
452,45	25,74
452,7	29,04
452,949	27,91
453,199	28,11
453,448	30,45
453,698	31,92
453,947	32,47
454,197	31,12
454,446	31,03
454,696	34,99
454,945	35,47
455,195	33,43
455,444	36,28
455,693	40,24
455,943	38,4
456,192	40,16
456,442	40,66
456,691	41,28
456,94	40,08
457,189	38,96
457,439	40,93
457,688	43,25
457,937	43,26
458,186	44,73
458,436	44,77
458,685	45,73
458,934	44,88
459,183	44,47
459,432	47,71
459,681	46,87
459,93	46,55
460,179	45,83
460,429	42,49
460,678	46,5
460,927	50,34
461,176	49,39
461,425	48,21
461,674	50,08
461,923	51,4
462,172	50,31
462,42	49,29
462,669	50,93
462,918	50,81
463,167	49,26
463,416	46,95
463,665	47,86
463,914	48,1
464,162	46,59
464,411	47,32
464,66	49,8
464,909	49,04
465,158	48,9
465,406	47,72
465,655	48,96
465,904	50,63
466,152	49,81
466,401	50,65
466,65	52,4
466,898	51,06
467,147	46,71
467,395	46,4
467,644	48,44
467,893	48,67
468,141	48,57
468,39	46,52
468,638	42,66
468,887	40,39
469,135	39,27
469,384	40,07
469,632	40,61
469,88	41,08
470,129	42,2
470,377	39,83
470,626	42,73
470,874	44,35
471,122	44,2
471,371	42,96
471,619	41,37
471,867	44,34
472,115	44,29
472,364	41,16
472,612	44,32
472,86	42,25
473,108	42,73
473,356	43,63
473,605	44,55
473,853	43,15
474,101	43,14
474,349	43,14
474,597	44,99
474,845	42,64
475,093	41,52
475,341	39,17
475,589	38,74
475,837	40,38
476,085	41,63
476,333	40,23
476,581	42,04
476,829	42,11
477,077	43,82
477,325	42,83
477,573	44,57
477,821	42,28
478,069	43,07
478,317	43,37
478,564	45,54
478,812	44,34
479,06	44,56
479,308	43,68
479,555	44,03
479,803	42,48
480,051	44,97
480,299	44,69
480,546	46,49
480,794	44,81
481,042	44,02
481,289	42,3
481,537	44,66
481,784	42,9
482,032	45,04
482,28	45,61
482,527	46,87
482,775	46,66
483,022	48,33
483,27	51,39
483,517	54,38
483,765	53,29
484,012	55,05
484,259	52,95
484,507	56,62
484,754	57,68
485,002	58
485,249	57,49
485,496	61,88
485,744	61,66
485,991	60,07
486,238	58,72
486,486	62,51
486,733	63,13
486,98	65,97
487,227	63,71
487,474	67,04
487,722	70,03
487,969	69,14
488,216	68,93
488,463	70,42
488,71	68,53
488,957	68,12
489,204	66,7
489,451	69,15
489,699	69,11
489,946	66,08
490,193	66,95
490,44	67,1
490,687	67,8
490,934	65,05
491,18	61,38
491,427	63,38
491,674	66,37
491,921	67,3
492,168	65,57
492,415	62,01
492,662	63,49
492,909	65,66
493,155	64,23
493,402	63,94
493,649	63,91
493,896	65,32
494,142	61,79
494,389	62,38
494,636	60,8
494,883	59,9
495,129	57,83
495,376	55,36
495,623	56,88
495,869	58,69
496,116	60,1
496,362	62,2
496,609	65,82
496,855	72,19
497,102	71,68
497,348	70,98
497,595	74,6
497,841	78,3
498,088	77,22
498,334	77,68
498,581	77,39
498,827	79,47
499,074	80,45
499,32	81,9
499,566	86,71
499,813	88,35
500,059	87,95
500,305	88,12
500,552	88,84
500,798	88,87
501,044	93,83
501,29	92,43
501,537	90,41
501,783	92,8
502,029	95,99
502,275	93,46
502,521	92,8
502,767	94,61
503,013	97,85
503,26	95,66
503,506	93,17
503,752	93,81
503,998	93,08
504,244	95,25
504,49	92,26
504,736	93,69
504,982	93,34
505,228	95,04
505,474	95,55
505,72	98,17
505,966	97,31
506,211	102,49
506,457	102,21
506,703	100,58
506,949	98,18
507,195	96,81
507,441	94,54
507,686	97,46
507,932	98,34
508,178	98,75
508,424	97,55
508,669	95,7
508,915	97,42
509,161	99,87
509,406	102,46
509,652	102,19
509,898	107,56
510,143	109,41
510,389	108,51
510,634	106,02
510,88	110,74
511,125	114,73
511,371	116,32
511,616	118,03
511,862	114,17
512,107	112,29
512,353	114,67
512,598	116,21
512,844	113,89
513,089	111,24
513,335	111,77
513,58	111,35
513,825	110,33
514,071	110,21
514,316	109,42
514,561	111,43
514,806	109,94
515,052	112,7
515,297	110,63
515,542	111,8
515,787	112,31
516,033	114,66
516,278	113,95
516,523	113,37
516,768	112,62
517,013	109,74
517,258	110,11
517,503	109,2
517,748	109,03
517,993	108,27
518,238	106,77
518,483	104,42
518,728	102,68
518,973	99,54
519,218	98,86
519,463	100,63
519,708	99,39
519,953	97,2
520,198	96,21
520,443	98,2
520,688	101,32
520,933	100,34
521,177	100,4
521,422	96,98
521,667	101,1
521,912	101,22
522,157	97,21
522,401	100,13
522,646	99,34
522,891	101,92
523,135	101,32
523,38	100,63
523,625	97,85
523,869	101,17
524,114	102,84
524,358	101,97
524,603	102,22
524,848	99,58
525,092	98,89
525,337	100,52
525,581	103,61
525,826	106,18
526,07	106,53
526,315	107,47
526,559	106,92
526,803	105,68
527,048	107,56
527,292	109,14
527,537	107,71
527,781	107,01
528,025	102,63
528,269	104,16
528,514	104,55
528,758	102,55
529,002	103,62
529,247	105,41
529,491	104,79
529,735	108,68
529,979	108,51
530,223	110,4
530,467	106,85
530,712	104,95
530,956	103,66
531,2	104,68
531,444	101,77
531,688	102,85
531,932	101,22
532,176	101,95
532,42	102,64
532,664	104,26
532,908	102,51
533,152	100,05
533,396	99,02
533,64	98,07
533,884	94,46
534,128	94,57
534,371	95,61
534,615	96,8
534,859	94,88
535,103	95,41
535,347	96,91
535,59	99,45
535,834	94,27
536,078	96,27
536,322	99,2
536,565	103,27
536,809	100,21
537,053	101,9
537,296	100,79
537,54	99,2
537,784	96,52
538,027	98,79
538,271	98,79
538,514	98,67
538,758	99,21
539,001	97,31
539,245	98,16
539,488	99,84
539,732	100,86
539,975	101,41
540,219	103,33
540,462	103,7
540,706	106,12
540,949	105,74
541,192	106,27
541,436	113,22
541,679	117,62
541,922	118,57
542,166	114,02
542,409	115,5
542,652	116,18
542,895	117,2
543,139	119,16
543,382	125,91
543,625	124,68
543,868	124,59
544,111	122,9
544,354	122,43
544,598	121,12
544,841	122,33
545,084	123,21
545,327	123,97
545,57	124,86
545,813	126,3
546,056	126,75
546,299	127,45
546,542	130,94
546,785	131,77
547,028	133,55
547,271	133,9
547,514	134,42
547,756	131,34
547,999	132,02
548,242	132,34
548,485	131,57
548,728	132,69
548,971	127,88
549,213	128,68
549,456	128,87
549,699	129,8
549,942	130,28
550,184	129,51
550,427	129,28
550,67	128,55
550,912	122,73
551,155	123,74
551,398	123,59
551,64	122,74
551,883	123,55
552,125	123,23
552,368	123,11
552,61	119,27
552,853	121,65
553,095	120,37
553,338	121,38
553,58	121,58
553,823	120,13
554,065	123,31
554,308	119,88
554,55	116,84
554,792	114,11
555,035	113,32
555,277	112,72
555,519	113,56
555,762	111,94
556,004	113,24
556,246	109,87
556,488	111,8
556,731	108,88
556,973	110,05
557,215	109,26
557,457	110,17
557,699	113,82
557,941	111,46
558,183	113,05
558,426	115,85
558,668	112,73
558,91	115,18
559,152	116,23
559,394	115,57
559,636	118,82
559,878	120,28
560,12	120,78
560,362	122,6
560,604	122,87
560,845	121,09
561,087	120,36
561,329	122,64
561,571	119,9
561,813	121,96
562,055	122,47
562,297	125,13
562,538	124,96
562,78	128,32
563,022	127,47
563,264	127,99
563,505	127,78
563,747	129,7
563,989	128,59
564,23	128,68
564,472	125,78
564,714	129,06
564,955	131,33
565,197	128,16
565,438	130,52
565,68	132,37
565,921	130,35
566,163	132,87
566,404	130,95
566,646	133,71
566,887	136,71
567,129	138,53
567,37	138,27
567,612	141,24
567,853	138,54
568,094	141,84
568,336	143,16
568,577	145,36
568,818	147,01
569,06	145,35
569,301	144,11
569,542	146,56
569,783	147,98
570,025	150,35
570,266	151,65
570,507	152,75
570,748	153,86
570,989	156,5
571,23	158,84
571,472	159,53
571,713	159,84
571,954	162,57
572,195	162,5
572,436	163,76
572,677	167,1
572,918	169,74
573,159	168,98
573,4	169,51
573,641	170,6
573,882	171,4
574,123	169,5
574,364	165,66
574,604	166,69
574,845	164,55
575,086	166,97
575,327	168,53
575,568	167,9
575,809	169,03
576,049	169,19
576,29	168,01
576,531	174,58
576,771	178,8
577,012	180,78
577,253	181,84
577,494	182,55
577,734	183,76
577,975	185,78
578,215	186,39
578,456	185,61
578,697	187,6
578,937	190,62
579,178	191,89
579,418	192,83
579,659	194,27
579,899	192,75
580,14	193,66
580,38	193,99
580,62	194,34
580,861	200,15
581,101	202,14
581,342	203,52
581,582	200,92
581,822	204,69
582,063	204,86
582,303	207,23
582,543	208,5
582,783	211,26
583,024	214,92
583,264	219,06
583,504	219,05
583,744	221,72
583,984	220,52
584,224	221,1
584,465	221,72
584,705	224
584,945	225,66
585,185	226,17
585,425	227,6
585,665	229,48
585,905	230,75
586,145	232,45
586,385	232,64
586,625	238,06
586,865	239,61
587,105	239,77
587,345	242,18
587,585	244,32
587,824	244,97
588,064	248,54
588,304	246,9
588,544	247,96
588,784	249,04
589,024	254,76
589,263	256,03
589,503	256,98
589,743	262,06
589,982	263,4
590,222	266,05
590,462	265,19
590,701	263,85
590,941	267,53
591,181	268,99
591,42	270,53
591,66	275,42
591,899	280,52
592,139	281,87
592,378	284,94
592,618	287,11
592,857	289,33
593,097	292,63
593,336	295,1
593,576	296,3
593,815	299,62
594,055	299,71
594,294	301,4
594,533	304,14
594,773	305,39
595,012	307,03
595,251	310,33
595,491	314,9
595,73	320,09
595,969	322,38
596,208	325,97
596,447	331,96
596,687	334,87
596,926	337,29
597,165	336,72
597,404	340,87
597,643	339,26
597,882	340,01
598,121	345,21
598,36	349,43
598,599	352,78
598,838	353,8
599,077	351,42
599,316	352,98
599,555	353,26
599,794	354,94
600,033	357,1
600,272	360,92
600,511	359,37
600,75	362,85
600,989	365,83
601,228	367,99
601,466	367,77
601,705	369,92
601,944	372,85
602,183	378,01
602,422	377,97
602,66	377,36
602,899	376,38
603,138	375,89
603,376	377,45
603,615	378,81
603,854	377,94
604,092	378,97
604,331	379,8
604,569	381,09
604,808	378,22
605,047	380,46
605,285	380,75
605,524	378,95
605,762	376,11
606	378,3
606,239	378,53
606,477	379,98
606,716	375,87
606,954	375,85
607,193	373,83
607,431	369,92
607,669	366,15
607,908	365,51
608,146	365,45
608,384	364,16
608,622	363,34
608,861	362,63
609,099	361,18
609,337	358,28
609,575	356,25
609,813	357,91
610,052	358,41
610,29	354,03
610,528	352,46
610,766	349,02
611,004	348,62
611,242	345,49
611,48	345,37
611,718	343,36
611,956	343,26
612,194	343,31
612,432	341,54
612,67	340,65
612,908	341,07
613,146	339,38
613,384	336,56
613,621	335,17
613,859	335,5
614,097	334,84
614,335	335,5
614,573	336,05
614,811	337,93
615,048	338,06
615,286	339,09
615,524	337,55
615,761	333,45
615,999	332,46
616,237	333,88
616,474	335,44
616,712	337,74
616,95	334,8
617,187	332,67
617,425	331,87
617,662	332,94
617,9	331,86
618,137	329,97
618,375	326,86
618,612	324,77
618,85	325,05
619,087	327,58
619,325	326,3
619,562	323,46
619,799	323,03
620,037	321,79
620,274	319,49
620,511	320,21
620,749	316,57
620,986	315,22
621,223	311,73
621,461	311,23
621,698	310,8
621,935	309,21
622,172	305,7
622,409	305,97
622,647	304,93
622,884	303,08
623,121	305,26
623,358	302,22
623,595	300,35
623,832	298,97
624,069	295,18
624,306	296,09
624,543	296,53
624,78	296,93
625,017	296,14
625,254	295,92
625,491	299,16
625,728	301,42
625,965	302,12
626,202	299,86
626,438	296,61
626,675	295,12
626,912	296,31
627,149	295,47
627,386	295,38
627,622	293,27
627,859	292,86
628,096	293,09
628,333	292,28
628,569	291,4
628,806	292,11
629,043	289,91
629,279	290,38
629,516	292,65
629,752	289,88
629,989	289,61
630,225	287,83
630,462	286,72
630,699	285,99
630,935	284,7
631,171	281,45
631,408	281,04
631,644	277,28
631,881	273,84
632,117	270,68
632,354	270,9
632,59	270,33
632,826	268,67
633,063	267,09
633,299	266,31
633,535	263,12
633,771	260,92
634,008	263,16
634,244	263,52
634,48	262,13
634,716	263,44
634,953	262,98
635,189	262,24
635,425	263,53
635,661	265,19
635,897	264,23
636,133	262,61
636,369	262,17
636,605	257,16
636,841	254,86
637,077	254,83
637,313	252,92
637,549	251,58
637,785	249,91
638,021	250,29
638,257	249,02
638,493	251,75
638,729	249,5
638,965	252,22
639,2	254,06
639,436	252,5
639,672	251,43
639,908	247,66
640,144	250,47
640,379	252,17
640,615	249,93
640,851	250,93
641,086	252,01
641,322	248,24
641,558	247,54
641,793	248,2
642,029	244,37
642,264	243,47
642,5	242,86
642,736	238,73
642,971	238,76
643,207	235,56
643,442	233
643,678	230,84
643,913	231,51
644,148	230,9
644,384	232,66
644,619	232,63
644,855	233,06
645,09	233,07
645,325	231,77
645,561	230,64
645,796	227,02
646,031	229,31
646,266	225,63
646,502	223,9
646,737	224,17
646,972	221,81
647,207	220,87
647,442	216,6
647,678	212,61
647,913	214,62
648,148	215,13
648,383	212,2
648,618	211,19
648,853	210,1
649,088	210,8
649,323	212,95
649,558	212,58
649,793	211,7
650,028	211,61
650,263	205,67
650,498	208,13
650,733	208,02
650,968	207,49
651,202	209,16
651,437	205,93
651,672	201,35
651,907	198,89
652,142	199,52
652,376	199,37
652,611	199,73
652,846	199,86
653,081	198,42
653,315	194,99
653,55	195,04
653,785	192,6
654,019	194,72
654,254	192,78
654,488	192,66
654,723	188,01
654,958	184,82
655,192	180,43
655,427	176,13
655,661	177,19
655,896	179,68
656,13	179,5
656,364	174,77
656,599	170,99
656,833	179,16
657,068	180,5
657,302	179,8
657,536	178,73
657,771	179,92
658,005	180,01
658,239	180,41
658,474	175,9
658,708	177,52
658,942	177,45
659,176	175,44
659,41	171,32
659,645	168,93
659,879	166,76
660,113	163,92
660,347	162,05
660,581	160,16
660,815	159,21
661,049	158,1
661,283	153,83
661,517	152,35
661,751	152,33
661,985	151,49
662,219	152,71
662,453	151,64
662,687	152,15
662,921	148,48
663,155	145,5
663,389	139,4
663,622	138,2
663,856	140,61
664,09	130,27
664,324	127,27
664,558	125,68
664,791	125,21
665,025	122,88
665,259	121,72
665,492	119,95
665,726	122,43
665,96	121,22
666,193	118,11
666,427	119,57
666,661	118,46
666,894	116,19
667,128	115,15
667,361	115,98
667,595	116,5
667,828	116,08
668,062	115,21
668,295	114,85
668,529	115,66
668,762	114,69
668,995	112,57
669,229	116,05
669,462	115,54
669,695	115,04
669,929	112,88
670,162	112,71
670,395	110,58
670,629	111,14
670,862	112,12
671,095	107,23
671,328	106,45
671,561	102,81
671,795	103,61
672,028	104,96
672,261	104,2
672,494	105,57
672,727	103,24
672,96	104,38
673,193	102,5
673,426	107,37
673,659	106,84
673,892	107,53
674,125	107,45
674,358	106,71
674,591	104,62
674,824	103,25
675,057	101,62
675,29	97,86
675,523	98,41
675,755	96,21
675,988	97,12
676,221	99,31
676,454	97,5
676,687	96,77
676,919	96,33
677,152	95,74
677,385	94,98
677,617	94,87
677,85	95,96
678,083	93,97
678,315	96,81
678,548	94,91
678,78	93,58
679,013	90,99
679,246	90,27
679,478	91,25
679,711	87,15
679,943	88,12
680,175	83,56
680,408	86,9
680,64	80,42
680,873	80,49
681,105	79,4
681,338	82,48
681,57	82,09
681,802	83,26
682,034	82,57
682,267	86,3
682,499	88,41
682,731	86,95
682,964	85,31
683,196	83,89
683,428	81,84
683,66	79,46
683,892	84,59
684,124	87,42
684,356	90,62
684,589	90,42
684,821	89,98
685,053	89,72
685,285	89,62
685,517	90,74
685,749	91,61
685,981	94,42
686,213	95,73
686,445	94,02
686,676	90,99
686,908	91,38
687,14	90,71
687,372	91,53
687,604	86,95
687,836	89,16
688,068	89,63
688,299	88,03
688,531	84,48
688,763	88,69
688,995	85,53
689,226	88,35
689,458	86,38
689,69	84,91
689,921	81,14
690,153	81,8
690,384	82,67
690,616	80,34
690,848	82,47
691,079	75,41
691,311	70,93
691,542	66,72
691,774	64,98
692,005	65,91
692,237	67,29
692,468	65,08
692,699	62,02
692,931	61,31
693,162	57,95
693,393	56,59
693,625	56,63
693,856	56,28
694,087	57,76
694,319	58,63
694,55	57,83
694,781	56,99
695,012	54,43
695,243	50,85
695,475	50,77
695,706	51,03
695,937	47,62
696,168	48,22
696,399	45,05
696,63	43,1
696,861	42,62
697,092	48,5
697,323	49,93
697,554	49,57
697,785	52,11
698,016	51,67
698,247	50,5
698,478	52,22
698,709	54,81
698,94	56,94
699,171	56,92
699,401	53,78
699,632	56,19
699,863	53,33
700,094	53,27
700,325	56,96
700,555	58,77
700,786	60,05
701,017	60,53
701,247	57,88
701,478	56,74
701,709	56,1
701,939	55,61
702,17	58,16
702,401	60,7
702,631	62,55
702,862	60,74
703,092	57,95
703,323	60,41
703,553	62,27
703,784	62,63
704,014	62,6
704,244	55,97
704,475	54,04
704,705	54,71
704,936	53,46
705,166	51,85
705,396	52,67
705,627	51,37
705,857	49,38
706,087	49,18
706,317	46,44
706,548	43,86
706,778	42,68
707,008	44,49
707,238	45,09
707,468	41,77
707,698	37,65
707,928	35,55
708,158	32,48
708,389	33,36
708,619	31,87
708,849	29,41
709,079	30,22
709,309	28,16
709,539	24,56
709,768	23,72
709,998	26,86
710,228	26,61
710,458	24,16
710,688	19,61
710,918	19,39
711,148	19,06
711,378	20,54
711,607	19,23
711,837	19,34
712,067	19,16
712,297	20,15
712,526	20,58
712,756	22,21
712,986	19,59
713,215	17,29
713,445	17,79
713,674	18,65
713,904	18,22
714,134	20,13
714,363	17,69
714,593	17,57
714,822	17,76
715,052	18,06
715,281	19,6
715,511	16,71
715,74	17,19
715,969	18,23
716,199	17,32
716,428	17,96
716,657	18,6
716,887	21,57
717,116	17,53
717,345	20,08
717,575	19,83
717,804	20,89
718,033	18,86
718,262	18,21
718,492	18,23
718,721	18,72
718,95	16,6
719,179	12,36
719,408	12,23
719,637	8,84
719,866	6,83
720,095	9,35
720,324	8,57
720,553	5,55
720,782	4,62
721,011	4,01
721,24	1,33
721,469	1,81
721,698	1,29
721,927	0,92
722,156	-1,32
722,385	-1,22
722,613	2,89
722,842	1,95
723,071	4,66
723,3	6,25
723,529	4,44
723,757	5,18
723,986	0,2
724,215	-0,49
724,443	-0,53
724,672	1,44
724,901	1,55
725,129	3,91
725,358	7,78
725,586	6,43
725,815	6,31
726,043	6,48
726,272	6,52
726,5	6,32
726,729	9,15
726,957	5,29
727,186	3,34
727,414	4,98
727,642	6,24
727,871	8,88
728,099	8,06
728,327	7,75
728,556	9,25
728,784	11,17
729,012	10,53
729,241	13,82
729,469	11,6
729,697	8,48
729,925	8,78
730,153	6,31
730,381	6,2
730,61	6,85
730,838	4,11
731,066	5,8
731,294	7,94
731,522	4,69
731,75	-0,14
731,978	-0,4
732,206	-1,4
732,434	-3,9
732,662	-1,75
732,89	-3,75
733,118	-5,75
733,346	-4,56
733,573	-5,4
733,801	-6,49
734,029	1,17
734,257	1,13
734,485	3,46
734,712	4,92
734,94	0,83
735,168	4,18
735,396	3,34
735,623	2,3
735,851	2,8
736,078	3,99
736,306	4,23
736,534	5,1
736,761	5,12
736,989	2,56
737,216	1,06
737,444	-1,95
737,671	-1,69
737,899	3,14
738,126	0,67
738,354	-0,02
738,581	0,81
738,809	3,45
739,036	1,79
739,263	1,16
739,491	-0,85
739,718	-2,84
739,945	2,12
740,173	4,54
740,4	4,78
740,627	3,64
740,854	2,48
741,081	-0,45
741,309	-0,21
741,536	-4,27
741,763	-5,37
741,99	-2,44
742,217	-2,87
742,444	-1,83
742,671	-1,16
742,898	-2,47
743,125	-4,35
743,352	-7,88
743,579	-7,79
743,806	-8,5
744,033	-3,96
744,26	-1,65
744,487	-1,27
744,714	-0,19
744,941	-0,79
745,167	4,15
745,394	2,64
745,621	2,78
745,848	1,53
746,075	4,48
746,301	8,16
746,528	11,55
746,755	10,82
746,981	10,05
747,208	10,5
747,435	12,52
747,661	13
747,888	14,56
748,114	11,71
748,341	13,93
748,567	15,97
748,794	13,47
749,02	11,31
749,247	9,65
749,473	8,38
749,7	8,01
749,926	8,01
750,152	11,84
750,379	12,69
750,605	12,18
750,831	12,36
751,058	10,79
751,284	8,55
751,51	10,78
751,737	12,75
751,963	10,19
752,189	8,2
752,415	8,28
752,641	6,74
752,867	6,77
753,094	4,05
753,32	2,25
753,546	0,69
753,772	2,42
753,998	-0,05
754,224	-0,54
754,45	-1,72
754,676	-2,92
754,902	-3,57
755,128	-2,72
755,354	-4,64
755,579	-4,5
755,805	-1,66
756,031	-2,02
756,257	-3,89
756,483	-4,12
756,709	-6,04
756,934	-6,35
757,16	-9,12
757,386	-9,23
757,612	-10,43
757,837	-12,63
758,063	-11,34
758,289	-7,66
758,514	-10,1
758,74	-14,31
758,965	-16,31
759,191	-14,78
759,416	-13,36
759,642	-11,79
759,868	-11,43
760,093	-8,99
760,318	-11,45
760,544	-11,45
760,769	-12,11
760,995	-11,77
761,22	-11,23
761,445	-9,55
761,671	-7,55
761,896	-4,8
762,121	-4,3
762,347	-5,05
762,572	-8,22
762,797	-9,24
763,022	-7,64
763,248	-2,74
763,473	-2,4
763,698	-3,1
763,923	-3,13
764,148	-2,72
764,373	-2,83
764,598	-0,94
764,823	1,87
765,048	-1,39
765,273	-5,37
765,498	-5,32
765,723	-5,66
765,948	-3,94
766,173	-6,36
766,398	-5,82
766,623	-8,07
766,848	-8,17
767,073	-9,28
767,298	-8,43
767,522	-8,94
767,747	-8,26
767,972	-9,63
768,197	-9,96
768,421	-10,96
768,646	-14
768,871	-17,47
769,095	-17,63
769,32	-16,61
769,545	-15,97
769,769	-14,06
769,994	-12
770,218	-15,7
770,443	-14,58
770,667	-13,04
770,892	-12,79
771,116	-13,99
771,341	-11,43
771,565	-13
771,79	-12,65
772,014	-12,41
772,238	-13,45
772,463	-10,66
772,687	-8,85
772,911	-9,17
773,136	-10,5
773,36	-10,19
773,584	-7,61
773,808	-9,83
774,033	-8,97
774,257	-10,02
774,481	-10,47
774,705	-11,05
774,929	-9,64
775,153	-9,21
775,377	-8,04
775,602	-7,04
775,826	-5,06
776,05	-2,4
776,274	-2,92
776,498	-2,48
776,722	-4,08
776,945	-4,35
777,169	-3,5
777,393	-5,5
777,617	-6,48
777,841	-5,8
778,065	-4,49
778,289	-7,56
778,512	-7,68
778,736	-8,35
778,96	-9,08
779,184	-5,81
779,407	-7,76
779,631	-8,74
779,855	-10,09
780,078	-8,28
780,302	-11,52
780,526	-13,47
780,749	-13,16
780,973	-12,16
781,196	-10,64
781,42	-12,84
781,643	-13,08
781,867	-12
782,09	-14,96
782,314	-15,51
782,537	-16,73
782,76	-19,11
782,984	-18,65
783,207	-19,71
783,431	-18,61
783,654	-19,94
783,877	-23,58
784,1	-24,95
784,324	-25,79
784,547	-26,32
784,77	-30,3
784,993	-30,89
785,216	-30,94
785,44	-30,66
785,663	-31,23
785,886	-29,11
786,109	-30,69
786,332	-30,88
786,555	-29,67
786,778	-27,25
787,001	-26,98
787,224	-23,65
787,447	-23,65
787,67	-21,58
787,893	-22,05
788,116	-21,34
788,339	-19,34
788,561	-19,71
788,784	-23,83
789,007	-24,75
789,23	-26,9
789,453	-26,89
789,675	-26,81
789,898	-29,82
790,121	-30,8
790,344	-32,24
790,566	-30,51
790,789	-28,74
791,012	-28,44
791,234	-23,73
791,457	-19,83
791,679	-18,4
791,902	-18,73
792,124	-18,24
792,347	-19,06
792,569	-19,16
792,792	-21,59
793,014	-17,97
793,237	-15,21
793,459	-15,55
793,681	-16,12
793,904	-17,07
794,126	-19,97
794,348	-19,99
794,571	-19,08
794,793	-20,66
795,015	-19,83
795,237	-20,85
795,46	-19,75
795,682	-18,13
795,904	-15,89
796,126	-16,2
796,348	-14,85
796,57	-10,92
796,792	-10,96
797,014	-7,65
797,237	-5,12
797,459	-2,92
797,681	-2,56
797,903	-4,03
798,124	-4,7
798,346	6,87
798,568	8,66
798,79	12,53
799,012	14,06
799,234	15,86
799,456	17,94
799,678	21,28
799,899	17,19
800,121	13,37
800,343	12,68
800,565	13,1
800,786	12,71
801,008	15,88
801,23	15,9
801,451	15,62
801,673	12,77
801,895	11,02
802,116	13,47
802,338	15,36
802,559	15
802,781	14,03
803,002	16,12
803,224	17,99
803,445	13,98
803,667	15,87
803,888	14,31
804,109	13,35
804,331	11,94
804,552	12,35
804,773	15,38
804,995	12,78
805,216	-3,04
805,437	-5,37
805,658	-8,65
805,88	-10,7
806,101	-10,78
806,322	-12,33
806,543	-15,11
806,764	-15,82
806,985	-13,7
807,207	-12,62
807,428	-12,18
807,649	-14,41
807,87	-17,78
808,091	-16,95
808,312	-16,52
808,533	-10,39
808,754	-8,59
808,975	-10,98
809,195	-10,47
809,416	-9,32
809,637	-9,42
809,858	-10,71
810,079	-13,51
810,3	-9,89
810,52	-11,88
810,741	-13,48
810,962	-15,1
811,183	-16,65
811,403	-16,84
811,624	-17,79
811,845	-15,38
812,065	-13,02
812,286	-12
812,506	-11,87
812,727	-11,05
812,948	-9,94
813,168	-7,21
813,389	-7,17
813,609	-5,94
813,83	-7,86
814,05	-8,21
814,27	-7,61
814,491	-4,21
814,711	-3,48
814,931	-6,67
815,152	-7,22
815,372	-9,62
815,592	-9,97
815,813	-10,03
816,033	-11,56
816,253	-10,81
816,473	-11,7
816,694	-10,71
816,914	-8,6
817,134	-9,89
817,354	-10,48
817,574	-8,85
817,794	-8,94
818,014	-9,58
818,234	-10,88
818,454	-13,05
818,674	-16,42
818,894	-18,88
819,114	-16,51
819,334	-15,94
819,554	-14,35
819,774	-11,94
819,994	-14,44
820,214	-15,4
820,433	-15,08
820,653	-13,88
820,873	-12,87
821,093	-12,56
821,312	-14,26
821,532	-12,35
821,752	-8,43
821,972	-8,97
822,191	-7,72
822,411	-9,26
822,63	-8,54
822,85	-8,29
823,07	-9,95
823,289	-9,5
823,509	-11,56
823,728	-10,92
823,948	-13,4
824,167	-13,55
824,387	-14,69
824,606	-13,58
824,825	-13,29
825,045	-12,42
825,264	-12,26
825,483	-10,26
825,703	-8,31
825,922	-10,59
826,141	-12,63
826,361	-14,4
826,58	-18,93
826,799	-20,19
827,018	-19,09
827,237	-18,3
827,456	-15,6
827,676	-14,67
827,895	-14,25
828,114	-13,12
828,333	-13,86
828,552	-14,17
828,771	-13,25
828,99	-15,66
829,209	-14,68
829,428	-12,38
829,647	-13,05
829,866	-13,46
830,084	-13,71
830,303	-13,67
830,522	-14,91
830,741	-13,32
830,96	-12,86
831,179	-12,04
831,397	-12,15
831,616	-12,88
831,835	-13,73
832,053	-12,13
832,272	-12,18
832,491	-11,62
832,709	-13,02
832,928	-12,3
833,147	-10,43
833,365	-8,82
833,584	-5,84
833,802	-2,28
834,021	-2,94
834,239	-5,15
834,458	-8,64
834,676	-12,63
834,894	-13,98
835,113	-14,43
835,331	-14,33
835,55	-16,39
835,768	-14,53
835,986	-15,15
836,204	-18,11
836,423	-17,68
836,641	-18,28
836,859	-18,78
837,077	-17,47
837,296	-16,3
837,514	-19,13
837,732	-19,7
837,95	-20,01
838,168	-17,51
838,386	-17,49
838,604	-14,19
838,822	-15,32
839,04	-16,58
839,258	-15,91
839,476	-13,32
839,694	-13,7
839,912	-15,28
840,13	-16,5
840,348	-13,34
840,566	-17,19
840,783	-14,5
841,001	-15,64
841,219	-13,47
841,437	-12,31
841,655	-11,33
841,872	-11,43
842,09	-11,87
842,308	-10,56
842,525	-11,17
842,743	-8,97
842,961	-9,11
843,178	-11,02
843,396	-6,16
843,613	-4,65
843,831	-3,81
844,048	-4,94
844,266	-3,61
844,483	-4
844,701	-4,37
844,918	-5,54
845,136	-6,1
845,353	-7,66
845,57	-5,7
845,788	-1,78
846,005	-3,14
846,222	-4,04
846,439	-0,99
846,657	-0,89
846,874	0,5
847,091	-2,63
847,308	-1,08
847,526	-3,59
847,743	-2,74
847,96	-4,47
848,177	-3,9
848,394	-3,6
848,611	-3,96
848,828	-5,28
849,045	-5,32
849,262	-5,7
849,479	-6,7
849,696	-7,59
849,913	-9,33
850,13	-14,93
850,347	-13,13
850,564	-14,78
850,78	-16,84
850,997	-18,04
851,214	-17,81
851,431	-17,67
851,647	-20,76
851,864	-21,31
852,081	-20,09
852,298	-24,26
852,514	-26,01
852,731	-24,81
852,948	-23,8
853,164	-24,22
853,381	-25,07
853,597	-27,77
853,814	-29,58
854,03	-32,38
854,247	-30,51
854,463	-30,26
854,68	-30,86
854,896	-30,97
855,113	-30,42
855,329	-29,2
855,545	-27,31
855,762	-27,77
855,978	-30,87
856,194	-32,53
856,411	-29,38
856,627	-26,83
856,843	-24,56
857,059	-21,52
857,275	-21,81
857,492	-20,36
857,708	-15,65
857,924	-13,99
858,14	-12,51
858,356	-12,73
858,572	-12,36
858,788	-14,15
859,004	-11,34
859,22	-12,88
859,436	-13,2
859,652	-13,57
859,868	-15,05
860,084	-14,02
860,3	-12,74
860,516	-13,2
860,731	-11,75
860,947	-13,99
861,163	-12,29
861,379	-11,38
861,595	-10,27
861,81	-9,53
862,026	-10,91
862,242	-10,72
862,457	-10,81
862,673	-8,16
862,889	-8,26
863,104	-8,58
863,32	-7,74
863,535	-7,62
863,751	-14,05
863,966	-10,91
864,182	-8,74
864,397	-11,65
864,613	-14,6
864,828	-15,9
865,044	-15,2
865,259	-12
865,474	-12,98
865,69	-11,93
865,905	-12,47
866,12	-14,43
866,336	-15,61
866,551	-13,72
866,766	-15,52
866,981	-16,23
867,196	-16,33
867,412	-16,87
867,627	-15,9
867,842	-17,19
868,057	-17,01
868,272	-17,42
868,487	-19,09
868,702	-20,69
868,917	-20,97
869,132	-19,17
869,347	-17,7
869,562	-18,66
869,777	-19,06
869,992	-20,17
870,207	-19,87
870,422	-19,34
870,636	-22,29
870,851	-23,76
871,066	-25,65
871,281	-23,22
871,495	-23,49
871,71	-20
871,925	-22,89
872,14	-22,38
872,354	-24,21
872,569	-24,1
872,783	-22,32
872,998	-21,73
873,213	-23,27
873,427	-19,79
873,642	-18,67
873,856	-17,44
874,071	-16,95
874,285	-18,94
874,5	-21,68
874,714	-22,54
874,928	-23,84
875,143	-24,18
875,357	-23,02
875,571	-26,3
875,786	-26,05
876	-23,83
876,214	-21,68
876,429	-25,19
876,643	-24,34
876,857	-24,65
877,071	-22,79
877,285	-23,75
877,499	-26,62
877,714	-23,44
877,928	-21,89
878,142	-24
878,356	-26,93
878,57	-26,36
878,784	-25,63
878,998	-25,6
879,212	-23,64
879,426	-25,28
879,639	-23,5
879,853	-25,09
880,067	-26,05
880,281	-26,67
880,495	-25,77
880,709	-24,29
880,922	-23
881,136	-20,57
881,35	-18,89
881,564	-19,37
881,777	-22,14
881,991	-21,09
882,205	-16,27
882,418	-17,15
882,632	-20,02
882,845	-20,68
883,059	-18,82
883,273	-19,41
883,486	-20,69
883,7	-17,61
883,913	-17,41
884,126	-15,56
884,34	-18,68
884,553	-21,55
884,767	-17,04
884,98	-15,66
885,193	-15,8
885,407	-16,34
885,62	-14,54
885,833	-15,15
886,046	-12,76
886,26	-14,83
886,473	-14,42
886,686	-15,43
886,899	-13,33
887,112	-15,13
887,326	-17,33
887,539	-17,42
887,752	-17,02
887,965	-19,94
888,178	-19,07
888,391	-17,46
888,604	-17,92
888,817	-19,64
889,03	-18,93
889,243	-20,01
889,455	-22,76
889,668	-21,38
889,881	-17,93
890,094	-18,02
890,307	-22,85
890,52	-20,72
890,732	-19,88
890,945	-21,24
891,158	-20,04
891,37	-22,79
891,583	-23,95
891,796	-20,86
892,008	-22,61
892,221	-24,86
892,434	-27,33
892,646	-28,39
892,859	-28,79
893,071	-27,03
893,284	-25,38
893,496	-27,16
893,709	-27,63
893,921	-27,28
894,133	-27,61
894,346	-28,52
894,558	-28
894,771	-27,62
894,983	-25,76
895,195	-24,64
895,407	-23,57
895,62	-26,1
895,832	-25,51
896,044	-22,06
896,256	-23,19
896,468	-25,33
896,681	-23,13
896,893	-21,08
897,105	-21,3
897,317	-23,21
897,529	-19,48
897,741	-19,24
897,953	-16,89
898,165	-18,42
898,377	-22,31
898,589	-20,69
898,801	-19,9
899,013	-18,15
899,224	-16,17
899,436	-14,02
899,648	-15,84
899,86	-17,92
900,072	-14,96
900,283	-12,56
900,495	-10,11
900,707	-8,99
900,919	-10,95
901,13	-9,31
901,342	-10,63
901,554	-12
901,765	-12,97
901,977	-15,29
902,188	-15,35
902,4	-17,27
902,611	-19,3
902,823	-21,22
903,034	-23,64
903,246	-24,53
903,457	-25,69
903,669	-26,63
903,88	-25,74
904,091	-25,93
904,303	-23,74
904,514	-25,91
904,725	-23,21
904,936	-22,43
905,148	-22,88
905,359	-21,3
905,57	-21,83
905,781	-23,87
905,992	-25,65
906,204	-24,64
906,415	-24,31
906,626	-26,25
906,837	-25,51
907,048	-26,57
907,259	-28,54
907,47	-28,89
907,681	-30,72
907,892	-27,1
908,103	-26,74
908,314	-27,52
908,525	-25,88
908,735	-25,09
908,946	-25,61
909,157	-25,38
909,368	-22,72
909,579	-21,07
909,789	-23,58
910	-24,84
910,211	-22,8
910,421	-24,07
910,632	-23,28
910,843	-27,11
911,053	-22,24
911,264	-20,2
911,475	-20,5
911,685	-19,33
911,896	-18,56
912,106	-17,08
912,317	-18,48
912,527	-16,04
912,737	-16,46
912,948	-15,04
913,158	-15,64
913,369	-18,63
913,579	-16,33
913,789	-14,87
914	-11,6
914,21	-10,72
914,42	-12,51
914,63	-13,07
914,841	-12,37
915,051	-11,49
915,261	-11,3
915,471	-8,43
915,681	-7,88
915,891	-8,49
916,101	-9,41
916,311	-9,61
916,521	-7,85
916,731	-8,04
916,941	-4,61
917,151	-7,01
917,361	-4,52
917,571	-10,3
917,781	-12,01
917,991	-13,65
918,201	-13,74
918,411	-17,45
918,621	-18,19
918,83	-17,32
919,04	-19,32
919,25	-16,09
919,46	-14,94
919,669	-17,41
919,879	-17,76
920,089	-20,44
920,298	-21,4
920,508	-21,43
920,717	-19,62
920,927	-20,38
921,136	-20,43
921,346	-21,9
921,555	-25,05
921,765	-24,49
921,974	-26,45
922,184	-29,03
922,393	-29,04
922,603	-30,45
922,812	-27,34
923,021	-28,44
923,23	-29,84
923,44	-32,93
923,649	-31,49
923,858	-32,81
924,067	-30,85
924,277	-33,42
924,486	-31,58
924,695	-32,61
924,904	-29,86
925,113	-28,91
925,322	-27,59
925,531	-27,07
925,74	-29,91
925,949	-31,2
926,158	-28,89
926,367	-28,78
926,576	-26,07
926,785	-26,22
926,994	-27,39
927,203	-27,41
927,412	-27,08
927,621	-27,76
927,83	-24,76
928,038	-24,65
928,247	-25,64
928,456	-23,88
928,665	-23,06
928,873	-21,32
929,082	-18,49
929,291	-18,2
929,499	-16,55
929,708	-17,7
929,916	-16
930,125	-18,1
930,333	-18,13
930,542	-16,38
930,75	-12,6
930,959	-11,27
931,167	-12,73
931,376	-13,51
931,584	-12,57
931,793	-11,61
932,001	-12,31
932,209	-13,68
932,418	-15,94
932,626	-16,81
932,834	-17,37
933,042	-22,14
933,251	-22,79
933,459	-23,09
933,667	-24,51
933,875	-24,94
934,083	-22,52
934,291	-23,58
934,499	-22,52
934,707	-23,35
934,915	-23,92
935,123	-20,18
935,331	-21,28
935,539	-24,74
935,747	-27,18
935,955	-28,35
936,163	-28,51
936,371	-29,43
936,579	-26,82
936,787	-27,25
936,995	-28,79
937,202	-31,36
937,41	-31,05
937,618	-29,78
937,826	-30,54
938,033	-35,48
938,241	-37,89
938,449	-35,67
938,656	-34,36
938,864	-33,59
939,071	-33,59
939,279	-30,41
939,486	-28,02
939,694	-28,64
939,901	-29,07
940,109	-27,88
940,316	-27,6
940,524	-28,05
940,731	-28,51
940,939	-26,99
941,146	-26,92
941,353	-28,1
941,561	-29,89
941,768	-30,36
941,975	-27,09
942,182	-26,14
942,39	-25,87
942,597	-22,03
942,804	-21,3
943,011	-21,63
943,218	-20,36
943,425	-21,21
943,632	-20,66
943,839	-22,46
944,046	-24,13
944,253	-22,37
944,46	-21,21
944,667	-17,54
944,874	-18,76
945,081	-16,09
945,288	-14,54
945,495	-11,7
945,702	-12,2
945,909	-13,99
946,115	-11,27
946,322	-12
946,529	-14,88
946,736	-14,75
946,942	-14,59
947,149	-15,04
947,356	-16,61
947,562	-17,39
947,769	-17,52
947,976	-19,26
948,182	-17,87
948,389	-19,4
948,595	-18,7
948,802	-18,16
949,008	-19,82
949,215	-19,62
949,421	-21,58
949,628	-23,13
949,834	-22,4
950,04	-23,43
950,247	-19,69
950,453	-17,58
950,659	-19,08
950,865	-16,82
951,072	-21,76
951,278	-19,88
951,484	-22,96
951,69	-26,87
951,896	-28,23
952,103	-29,13
952,309	-27,15
952,515	-27,7
952,721	-26,12
952,927	-24,65
953,133	-26,5
953,339	-27,07
953,545	-26,83
953,751	-25,51
953,957	-22,2
954,163	-22,6
954,369	-21,69
954,574	-23,93
954,78	-24,29
954,986	-23,49
955,192	-21,41
955,398	-23,06
955,603	-25,35
955,809	-21,45
956,015	-20,63
956,22	-18,93
956,426	-18,24
956,632	-21,81
956,837	-20,92
957,043	-20,77
957,248	-20,17
957,454	-19,84
957,66	-21,64
957,865	-21,16
958,07	-18,37
958,276	-19,99
958,481	-20,91
958,687	-21,75
958,892	-23,05
959,097	-23,28
959,303	-21,74
959,508	-20,54
959,713	-21,13
959,919	-21,8
960,124	-23,43
960,329	-24,23
960,534	-21,11
960,739	-20,25
960,945	-18,96
961,15	-18,99
961,355	-20,73
961,56	-24,66
961,765	-26,65
961,97	-25,87
962,175	-25,52
962,38	-28,9
962,585	-29,63
962,79	-30,8
962,995	-31,39
963,2	-34,71
963,404	-34,21
963,609	-37,13
963,814	-37,38
964,019	-39,92
964,224	-42,39
964,428	-40,77
964,633	-38,24
964,838	-37,55
965,042	-36,99
965,247	-37,81
965,452	-37,75
965,656	-37,58
965,861	-36,81
966,066	-37,57
966,27	-35,29
966,475	-31,5
966,679	-34,63
966,884	-34,59
967,088	-35,19
967,292	-36,13
967,497	-34,26
967,701	-35,02
967,906	-33,69
968,11	-29,27
968,314	-25,28
968,518	-27,69
968,723	-25,07
968,927	-24,31
969,131	-22,67
969,335	-19,71
969,539	-18,54
969,744	-17,43
969,948	-15,08
970,152	-13,31
970,356	-11,7
970,56	-9,42
970,764	-11,79
970,968	-10,45
971,172	-9,01
971,376	-9,24
971,58	-7,92
971,784	-7,1
971,988	-9,41
972,192	-8
972,395	-7,36
972,599	-9,79
972,803	-12,55
973,007	-10,62
973,21	-11,36
973,414	-12,29
973,618	-11,52
973,822	-12,12
974,025	-11,3
974,229	-12,21
974,432	-15,41
974,636	-18,31
974,84	-16,48
975,043	-15,3
975,247	-17,18
975,45	-18,64
975,654	-18,29
975,857	-17,54
976,06	-18,23
976,264	-20,38
976,467	-19,07
976,671	-19,36
976,874	-19,16
977,077	-18,67
977,28	-20,19
977,484	-23,72
977,687	-24,95
977,89	-22,74
978,093	-23,15
978,297	-20,68
978,5	-22,68
978,703	-21,72
978,906	-20,56
979,109	-20,46
979,312	-19,02
979,515	-19,85
979,718	-20,6
979,921	-21,33
980,124	-23,54
980,327	-24,49
980,53	-23,92
980,733	-21,33
980,936	-19,02
981,138	-21,41
981,341	-21,66
981,544	-21,31
981,747	-21,17
981,949	-21,31
982,152	-19,59
982,355	-21,49
982,558	-18,18
982,76	-21,05
982,963	-21,6
983,165	-20,36
983,368	-20,42
983,571	-20,69
983,773	-17,16
983,976	-16,35
984,178	-15,73
984,381	-16,27
984,583	-18,99
984,785	-19,31
984,988	-16,49
985,19	-15,02
985,392	-15,49
985,595	-17,79
985,797	-16,72
985,999	-13,08
986,202	-10,52
986,404	-10,86
986,606	-7,52
986,808	-7,36
987,01	-7,35
987,212	-8,32
987,415	-9,51
987,617	-9,77
987,819	-9,44
988,021	-8,5
988,223	-12,33
988,425	-13,37
988,627	-13,29
988,829	-16,43
989,031	-13,93
989,232	-14,53
989,434	-14,11
989,636	-14,25
989,838	-16,26
990,04	-15,18
990,242	-15,08
990,443	-17,55
990,645	-15,15
990,847	-12,2
991,048	-11,64
991,25	-14,79
991,452	-16,48
991,653	-18,48
991,855	-19,22
992,057	-19,99
992,258	-20,22
992,46	-21,72
992,661	-20,51
992,863	-21,85
993,064	-21,33
993,265	-22,26
993,467	-24,76
993,668	-22,18
993,87	-21,78
994,071	-22,75
994,272	-22,35
994,473	-19,62
994,675	-18,05
994,876	-17
995,077	-17,29
995,278	-17,97
995,48	-16,96
995,681	-18,61
995,882	-16,73
996,083	-15,72
996,284	-19,84
996,485	-20,42
996,686	-21,93
996,887	-23,39
997,088	-28,15
997,289	-29,87
997,49	-30,19
997,691	-30,61
997,892	-28,62
998,092	-23,26
998,293	-23,72
998,494	-24,81
998,695	-26,65
998,896	-24,91
999,096	-26,6
999,297	-26,45
999,498	-27,86
999,698	-29,48
999,899	-32,33
1000,1	-33,65
1000,3	-32,84
1000,501	-32,3
1000,701	-31,92
1000,902	-32,79
1001,102	-32,69
1001,303	-29,44
1001,503	-30,58
1001,704	-29,65
1001,904	-30,75
1002,105	-30,95
1002,305	-30,07
1002,505	-29,89
1002,706	-31,47
1002,906	-30,59
1003,106	-31,03
1003,306	-28,66
1003,507	-26,38
1003,707	-25,73
1003,907	-21,4
1004,107	-20,78
1004,307	-22,97
1004,507	-21,28
1004,707	-20,63
1004,907	-21,42
1005,107	-21,56
1005,308	-19,87
1005,507	-21,63
1005,707	-18,12
1005,907	-17,34
1006,107	-14,09
1006,307	-13,66
1006,507	-16,17
1006,707	-15,61
1006,907	-15,62
1007,106	-17,04
1007,306	-17,41
1007,506	-19,09
1007,706	-18,92
1007,905	-22,11
1008,105	-22,88
1008,305	-24,94
1008,504	-24,64
1008,704	-20,64
1008,903	-17,64
1009,103	-16,31
1009,303	-18,91
1009,502	-18,25
1009,702	-20,68
1009,901	-20,87
1010,1	-24,92
1010,3	-22,7
1010,499	-24,56
1010,699	-26,57
1010,898	-29,82
1011,097	-27,45
1011,296	-27,6
1011,496	-28,21
1011,695	-28,91
1011,894	-29,82
1012,093	-26,93
1012,293	-26,32
1012,492	-25,38
1012,691	-23,38
1012,89	-25,31
1013,089	-28,36
1013,288	-25,5
1013,487	-23,9
1013,686	-22,62
1013,885	-23,95
1014,084	-22,43
1014,283	-22,58
1014,482	-21,9
1014,681	-22,21
1014,88	-26,32
1015,078	-25,94
1015,277	-28,19
1015,476	-29,51
1015,675	-29,43
1015,873	-27,23
1016,072	-29,55
1016,271	-27,77
1016,47	-31,72
1016,668	-29,75
1016,867	-30,17
1017,065	-31,62
1017,264	-33,73
1017,463	-33,03
1017,661	-34,28
1017,86	-34,75
1018,058	-34,48
1018,256	-35,02
1018,455	-38,22
1018,653	-37,43
1018,852	-37,33
1019,05	-38,46
1019,248	-38,55
1019,447	-40,84
1019,645	-42,73
1019,843	-44,13
1020,041	-42,04
1020,24	-42,01
1020,438	-37,2
1020,636	-38,98
1020,834	-40,45
1021,032	-37,32
1021,23	-38,18
1021,428	-36,18
1021,626	-31,23
1021,824	-31,24
1022,022	-31,29
1022,22	-29,51
1022,418	-27,61
1022,616	-28,9
1022,814	-30,63
1023,012	-30,13
1023,21	-26,48
1023,408	-26,08
1023,606	-27,56
1023,803	-22,25
1024,001	-20,5
1024,199	-23,64
1024,397	-23,79
1024,594	-24,34
1024,792	-26,04
1024,99	-25,96
1025,187	-25,55
1025,385	-21,26
1025,582	-21,02
1025,78	-20,35
1025,977	-20,62
1026,175	-21,9
1026,372	-20,08
1026,57	-21,98
1026,767	-18,39
1026,965	-17,85
1027,162	-18,23
1027,359	-19,23
1027,557	-19,13
1027,754	-21,48
1027,951	-22,93
1028,148	-22,79
1028,346	-24,92
1028,543	-28,13
1028,74	-27,59
1028,937	-29,76
1029,134	-30,94
1029,331	-31,41
1029,528	-29,84
1029,725	-30,92
1029,923	-34,12
1030,12	-30,71
1030,317	-28,53
1030,513	-26,39
1030,71	-24,1
1030,907	-22,5
1031,104	-23,11
1031,301	-23,64
1031,498	-24,73
1031,695	-25,03
1031,892	-25,13
1032,088	-24,73
1032,285	-25,09
1032,482	-28,11
1032,678	-31,21
1032,875	-34,2
1033,072	-33,2
1033,268	-34,06
1033,465	-34,11
1033,662	-36,05
1033,858	-35,23
1034,055	-34,15
1034,251	-31,33
1034,448	-29,95
1034,644	-29,66
1034,84	-26,9
1035,037	-23,76
1035,233	-22,71
1035,43	-21,03
1035,626	-22,44
1035,822	-21,69
1036,019	-22,48
1036,215	-26,73
1036,411	-28,38
1036,607	-31,65
1036,803	-34,23
1037	-35,05
1037,196	-38,17
1037,392	-38,36
1037,588	-40,56
1037,784	-39,94
1037,98	-40,1
1038,176	-40,91
1038,372	-42,03
1038,568	-38,58
1038,764	-37,18
1038,96	-34,68
1039,156	-36,8
1039,352	-37,53
1039,547	-36,14
1039,743	-34,71
1039,939	-33,35
1040,135	-34,76
1040,331	-36,37
1040,526	-34,57
1040,722	-35,84
1040,918	-38,05
1041,113	-40,91
1041,309	-41,63
1041,505	-44,27
1041,7	-42,78
1041,896	-42,22
1042,091	-42,21
1042,287	-40,85
1042,482	-40,29
1042,678	-39,83
1042,873	-38,21
1043,069	-39,18
1043,264	-35,73
1043,459	-34,46
1043,655	-33,15
1043,85	-33,96
1044,045	-33,87
1044,24	-33,24
1044,436	-30,28
1044,631	-32,94
1044,826	-32,47
1045,021	-35,13
1045,216	-34,04
