Data from FLMT021711__6__17-54-10-264.txt Node

Date: Tue Nov 05 17:54:10 CET 2024
User: Etudiants TP
Spectrometer: FLMT02171
Trigger mode: 0
Integration Time (sec): 1.000000E-1
Scans to average: 5
Electric dark correction enabled: true
Nonlinearity correction enabled: false
Boxcar width: 15
XAxis mode: Wavelengths
Number of Pixels in Spectrum: 3648
>>>>>Begin Spectral Data<<<<<
194.658	-61.34
194.923	-59.93
195.188	-53.01
195.453	-52.91
195.717	-47.59
195.982	-46.17
196.247	-44.94
196.512	-46.69
196.777	-44.43
197.042	-42.74
197.307	-42.7
197.572	-38.2
197.837	-38.03
198.101	-35.47
198.366	-32.2
198.631	-29.67
198.896	-24.67
199.161	-18.45
199.425	-11.42
199.69	-1.69
199.955	-3
200.22	-6.48
200.484	-7.85
200.749	-8.09
201.014	-8.38
201.278	-9.56
201.543	-9.82
201.807	-10.49
202.072	-9.64
202.337	-10.85
202.601	-8.62
202.866	-10.95
203.13	-9.56
203.395	-11.45
203.659	-10.67
203.924	-12.34
204.189	-11.77
204.453	-11.12
204.717	-9.96
204.982	-9.2
205.246	-8.02
205.511	-5.76
205.775	-6.57
206.04	-1.75
206.304	-0.75
206.568	-0.15
206.833	-1.37
207.097	1.83
207.361	4.03
207.626	7.39
207.89	7.67
208.154	8.6
208.419	11.81
208.683	11.8
208.947	14.24
209.211	15.04
209.476	15.75
209.74	16.1
210.004	16.53
210.268	17.59
210.532	21.5
210.796	20.07
211.061	21.62
211.325	22.08
211.589	20.47
211.853	20.87
212.117	20.61
212.381	20.92
212.645	21.42
212.909	21.87
213.173	19.03
213.437	18.93
213.701	18.36
213.965	18.68
214.229	13.64
214.493	12.87
214.757	11.56
215.021	12.17
215.285	15.07
215.549	17.1
215.813	14.31
216.077	13.58
216.34	15.61
216.604	13.83
216.868	15.28
217.132	15.53
217.396	15
217.659	15.24
217.923	11.57
218.187	11.8
218.451	10.13
218.714	8.58
218.978	8.87
219.242	10.4
219.505	10.96
219.769	12.47
220.033	13.15
220.296	15.61
220.56	16.77
220.824	14.04
221.087	14.58
221.351	15.09
221.614	15.07
221.878	16.64
222.142	13.78
222.405	14.82
222.669	15.77
222.932	11.45
223.196	8.81
223.459	4.49
223.722	4.06
223.986	2.81
224.249	2.25
224.513	1.38
224.776	0.84
225.04	-0.69
225.303	-0.54
225.566	0.19
225.83	1.97
226.093	5.63
226.356	4.42
226.62	3.46
226.883	4.66
227.146	4.65
227.409	3.53
227.673	1.68
227.936	0.55
228.199	0.35
228.462	-3.37
228.725	-5.49
228.989	-4.71
229.252	-3.33
229.515	1.36
229.778	-0.57
230.041	-1.64
230.304	-2.04
230.567	-1.62
230.83	-3.2
231.093	0.3
231.356	0.63
231.619	7.22
231.882	7.03
232.145	10.42
232.408	9.4
232.671	9.76
232.934	10.69
233.197	7.73
233.46	6.2
233.723	6.91
233.986	5.23
234.249	2.35
234.512	4.17
234.775	7.67
235.037	6.01
235.3	6.43
235.563	6.89
235.826	8.15
236.089	10.1
236.351	9.53
236.614	12.21
236.877	13.98
237.14	16.07
237.402	15.48
237.665	8.93
237.928	10.32
238.19	7.33
238.453	10.6
238.716	9.97
238.978	10.42
239.241	8.44
239.503	10.6
239.766	6.83
240.029	4.79
240.291	5.87
240.554	4.97
240.816	2.99
241.079	3.35
241.341	4.41
241.604	3.53
241.866	1.72
242.129	2.4
242.391	4.66
242.653	2.69
242.916	2.48
243.178	2.42
243.441	3.44
243.703	2.79
243.965	-0.33
244.228	0.08
244.49	0.72
244.752	1.79
245.015	1.29
245.277	3.88
245.539	2.69
245.801	4.8
246.064	2.54
246.326	3.01
246.588	2.67
246.85	4.68
247.112	4.64
247.374	7.68
247.637	9.7
247.899	8
248.161	8.59
248.423	4.31
248.685	5.41
248.947	5.96
249.209	5.17
249.471	7.03
249.733	8.39
249.995	5.41
250.257	4.68
250.519	4.21
250.781	7.1
251.043	4.66
251.305	6.44
251.567	8.13
251.829	8.52
252.091	9.83
252.353	5.87
252.615	4.43
252.876	2.61
253.138	0.81
253.4	-4.46
253.662	-3.37
253.924	0.03
254.185	1.71
254.447	2.9
254.709	2.14
254.971	3.29
255.232	4.64
255.494	2.17
255.756	-0.36
256.017	0.23
256.279	0.42
256.541	1.5
256.802	2.16
257.064	3.53
257.326	2.31
257.587	2.9
257.849	2.91
258.11	6.48
258.372	7.15
258.633	7.98
258.895	7.96
259.156	6.32
259.418	4.95
259.679	0.27
259.941	-1.2
260.202	1.5
260.464	4.15
260.725	4.06
260.987	2.95
261.248	3.21
261.509	4.55
261.771	3.36
262.032	2.9
262.293	2.62
262.555	2.15
262.816	-0.36
263.077	-2.74
263.338	-5.25
263.6	-4.82
263.861	-5.12
264.122	-6.35
264.383	-3.95
264.645	-3.92
264.906	-5.02
265.167	-3.8
265.428	-3.23
265.689	-2.74
265.95	-4.37
266.211	-2.31
266.473	-2.22
266.734	-6.1
266.995	-10.89
267.256	-9.21
267.517	-7.23
267.778	-3.7
268.039	-2.84
268.3	-4.73
268.561	-7.39
268.822	-4.81
269.083	-6.28
269.344	-7.43
269.604	-7.82
269.865	-6.9
270.126	-10.3
270.387	-9.86
270.648	-8.89
270.909	-8.65
271.17	-9.73
271.43	-11.67
271.691	-12.84
271.952	-13.1
272.213	-9.92
272.473	-12.67
272.734	-10.83
272.995	-9.4
273.256	-10.06
273.516	-7.63
273.777	-10.89
274.038	-9.12
274.298	-13.27
274.559	-13.93
274.82	-8.94
275.08	-5.22
275.341	-3.56
275.601	-4.28
275.862	-5.25
276.122	-4.38
276.383	-4.4
276.643	-2.07
276.904	-3.01
277.164	0.04
277.425	0.5
277.685	3.83
277.946	2.91
278.206	4.46
278.467	6.4
278.727	5.83
278.987	5.59
279.248	5.09
279.508	6.18
279.768	8.35
280.029	9.21
280.289	5.48
280.549	4.69
280.81	4.26
281.07	3.77
281.33	4.94
281.59	2.24
281.851	6.12
282.111	5.54
282.371	5.84
282.631	7.06
282.891	5.75
283.151	3.53
283.412	1.56
283.672	0.25
283.932	0.64
284.192	1.45
284.452	-0.13
284.712	-2.66
284.972	-3.93
285.232	-6.16
285.492	-3.75
285.752	-5.58
286.012	1.44
286.272	2.76
286.532	0.61
286.792	-0
287.052	1.75
287.312	2.76
287.571	2.27
287.831	2.96
288.091	-0.1
288.351	0.88
288.611	4.85
288.871	4.69
289.13	4.42
289.39	1.23
289.65	3.03
289.91	0.03
290.17	2.1
290.429	4.49
290.689	1.06
290.949	-1.16
291.208	0.67
291.468	3.63
291.728	5.32
291.987	5.36
292.247	3.26
292.506	6.61
292.766	9.64
293.026	9.22
293.285	10.84
293.545	13.19
293.804	13.44
294.064	9.03
294.323	6.92
294.583	7.61
294.842	9.39
295.102	10.08
295.361	10.25
295.621	10.37
295.88	9.82
296.139	9.41
296.399	8.53
296.658	3.68
296.917	3.13
297.177	0.41
297.436	2.52
297.695	0.23
297.955	2.06
298.214	1.03
298.473	3.29
298.732	6.2
298.992	8.27
299.251	7.66
299.51	4.05
299.769	4.2
300.028	4.88
300.287	6.29
300.547	5.78
300.806	3.19
301.065	5.77
301.324	7.33
301.583	2.67
301.842	-0.96
302.101	-2.83
302.36	-1.79
302.619	-2.44
302.878	-2.89
303.137	-6.01
303.396	-5.16
303.655	-2.84
303.914	-5.74
304.173	-4.55
304.432	-3.75
304.691	-0.24
304.95	-2.41
305.208	2.11
305.467	1.19
305.726	1.5
305.985	2.57
306.244	3.52
306.503	1.22
306.761	-0.44
307.02	-3.76
307.279	-2.86
307.537	-1.36
307.796	-4.33
308.055	-7.5
308.314	-5.82
308.572	-7.6
308.831	-5.54
309.09	-5.42
309.348	-4.95
309.607	-4.67
309.865	-0.26
310.124	0.08
310.382	0.67
310.641	1.11
310.9	-1.62
311.158	-0.15
311.417	-1.05
311.675	-0.33
311.933	0.42
312.192	2.94
312.45	2.86
312.709	1.92
312.967	1.61
313.226	0.52
313.484	0.52
313.742	-0.94
314.001	-3.63
314.259	-5.45
314.517	-4.89
314.776	-2.67
315.034	0.5
315.292	-2.04
315.55	-4.45
315.809	-5.65
316.067	-3.86
316.325	-6.36
316.583	-5.42
316.841	-6.94
317.1	-9.08
317.358	-11.8
317.616	-12.71
317.874	-14.51
318.132	-14.9
318.39	-14.98
318.648	-15.72
318.906	-14.66
319.164	-14.95
319.422	-14.6
319.68	-16.95
319.938	-15.56
320.196	-16.93
320.454	-16.61
320.712	-16.83
320.97	-15.49
321.228	-16.57
321.486	-13.87
321.744	-11.16
322.002	-9.28
322.26	-11.33
322.517	-10.24
322.775	-12.55
323.033	-13.91
323.291	-10.76
323.549	-8.52
323.806	-5.26
324.064	-5.54
324.322	-4.07
324.58	-5.39
324.837	-2.94
325.095	-4.32
325.353	-3.9
325.61	-0.35
325.868	-1.75
326.126	-0.92
326.383	-2.57
326.641	-3.37
326.898	-1.14
327.156	0.09
327.413	0.41
327.671	1.05
327.928	3.51
328.186	4.03
328.443	3.51
328.701	6.87
328.958	6.93
329.216	8.07
329.473	5.94
329.731	6.06
329.988	6.88
330.245	10.39
330.503	10.74
330.76	10.62
331.017	12.29
331.275	9.34
331.532	7.78
331.789	4.54
332.047	3.59
332.304	0.02
332.561	1.73
332.818	-0.02
333.076	2.02
333.333	3.38
333.59	2.09
333.847	4.76
334.104	4.89
334.361	6.36
334.618	6.63
334.876	5.11
335.133	3.99
335.39	2.01
335.647	2.99
335.904	-2.65
336.161	-4.78
336.418	-3.42
336.675	-7.25
336.932	-4.62
337.189	-5.59
337.446	-6.22
337.703	-7.88
337.96	-11.35
338.216	-11.64
338.473	-14.78
338.73	-12.88
338.987	-12.16
339.244	-9.21
339.501	-8.7
339.757	-6.86
340.014	-5.27
340.271	-3.46
340.528	-3.84
340.785	-0.18
341.041	-0.67
341.298	-3.72
341.555	-3.87
341.811	-4.83
342.068	-7.1
342.325	-7.6
342.581	-6.1
342.838	-5.69
343.094	-4.98
343.351	-4.15
343.608	-6.9
343.864	-3.17
344.121	-1.53
344.377	-3.01
344.634	-4.04
344.89	-6.33
345.147	-6.72
345.403	-7.49
345.66	-7.95
345.916	-5.73
346.172	-8.55
346.429	-9.49
346.685	-12.42
346.942	-12.19
347.198	-15.87
347.454	-15.42
347.711	-15.42
347.967	-17.75
348.223	-17.3
348.48	-18.66
348.736	-15.26
348.992	-14.49
349.248	-11.36
349.504	-10.72
349.761	-10.81
350.017	-10.38
350.273	-11.52
350.529	-12.77
350.785	-13.59
351.041	-15.09
351.297	-14.18
351.554	-15.08
351.81	-16.24
352.066	-17.84
352.322	-17.39
352.578	-16.7
352.834	-17.64
353.09	-17.47
353.346	-16.87
353.602	-16.78
353.858	-17.1
354.114	-16.19
354.369	-13.75
354.625	-10.63
354.881	-11.65
355.137	-9.4
355.393	-9.24
355.649	-9.66
355.905	-8.49
356.16	-8.5
356.416	-7.07
356.672	-14.49
356.928	-14.72
357.183	-15.31
357.439	-16.11
357.695	-17.82
357.951	-14.27
358.206	-14.19
358.462	-13.02
358.718	-13.62
358.973	-12.36
359.229	-12.41
359.484	-10.73
359.74	-8.57
359.996	-6.57
360.251	-3.23
360.507	-3.35
360.762	-2.75
361.018	-0.26
361.273	-2.93
361.529	-1.29
361.784	-3.63
362.04	-2.54
362.295	-3.87
362.55	-4.33
362.806	-3.43
363.061	-3.51
363.316	-3.02
363.572	-1.35
363.827	0.06
364.082	-2.48
364.338	-3.55
364.593	-2.5
364.848	-2.66
365.104	-4.38
365.359	-1.34
365.614	-0.13
365.869	-2.22
366.124	-1.81
366.38	-4.06
366.635	-2.39
366.89	-1.06
367.145	-1.11
367.4	2.54
367.655	2.51
367.91	1.14
368.165	-1.87
368.42	-4.28
368.675	-2.55
368.93	-2.21
369.185	-3.34
369.44	-4.39
369.695	-1.17
369.95	-1.86
370.205	-2.5
370.46	-3.25
370.715	-3.96
370.97	-1
371.225	-0.74
371.48	0.47
371.734	-0.15
371.989	1.19
372.244	1.65
372.499	3.04
372.754	2.38
373.008	0.98
373.263	-4.49
373.518	-3.03
373.773	-5.04
374.027	-5.65
374.282	-2.21
374.537	-1.42
374.791	-1.45
375.046	-3.4
375.301	-5.49
375.555	-8.26
375.81	-6.07
376.064	-5.01
376.319	-1.01
376.573	-3.28
376.828	-8.05
377.082	-3.14
377.337	-4.82
377.591	-6.87
377.846	-6.19
378.1	-2.77
378.355	-2.6
378.609	-2.99
378.863	-7.68
379.118	-7.16
379.372	-8.97
379.627	-10.33
379.881	-11.16
380.135	-11.01
380.389	-10.5
380.644	-9.91
380.898	-8.63
381.152	-6.6
381.407	-6.57
381.661	-3.63
381.915	-3.24
382.169	-3.97
382.423	-5.04
382.677	-7.41
382.932	-5.81
383.186	-4.88
383.44	-3.41
383.694	-2.78
383.948	-4.44
384.202	-6.47
384.456	-3.59
384.71	-1.29
384.964	-4.26
385.218	-1.37
385.472	-0.45
385.726	-0.67
385.98	-1.4
386.234	-1.82
386.488	-4.67
386.742	-1.97
386.996	-3.26
387.249	-2.98
387.503	-0.68
387.757	0.26
388.011	1.35
388.265	0.79
388.518	2.77
388.772	4.76
389.026	5.78
389.28	3.23
389.533	1.49
389.787	4.12
390.041	1.67
390.295	1.55
390.548	1.71
390.802	3.97
391.055	1.75
391.309	0.43
391.563	-1.34
391.816	-0.25
392.07	-1.23
392.323	-0.78
392.577	0.34
392.83	3.38
393.084	8.09
393.337	11.61
393.591	12.86
393.844	13
394.098	17
394.351	21.67
394.604	22.08
394.858	22.4
395.111	22.33
395.364	19.84
395.618	21.73
395.871	18.74
396.124	17.31
396.378	15.43
396.631	13.77
396.884	10.84
397.137	11.36
397.391	13.19
397.644	10.54
397.897	11.13
398.15	12.84
398.403	16.64
398.657	15.28
398.91	15.44
399.163	17.3
399.416	17.57
399.669	16
399.922	15.58
400.175	13.8
400.428	11.92
400.681	12.17
400.934	7.25
401.187	5.52
401.44	4.58
401.693	2.3
401.946	-1.65
402.199	-6.4
402.452	-7.5
402.704	-8.57
402.957	-8.67
403.21	-7.05
403.463	-8.48
403.716	-7.06
403.969	-5.05
404.221	-6.61
404.474	-4.38
404.727	-1.64
404.98	-0.24
405.232	-1.11
405.485	0.42
405.738	2.69
405.99	2.34
406.243	2.49
406.496	5.07
406.748	4.22
407.001	3.14
407.253	4.08
407.506	4.9
407.759	6.13
408.011	4.38
408.264	5.84
408.516	4.69
408.769	2.11
409.021	3.25
409.274	3.74
409.526	7.1
409.778	6.74
410.031	9.41
410.283	9.12
410.536	13.8
410.788	12.92
411.04	12.21
411.293	13.87
411.545	15.82
411.797	14.5
412.049	16.19
412.302	17
412.554	18.48
412.806	16.74
413.058	15.62
413.311	15.38
413.563	13.18
413.815	12.58
414.067	9.68
414.319	7.52
414.571	8.96
414.823	7.39
415.075	4.82
415.328	5.43
415.58	8.98
415.832	9.47
416.084	10.24
416.336	9.02
416.588	13.98
416.84	10.08
417.091	13
417.343	9.07
417.595	11.36
417.847	11.81
418.099	11.99
418.351	10.86
418.603	11.69
418.855	12.25
419.106	12.22
419.358	10.73
419.61	10.82
419.862	11.62
420.114	9.63
420.365	8.53
420.617	9.28
420.869	8.04
421.12	7.78
421.372	10.18
421.624	10.05
421.875	10.48
422.127	7.26
422.379	7.89
422.63	9.9
422.882	9.4
423.133	8.15
423.385	7.42
423.636	9.27
423.888	10.44
424.139	12.72
424.391	9.96
424.642	8.9
424.894	5.68
425.145	5.38
425.396	3.3
425.648	6.13
425.899	5.94
426.151	5.38
426.402	5.62
426.653	6.53
426.905	5.53
427.156	4.16
427.407	4.4
427.658	3.13
427.91	1.02
428.161	2.04
428.412	4.57
428.663	6.81
428.914	7.76
429.166	9.63
429.417	10.23
429.668	9.6
429.919	8.85
430.17	8.77
430.421	9.24
430.672	12.43
430.923	13.37
431.174	12.25
431.425	12.83
431.676	12.59
431.927	9.68
432.178	10.96
432.429	11.97
432.68	12.24
432.931	15.87
433.182	18
433.433	14.74
433.683	16.31
433.934	15.16
434.185	15.35
434.436	15.08
434.687	15.66
434.937	18.81
435.188	16.34
435.439	15.88
435.69	19.73
435.94	18.34
436.191	18.58
436.442	17.85
436.692	17.05
436.943	14.3
437.194	12.06
437.444	14.59
437.695	18.42
437.945	19.62
438.196	18.05
438.447	17.8
438.697	18.1
438.948	17.17
439.198	13.4
439.449	9.53
439.699	9.83
439.949	10.66
440.2	10.03
440.45	12
440.701	10.79
440.951	10.89
441.201	11.61
441.452	9.25
441.702	8.41
441.952	9.08
442.203	9.63
442.453	8.2
442.703	8.04
442.953	10.86
443.204	13.34
443.454	9.33
443.704	10.75
443.954	8.48
444.204	9.49
444.455	11.45
444.705	13.19
444.955	14.33
445.205	13.3
445.455	12.3
445.705	12.44
445.955	13.93
446.205	13.54
446.455	14.67
446.705	16.04
446.955	18.91
447.205	22.07
447.455	25.93
447.705	23.94
447.955	25.99
448.205	26.01
448.454	25.32
448.704	26.8
448.954	27.69
449.204	30.15
449.454	32.04
449.704	31.31
449.953	31.12
450.203	35.04
450.453	34.99
450.703	37.57
450.952	36.82
451.202	40.46
451.452	40.01
451.701	44.14
451.951	49.15
452.201	48.56
452.45	48.44
452.7	50.13
452.949	51.51
453.199	52.23
453.448	53.98
453.698	55.89
453.947	57.69
454.197	57.44
454.446	57.96
454.696	61.3
454.945	61.62
455.195	60.77
455.444	63.35
455.693	66.62
455.943	65.34
456.192	68.17
456.442	69.67
456.691	70.33
456.94	70.01
457.189	70.06
457.439	71.61
457.688	73.85
457.937	73.21
458.186	72.95
458.436	74.18
458.685	75.38
458.934	73.62
459.183	73.88
459.432	74.95
459.681	74.21
459.93	74.2
460.179	74.09
460.429	73.2
460.678	76.07
460.927	79.29
461.176	79.28
461.425	78.76
461.674	79.84
461.923	81.93
462.172	81.3
462.42	79.2
462.669	80.86
462.918	81.24
463.167	79.83
463.416	77.25
463.665	78.84
463.914	78.93
464.162	76.51
464.411	77.28
464.66	78.35
464.909	77.65
465.158	78.1
465.406	76.97
465.655	78.24
465.904	79.67
466.152	79.13
466.401	79.87
466.65	83.3
466.898	81.29
467.147	77.14
467.395	74.96
467.644	76.91
467.893	75.26
468.141	75.98
468.39	73.17
468.638	70.09
468.887	67.25
469.135	66.74
469.384	65.5
469.632	64.57
469.88	63.76
470.129	65.92
470.377	62.66
470.626	65.12
470.874	68.08
471.122	69.05
471.371	67.75
471.619	67.21
471.867	69.64
472.115	68.82
472.364	67.09
472.612	69.06
472.86	67.73
473.108	69.13
473.356	68.8
473.605	67.9
473.853	64.15
474.101	63.47
474.349	61.12
474.597	65.02
474.845	64.09
475.093	63.45
475.341	60.38
475.589	61.89
475.837	62.86
476.085	64.06
476.333	63.52
476.581	66.21
476.829	65.54
477.077	68.25
477.325	68.51
477.573	71.01
477.821	69.03
478.069	71.32
478.317	70.1
478.564	70.54
478.812	70.17
479.06	68.81
479.308	66.45
479.555	67.09
479.803	66.01
480.051	68.34
480.299	68.95
480.546	70.23
480.794	67.47
481.042	67.68
481.289	67.47
481.537	69.83
481.784	68.08
482.032	70.88
482.28	70.65
482.527	70.43
482.775	71.6
483.022	74.24
483.27	76.33
483.517	79.13
483.765	78.22
484.012	77.85
484.259	73.98
484.507	77.24
484.754	76.38
485.002	76.61
485.249	75.75
485.496	79.31
485.744	78.44
485.991	78.29
486.238	77.55
486.486	79.89
486.733	82.15
486.98	86.26
487.227	84.04
487.474	86.23
487.722	87.83
487.969	85.55
488.216	86.33
488.463	88.29
488.71	86.03
488.957	85.07
489.204	85.11
489.451	87.96
489.699	87.73
489.946	84.55
490.193	85.32
490.44	83.99
490.687	84.6
490.934	82.23
491.18	79.3
491.427	80.53
491.674	84.53
491.921	86.97
492.168	84.97
492.415	84.71
492.662	85.26
492.909	87.79
493.155	86.49
493.402	85.17
493.649	82.57
493.896	83.06
494.142	80.13
494.389	81.12
494.636	79.11
494.883	77.26
495.129	76.85
495.376	75.65
495.623	78.32
495.869	80.33
496.116	81.07
496.362	83.97
496.609	88.47
496.855	94.16
497.102	92.94
497.348	93.49
497.595	96.41
497.841	101.14
498.088	102.62
498.334	100.61
498.581	99.81
498.827	100.53
499.074	100.97
499.32	100.95
499.566	103.94
499.813	106.05
500.059	103.59
500.305	104.54
500.552	104.37
500.798	104.56
501.044	110.11
501.29	110.26
501.537	108.62
501.783	111.52
502.029	113.87
502.275	111.42
502.521	112
502.767	113.04
503.013	116.02
503.26	113.48
503.506	110.4
503.752	111.94
503.998	110.65
504.244	111.83
504.49	108.02
504.736	110.44
504.982	108.54
505.228	109.88
505.474	110.37
505.72	110.97
505.966	112.84
506.211	115.79
506.457	115.89
506.703	113.81
506.949	113.19
507.195	111.31
507.441	107.62
507.686	112.57
507.932	112.16
508.178	113.5
508.424	111.03
508.669	108.1
508.915	109.36
509.161	111.62
509.406	111.5
509.652	111.28
509.898	115.16
510.143	115.97
510.389	114.57
510.634	111.67
510.88	114.44
511.125	118.03
511.371	118.71
511.616	119.34
511.862	115.5
512.107	113.56
512.353	114.65
512.598	116.36
512.844	114.05
513.089	111.94
513.335	113.23
513.58	111.8
513.825	112.2
514.071	111.17
514.316	111.41
514.561	112.41
514.806	112.71
515.052	116.7
515.297	115.45
515.542	116.4
515.787	116.11
516.033	118.06
516.278	118.46
516.523	117.39
516.768	116.75
517.013	114.79
517.258	113.24
517.503	113.03
517.748	113.26
517.993	112.68
518.238	113.32
518.483	113.87
518.728	111.73
518.973	108.87
519.218	109.57
519.463	111.21
519.708	111.57
519.953	109.85
520.198	110.01
520.443	112.71
520.688	115.45
520.933	113
521.177	113.34
521.422	112.15
521.667	114.58
521.912	116.06
522.157	111.95
522.401	114.87
522.646	113.54
522.891	113.07
523.135	112.88
523.38	112.75
523.625	111.48
523.869	112.02
524.114	114.31
524.358	112.54
524.603	113.52
524.848	110.89
525.092	109.48
525.337	111.74
525.581	113.43
525.826	114.25
526.07	113.69
526.315	114.51
526.559	113.53
526.803	111.41
527.048	114.56
527.292	115.07
527.537	114.91
527.781	114.17
528.025	111.26
528.269	111.83
528.514	112.5
528.758	111.8
529.002	112.08
529.247	115.03
529.491	111.93
529.735	115.53
529.979	113.36
530.223	115.19
530.467	112.08
530.712	109.86
530.956	107.56
531.2	108.74
531.444	107.04
531.688	107.9
531.932	107.5
532.176	107.49
532.42	107.86
532.664	109.56
532.908	107.58
533.152	105.82
533.396	105.08
533.64	104.08
533.884	101.98
534.128	101.53
534.371	102.41
534.615	101.43
534.859	100.05
535.103	98.86
535.347	97.7
535.59	99.03
535.834	94.38
536.078	96.87
536.322	97.79
536.565	99.41
536.809	96.58
537.053	99.33
537.296	97.02
537.54	97.21
537.784	94.69
538.027	97.2
538.271	95.8
538.514	95.32
538.758	94.24
539.001	92.48
539.245	92.38
539.488	93.61
539.732	95.96
539.975	97.29
540.219	98.82
540.462	97.85
540.706	99.71
540.949	99.6
541.192	99.1
541.436	103.8
541.679	109.28
541.922	110.82
542.166	106.39
542.409	106.59
542.652	106.56
542.895	108.27
543.139	108.09
543.382	112.66
543.625	110.43
543.868	110.44
544.111	108.18
544.354	106.35
544.598	103.51
544.841	105.45
545.084	104.05
545.327	102.99
545.57	103.76
545.813	106.2
546.056	105.32
546.299	106.49
546.542	109.54
546.785	109.64
547.028	109.28
547.271	107.47
547.514	107.73
547.756	105.12
547.999	105.79
548.242	105.78
548.485	102.43
548.728	102.62
548.971	97.55
549.213	96.57
549.456	94.69
549.699	94.42
549.942	93.9
550.184	93.5
550.427	91.91
550.67	92.2
550.912	87.05
551.155	88.01
551.398	87.43
551.64	86.08
551.883	85.66
552.125	86.26
552.368	85.38
552.61	82.5
552.853	84.69
553.095	82.24
553.338	81.51
553.58	82.59
553.823	80
554.065	83.01
554.308	80.51
554.55	79.73
554.792	76.85
555.035	74.47
555.277	72.74
555.519	72.93
555.762	70.54
556.004	71.9
556.246	68.37
556.488	69.1
556.731	64.73
556.973	66.36
557.215	66.49
557.457	67.68
557.699	70.05
557.941	67.12
558.183	66.69
558.426	69.11
558.668	66.09
558.91	66.44
559.152	68.26
559.394	67.79
559.636	69.14
559.878	71.29
560.12	71.57
560.362	71.59
560.604	71.9
560.845	71.29
561.087	69.47
561.329	71.06
561.571	65.74
561.813	66.18
562.055	63.64
562.297	64.37
562.538	64.86
562.78	67.61
563.022	65.5
563.264	66.64
563.505	66.88
563.747	68.36
563.989	66.01
564.23	65.09
564.472	62.32
564.714	64.17
564.955	63.65
565.197	60.18
565.438	63.91
565.68	65.43
565.921	62.87
566.163	63.13
566.404	62.02
566.646	62.74
566.887	64.94
567.129	66.62
567.37	64.52
567.612	66.14
567.853	64.66
568.094	66.8
568.336	66.18
568.577	66.48
568.818	67.98
569.06	67.27
569.301	64.19
569.542	64.43
569.783	65.29
570.025	65.43
570.266	64.88
570.507	66.91
570.748	66.28
570.989	67.05
571.23	69.82
571.472	70.6
571.713	70.8
571.954	72.87
572.195	71.88
572.436	73.87
572.677	76.95
572.918	77.65
573.159	74.97
573.4	73.36
573.641	73.95
573.882	73.72
574.123	72.11
574.364	67.57
574.604	68.02
574.845	64.81
575.086	64.92
575.327	65.16
575.568	62.95
575.809	62.27
576.049	62.43
576.29	59.84
576.531	63.74
576.771	68.28
577.012	71.47
577.253	73.01
577.494	72.28
577.734	72.57
577.975	72.04
578.215	72.26
578.456	70.42
578.697	68.9
578.937	71.78
579.178	72.31
579.418	69.9
579.659	68.71
579.899	65.05
580.14	62.84
580.38	60.95
580.62	61.62
580.861	64.93
581.101	64.28
581.342	65.55
581.582	61.23
581.822	63.78
582.063	61.55
582.303	63.51
582.543	63.61
582.783	65.08
583.024	67.46
583.264	69.98
583.504	68.27
583.744	68.91
583.984	66.39
584.224	65.26
584.465	64.26
584.705	63.55
584.945	64.58
585.185	64
585.425	65.77
585.665	65.36
585.905	65.19
586.145	64.74
586.385	62.1
586.625	65.66
586.865	66.39
587.105	66.4
587.345	67.56
587.585	69.33
587.824	69.36
588.064	69.48
588.304	67.98
588.544	68.45
588.784	65.79
589.024	68.43
589.263	68.13
589.503	66.83
589.743	68.99
589.982	67.93
590.222	67.04
590.462	63.68
590.701	61.61
590.941	63.68
591.181	63.4
591.42	62.43
591.66	66.2
591.899	69.29
592.139	67.94
592.378	68.6
592.618	67.04
592.857	65.88
593.097	67.43
593.336	67.65
593.576	67.26
593.815	68.17
594.055	65.91
594.294	65.02
594.533	65.36
594.773	64.19
595.012	63.53
595.251	63.71
595.491	67.33
595.73	70.16
595.969	70.4
596.208	72.66
596.447	77.17
596.687	78.41
596.926	79.24
597.165	75.55
597.404	77.96
597.643	77.13
597.882	76.48
598.121	77.33
598.36	79.99
598.599	80.34
598.838	81.27
599.077	76.35
599.316	76.2
599.555	75.18
599.794	75.12
600.033	78.17
600.272	79.23
600.511	77.17
600.75	77.45
600.989	78.69
601.228	78.18
601.466	77.91
601.705	80.14
601.944	80.59
602.183	82.13
602.422	82.06
602.66	81.18
602.899	79.13
603.138	77.96
603.376	76.89
603.615	76.24
603.854	73.43
604.092	72.94
604.331	74.69
604.569	77.11
604.808	75.82
605.047	76.87
605.285	76.95
605.524	77.54
605.762	75.79
606	78.33
606.239	79.26
606.477	80.31
606.716	76.89
606.954	77.49
607.193	74.88
607.431	70.03
607.669	67.99
607.908	67.22
608.146	70.46
608.384	69.22
608.622	69.04
608.861	68.8
609.099	67.72
609.337	65.98
609.575	65.17
609.813	64.58
610.052	64.46
610.29	60.42
610.528	58.73
610.766	58.51
611.004	59.01
611.242	57.76
611.48	57.78
611.718	54.47
611.956	54.92
612.194	53.82
612.432	54.05
612.67	53.1
612.908	54.21
613.146	51.8
613.384	50.45
613.621	49.42
613.859	49.19
614.097	47.41
614.335	47.63
614.573	49.73
614.811	51.75
615.048	51.48
615.286	51.48
615.524	49.45
615.761	46.73
615.999	47.28
616.237	47.21
616.474	49.02
616.712	50.68
616.95	49.18
617.187	48.94
617.425	50.11
617.662	51.48
617.9	49.69
618.137	48.03
618.375	45.73
618.612	44.14
618.85	45.8
619.087	48.5
619.325	47.07
619.562	46.2
619.799	43.88
620.037	44.48
620.274	42.46
620.511	43.99
620.749	40.1
620.986	37.82
621.223	35.41
621.461	36.22
621.698	37.95
621.935	36.78
622.172	35.47
622.409	38.15
622.647	37.85
622.884	35.32
623.121	37.8
623.358	35.72
623.595	35.22
623.832	34.64
624.069	33.1
624.306	34.87
624.543	37.2
624.78	38.04
625.017	37.22
625.254	40.98
625.491	44.91
625.728	47.46
625.965	47.93
626.202	46.01
626.438	44.95
626.675	44.6
626.912	46
627.149	47.9
627.386	47.39
627.622	47.26
627.859	46.56
628.096	48.33
628.333	49.24
628.569	51.15
628.806	53.24
629.043	51.66
629.279	52.57
629.516	53.81
629.752	49.07
629.989	49.68
630.225	48.62
630.462	49.39
630.699	49.9
630.935	50.28
631.171	47.46
631.408	47.76
631.644	46.08
631.881	43.07
632.117	40.73
632.354	42.41
632.59	40.98
632.826	39.28
633.063	37.74
633.299	39.49
633.535	37.56
633.771	36.04
634.008	38.84
634.244	39.61
634.48	36.75
634.716	38.93
634.953	38.26
635.189	38.22
635.425	39.74
635.661	42.1
635.897	40.1
636.133	38.15
636.369	37.23
636.605	33.81
636.841	33.74
637.077	35.74
637.313	34.58
637.549	34.94
637.785	33.78
638.021	34.16
638.257	31.96
638.493	33.37
638.729	31.71
638.965	34.51
639.2	35.12
639.436	34.33
639.672	33.74
639.908	30.88
640.144	34.58
640.379	37.64
640.615	35.3
640.851	37.52
641.086	38.82
641.322	35.79
641.558	34.43
641.793	35.31
642.029	33.75
642.264	32.26
642.5	32.12
642.736	28.21
642.971	27.67
643.207	25.71
643.442	24.26
643.678	25
643.913	25.35
644.148	24.21
644.384	25.18
644.619	26.63
644.855	27.82
645.09	27.4
645.325	27.57
645.561	28.67
645.796	27.83
646.031	31.4
646.266	28.41
646.502	27.88
646.737	29.01
646.972	28.27
647.207	28.95
647.442	25.4
647.678	21.58
647.913	24.06
648.148	23.74
648.383	22.51
648.618	22.27
648.853	23.91
649.088	26.2
649.323	27.93
649.558	29.13
649.793	30.14
650.028	30.84
650.263	28.41
650.498	32.06
650.733	31.25
650.968	30.15
651.202	33.23
651.437	32.2
651.672	28.52
651.907	27.63
652.142	27.71
652.376	28.85
652.611	30.41
652.846	31.01
653.081	29.77
653.315	27.88
653.55	29.44
653.785	29.33
654.019	31.27
654.254	30.45
654.488	31.88
654.723	28.39
654.958	25.97
655.192	24.73
655.427	22.46
655.661	23.91
655.896	26.94
656.13	27.35
656.364	23.62
656.599	21.39
656.833	24.38
657.068	26.11
657.302	26.75
657.536	25.43
657.771	26.64
658.005	28.91
658.239	28.94
658.474	26.01
658.708	26.25
658.942	26.79
659.176	25.29
659.41	22.61
659.645	22.03
659.879	20.27
660.113	16.39
660.347	16.14
660.581	13.56
660.815	12.18
661.049	10.34
661.283	5.67
661.517	3.14
661.751	2.14
661.985	2.68
662.219	5.4
662.453	3.6
662.687	3.62
662.921	-0.11
663.155	-1.27
663.389	-7.03
663.622	-7.73
663.856	-5.88
664.09	-9.13
664.324	-11.1
664.558	-10.99
664.791	-11.07
665.025	-13.76
665.259	-14.05
665.492	-13.93
665.726	-11.93
665.96	-12.01
666.193	-13.08
666.427	-12.39
666.661	-11.9
666.894	-13.62
667.128	-14.61
667.361	-11.7
667.595	-11.93
667.828	-12.2
668.062	-12.22
668.295	-11.89
668.529	-9.08
668.762	-8.22
668.995	-9.72
669.229	-6.64
669.462	-5.78
669.695	-4.71
669.929	-5.48
670.162	-3.64
670.395	-6.79
670.629	-4.55
670.862	-1.82
671.095	-5.75
671.328	-5.3
671.561	-8.71
671.795	-8.08
672.028	-7.82
672.261	-6.26
672.494	-5.65
672.727	-8.32
672.96	-6.77
673.193	-7.05
673.426	-2.76
673.659	-2.82
673.892	-3.18
674.125	-3.52
674.358	-3.46
674.591	-5.02
674.824	-6.09
675.057	-5.64
675.29	-6.63
675.523	-5.56
675.755	-7.46
675.988	-7.2
676.221	-4.61
676.454	-7.41
676.687	-8.28
676.919	-8.86
677.152	-8.67
677.385	-9.3
677.617	-7.38
677.85	-6.19
678.083	-8.24
678.315	-5.85
678.548	-7.47
678.78	-5.91
679.013	-6.98
679.246	-6.81
679.478	-5.23
679.711	-7.36
679.943	-3.53
680.175	-7.05
680.408	-3.79
680.64	-8.06
680.873	-7.79
681.105	-5.96
681.338	-2.73
681.57	-3.9
681.802	-1.98
682.034	-1.05
682.267	0.77
682.499	1.3
682.731	-0.84
682.964	-0.63
683.196	-1.57
683.428	-3.17
683.66	-4.23
683.892	0.24
684.124	2.39
684.356	5.1
684.589	5.55
684.821	3.46
685.053	3.04
685.285	3.96
685.517	5.72
685.749	6.57
685.981	7.31
686.213	8.11
686.445	8.42
686.676	4.86
686.908	5.78
687.14	3.07
687.372	4.86
687.604	1.98
687.836	3.35
688.068	3.25
688.299	2.27
688.531	-0.8
688.763	3.7
688.995	2.07
689.226	4.28
689.458	3.46
689.69	3.04
689.921	3.12
690.153	3.25
690.384	4.84
690.616	3.77
690.848	6.1
691.079	0.76
691.311	-2.2
691.542	-4.44
691.774	-6.05
692.005	-1.8
692.237	0.43
692.468	-0.65
692.699	-1.39
692.931	-0.48
693.162	-3.64
693.393	-5.01
693.625	-6.18
693.856	-5.26
694.087	-4.76
694.319	-3.26
694.55	-3.8
694.781	-4.7
695.012	-4.9
695.243	-6.95
695.475	-7.49
695.706	-7.31
695.937	-8.84
696.168	-9.53
696.399	-9.64
696.63	-8.35
696.861	-9.02
697.092	-4.62
697.323	-2.07
697.554	-0.51
697.785	0.44
698.016	0.33
698.247	0.18
698.478	1.73
698.709	3.11
698.94	5.41
699.171	4.04
699.401	0.35
699.632	1.2
699.863	-2.61
700.094	-4.03
700.325	-0.92
700.555	1.33
700.786	3.05
701.017	3.46
701.247	2.34
701.478	2.86
701.709	1.56
701.939	1.06
702.17	3.11
702.401	6.31
702.631	7.36
702.862	6.74
703.092	3.93
703.323	7.17
703.553	7.05
703.784	5.24
704.014	6.69
704.244	2.11
704.475	1.21
704.705	1.5
704.936	2.07
705.166	1.56
705.396	3.48
705.627	4.57
705.857	5.03
706.087	5.25
706.317	2.04
706.548	-0.3
706.778	-0.99
707.008	0.84
707.238	1.03
707.468	-0.15
707.698	-2.29
707.928	-3.35
708.158	-5.16
708.389	-4.59
708.619	-5.75
708.849	-4.99
709.079	-3.55
709.309	-6.62
709.539	-8.63
709.768	-8.63
709.998	-5.24
710.228	-6.18
710.458	-7.92
710.688	-11.04
710.918	-10.41
711.148	-11.01
711.378	-10.58
711.607	-11.63
711.837	-11.7
712.067	-12.93
712.297	-12.83
712.526	-12.8
712.756	-13.45
712.986	-16.5
713.215	-19.62
713.445	-17.93
713.674	-15.42
713.904	-14.82
714.134	-12.93
714.363	-14.08
714.593	-15.29
714.822	-16.57
715.052	-16.49
715.281	-14.53
715.511	-15.84
715.74	-16.04
715.969	-17.21
716.199	-17.56
716.428	-18.26
716.657	-17.98
716.887	-16.47
717.116	-20.11
717.345	-16.78
717.575	-16.81
717.804	-15.35
718.033	-16.73
718.262	-17.56
718.492	-16.51
718.721	-16.72
718.95	-17.19
719.179	-17.57
719.408	-18.06
719.637	-22.22
719.866	-23.65
720.095	-21.48
720.324	-20.75
720.553	-23.61
720.782	-24.8
721.011	-25.75
721.24	-27.35
721.469	-26.8
721.698	-26.65
721.927	-26.67
722.156	-28.04
722.385	-30.29
722.613	-26.83
722.842	-26.22
723.071	-23.39
723.3	-23.43
723.529	-22.51
723.757	-22.4
723.986	-25.59
724.215	-27.17
724.443	-26.85
724.672	-24.87
724.901	-24.15
725.129	-22.55
725.358	-18.88
725.586	-22.52
725.815	-21.53
726.043	-22.64
726.272	-24.27
726.5	-22.74
726.729	-20.1
726.957	-22.75
727.186	-24.73
727.414	-24.84
727.642	-22.6
727.871	-20.86
728.099	-20.9
728.327	-21.33
728.556	-18.55
728.784	-16.47
729.012	-17
729.241	-13.2
729.469	-12.65
729.697	-15.72
729.925	-15.3
730.153	-16.78
730.381	-16
730.61	-14.27
730.838	-14.88
731.066	-12.82
731.294	-10.64
731.522	-13.74
731.75	-17.56
731.978	-17.89
732.206	-18.75
732.434	-19.91
732.662	-16.76
732.89	-18.93
733.118	-19.13
733.346	-17.89
733.573	-17.65
733.801	-18.31
734.029	-11.93
734.257	-11.24
734.485	-6.53
734.712	-5.48
734.94	-7.45
735.168	-4.21
735.396	-3.83
735.623	-6.7
735.851	-6.91
736.078	-4.89
736.306	-5.18
736.534	-5.09
736.761	-3.6
736.989	-5.14
737.216	-5.16
737.444	-7.21
737.671	-7.19
737.899	-3.52
738.126	-4.84
738.354	-4.99
738.581	-2.72
738.809	-2.04
739.036	-4.07
739.263	-3.85
739.491	-6.43
739.718	-7.52
739.945	-3.62
740.173	-2.74
740.4	-2.73
740.627	-5.69
740.854	-5.41
741.081	-7.34
741.309	-8.38
741.536	-13.28
741.763	-14.95
741.99	-12.96
742.217	-15.11
742.444	-15.3
742.671	-14.3
742.898	-13.62
743.125	-15.09
743.352	-18.86
743.579	-19.87
743.806	-20.81
744.033	-18.62
744.26	-18.18
744.487	-18.45
744.714	-19.28
744.941	-20.47
745.167	-17.57
745.394	-19.13
745.621	-20.82
745.848	-20.67
746.075	-19.59
746.301	-15.76
746.528	-12.01
746.755	-12.05
746.981	-11.3
747.208	-9.8
747.435	-7.15
747.661	-5.39
747.888	-3.92
748.114	-6.28
748.341	-4.8
748.567	-3.2
748.794	-5.48
749.02	-6.63
749.247	-7.72
749.473	-7.05
749.7	-5.99
749.926	-7.16
750.152	-4.56
750.379	-3.73
750.605	-1.2
750.831	-2.09
751.058	-3.59
751.284	-5.41
751.51	-2.93
751.737	-1.3
751.963	-1.71
752.189	-2.65
752.415	-2.81
752.641	-2.99
752.867	-3.9
753.094	-5.3
753.32	-6.85
753.546	-8.6
753.772	-6.9
753.998	-9.27
754.224	-10.16
754.45	-11
754.676	-12.02
754.902	-12.74
755.128	-12.71
755.354	-12.94
755.579	-10.59
755.805	-7.48
756.031	-8.4
756.257	-9.49
756.483	-12.12
756.709	-15.08
756.934	-14.75
757.16	-16.68
757.386	-16
757.612	-19.19
757.837	-19.53
758.063	-17.55
758.289	-13.96
758.514	-15.12
758.74	-18.21
758.965	-21.33
759.191	-20.15
759.416	-17.21
759.642	-15.59
759.868	-14.36
760.093	-11.52
760.318	-13.27
760.544	-13.3
760.769	-13.79
760.995	-14.2
761.22	-15.3
761.445	-15.58
761.671	-12.33
761.896	-10.03
762.121	-10.36
762.347	-10.55
762.572	-14.22
762.797	-14.77
763.022	-14.46
763.248	-9.09
763.473	-7.03
763.698	-6.19
763.923	-5.7
764.148	-5.75
764.373	-5.42
764.598	-4.07
764.823	-3.14
765.048	-6.34
765.273	-10.23
765.498	-10.63
765.723	-10.03
765.948	-8.36
766.173	-10.16
766.398	-10.1
766.623	-12.51
766.848	-13.05
767.073	-14.82
767.298	-14.86
767.522	-15.43
767.747	-15.73
767.972	-15.69
768.197	-13.66
768.421	-14.43
768.646	-17.38
768.871	-20.75
769.095	-19.46
769.32	-18.39
769.545	-19.27
769.769	-18.13
769.994	-16.59
770.218	-19.9
770.443	-18.73
770.667	-18.98
770.892	-18.42
771.116	-19.28
771.341	-18.94
771.565	-18.35
771.79	-16.72
772.014	-16.2
772.238	-16
772.463	-14.78
772.687	-14.68
772.911	-16.21
773.136	-18.94
773.36	-17.97
773.584	-15.03
773.808	-16.7
774.033	-15.21
774.257	-15.39
774.481	-15.71
774.705	-16.62
774.929	-17.47
775.153	-18.3
775.377	-17.29
775.602	-19.19
775.826	-17.88
776.05	-15.43
776.274	-16.9
776.498	-16.12
776.722	-17.71
776.945	-17.23
777.169	-17.44
777.393	-19.65
777.617	-18.19
777.841	-18.44
778.065	-16.6
778.289	-16.63
778.512	-17.56
778.736	-18.12
778.96	-18.7
779.184	-16.62
779.407	-17.3
779.631	-16.38
779.855	-15.94
780.078	-13.13
780.302	-15.89
780.526	-18.75
780.749	-18.08
780.973	-17.89
781.196	-18.25
781.42	-19.78
781.643	-18.53
781.867	-17.99
782.09	-20.17
782.314	-20.67
782.537	-20.03
782.76	-19.73
782.984	-18.98
783.207	-19.34
783.431	-19.61
783.654	-20.11
783.877	-22.34
784.1	-23.04
784.324	-23.39
784.547	-24.73
784.77	-27.78
784.993	-28.88
785.216	-29.66
785.44	-29.29
785.663	-30.67
785.886	-28.06
786.109	-29.36
786.332	-29.14
786.555	-28.24
786.778	-26.82
787.001	-26.68
787.224	-24.73
787.447	-23.64
787.67	-23.33
787.893	-24.09
788.116	-21.84
788.339	-20.59
788.561	-21.69
788.784	-25.5
789.007	-26.16
789.23	-28.19
789.453	-28.05
789.675	-31.27
789.898	-35.32
790.121	-35.41
790.344	-34.54
790.566	-32.86
790.789	-32.54
791.012	-32.35
791.234	-28.66
791.457	-25.94
791.679	-26.36
791.902	-26.43
792.124	-26.01
792.347	-26.93
792.569	-26.6
792.792	-29.96
793.014	-27.16
793.237	-26.58
793.459	-26.83
793.681	-28
793.904	-29.32
794.126	-31.1
794.348	-31.09
794.571	-28.34
794.793	-28.54
795.015	-28.85
795.237	-29.58
795.46	-28.25
795.682	-26.01
795.904	-23.64
796.126	-24.35
796.348	-24.28
796.57	-19.94
796.792	-18.28
797.014	-14.38
797.237	-11.49
797.459	-10.05
797.681	-8.37
797.903	-9.81
798.124	-9.7
798.346	1.38
798.568	4.62
798.79	7.77
799.012	9.22
799.234	9.75
799.456	10.8
799.678	12.92
799.899	10.58
800.121	8.44
800.343	7.1
800.565	7.49
800.786	8.24
801.008	9.53
801.23	8.15
801.451	7.69
801.673	6.55
801.895	4.73
802.116	7.08
802.338	7.84
802.559	7.08
802.781	4.74
803.002	7.83
803.224	9.65
803.445	6.65
803.667	8.34
803.888	5.93
804.109	4.72
804.331	3.07
804.552	1.9
804.773	5.16
804.995	0.93
805.216	-14.49
805.437	-16
805.658	-19.11
805.88	-21.87
806.101	-21.67
806.322	-22.69
806.543	-22.13
806.764	-23.66
806.985	-21.28
807.207	-19.38
807.428	-18.21
807.649	-21.79
807.87	-23.65
808.091	-21.72
808.312	-20.8
808.533	-16.61
808.754	-14.17
808.975	-15.57
809.195	-14.16
809.416	-12.87
809.637	-12.51
809.858	-13.92
810.079	-15.55
810.3	-13.23
810.52	-14.17
810.741	-16.08
810.962	-17.38
811.183	-17.16
811.403	-16.16
811.624	-17.73
811.845	-14.86
812.065	-12.85
812.286	-12.23
812.506	-11.36
812.727	-11.16
812.948	-9.8
813.168	-8.57
813.389	-10.63
813.609	-9.4
813.83	-10.01
814.05	-11.65
814.27	-11.72
814.491	-5.85
814.711	-6.09
814.931	-9.39
815.152	-10.32
815.372	-12.82
815.592	-14.66
815.813	-16.16
816.033	-18.44
816.253	-19.94
816.473	-21.79
816.694	-20.99
816.914	-19.16
817.134	-20.51
817.354	-22.95
817.574	-21.74
817.794	-23.17
818.014	-24.51
818.234	-25.84
818.454	-26.7
818.674	-29.66
818.894	-30.3
819.114	-28.35
819.334	-28.05
819.554	-25.18
819.774	-24.09
819.994	-25.84
820.214	-26.77
820.433	-27.19
820.653	-28.14
820.873	-25.28
821.093	-24.59
821.312	-28.07
821.532	-25.39
821.752	-21.91
821.972	-22.45
822.191	-21.54
822.411	-22.01
822.63	-21.52
822.85	-21.01
823.07	-21.41
823.289	-19
823.509	-20.37
823.728	-20.13
823.948	-20.4
824.167	-19.81
824.387	-20.16
824.606	-19.05
824.825	-19.85
825.045	-19.17
825.264	-19.59
825.483	-18.13
825.703	-17.21
825.922	-19.5
826.141	-20.65
826.361	-21.44
826.58	-24.64
826.799	-25.39
827.018	-23.09
827.237	-21.95
827.456	-19.7
827.676	-20.75
827.895	-20.64
828.114	-19.05
828.333	-20.77
828.552	-20.82
828.771	-21.31
828.99	-23.44
829.209	-23.15
829.428	-21.93
829.647	-21.7
829.866	-19.63
830.084	-19.87
830.303	-19.27
830.522	-20.07
830.741	-19.84
830.96	-19.96
831.179	-20.4
831.397	-20.25
831.616	-18.44
831.835	-18.02
832.053	-17.62
832.272	-16.38
832.491	-15.93
832.709	-16.96
832.928	-16.88
833.147	-17.66
833.365	-15.06
833.584	-12.22
833.802	-9.9
834.021	-9.56
834.239	-9.46
834.458	-11.49
834.676	-15.25
834.894	-15.33
835.113	-14.73
835.331	-16.23
835.55	-16.02
835.768	-15.14
835.986	-13.56
836.204	-14.62
836.423	-15.26
836.641	-16.87
836.859	-16.77
837.077	-16.12
837.296	-15.5
837.514	-17.07
837.732	-17.62
837.95	-17.97
838.168	-16.42
838.386	-18
838.604	-15.4
838.822	-14.77
839.04	-15.04
839.258	-14.52
839.476	-12.56
839.694	-12.11
839.912	-12.42
840.13	-13.93
840.348	-11.22
840.566	-14.83
840.783	-13.77
841.001	-16.19
841.219	-14.57
841.437	-12.63
841.655	-11.94
841.872	-12.19
842.09	-11.86
842.308	-10.91
842.525	-11.46
842.743	-10.58
842.961	-11.64
843.178	-13.75
843.396	-9.08
843.613	-8.68
843.831	-8.2
844.048	-9.74
844.266	-9.35
844.483	-10.39
844.701	-10.59
844.918	-10.64
845.136	-11.19
845.353	-13.65
845.57	-12.55
845.788	-9.93
846.005	-11.32
846.222	-13.83
846.439	-12.07
846.657	-11.75
846.874	-11.96
847.091	-15.09
847.308	-13.88
847.526	-15.64
847.743	-14.94
847.96	-17.05
848.177	-17.33
848.394	-18.05
848.611	-19.43
848.828	-20.73
849.045	-21.07
849.262	-19.98
849.479	-20.84
849.696	-20.2
849.913	-20.23
850.13	-24.72
850.347	-21.86
850.564	-21.88
850.78	-22.84
850.997	-23.85
851.214	-22.2
851.431	-21.6
851.647	-23.83
851.864	-22.43
852.081	-21.18
852.298	-25.32
852.514	-27.66
852.731	-26.35
852.948	-23.03
853.164	-23.01
853.381	-22.57
853.597	-22.87
853.814	-25.01
854.03	-27.74
854.247	-26.17
854.463	-25.82
854.68	-25.97
854.896	-24.46
855.113	-24.6
855.329	-22.41
855.545	-18.91
855.762	-20.63
855.978	-22.41
856.194	-24.38
856.411	-21.87
856.627	-19.97
856.843	-20.07
857.059	-19.99
857.275	-20.91
857.492	-18.65
857.708	-15.12
857.924	-15.23
858.14	-13.07
858.356	-13.61
858.572	-14.22
858.788	-15.37
859.004	-12.57
859.22	-14.68
859.436	-14.12
859.652	-16.52
859.868	-18.84
860.084	-19.63
860.3	-18.96
860.516	-18.53
860.731	-17.41
860.947	-20.65
861.163	-19.31
861.379	-17.57
861.595	-17.65
861.81	-17.1
862.026	-17.33
862.242	-18.55
862.457	-18.24
862.673	-16.92
862.889	-15.82
863.104	-16.7
863.32	-15.77
863.535	-14.94
863.751	-18
863.966	-16.24
864.182	-15.45
864.397	-17.61
864.613	-18.43
864.828	-19.3
865.044	-17.01
865.259	-16.41
865.474	-17.44
865.69	-15.12
865.905	-13.51
866.12	-15.9
866.336	-15.03
866.551	-12.16
866.766	-12.47
866.981	-13.28
867.196	-13.17
867.412	-12.7
867.627	-11.59
867.842	-12.73
868.057	-12.74
868.272	-13.5
868.487	-14.37
868.702	-16.88
868.917	-17.38
869.132	-15.46
869.347	-15.31
869.562	-16.38
869.777	-17.11
869.992	-18.24
870.207	-19.03
870.422	-20.71
870.636	-22.51
870.851	-23.27
871.066	-24.16
871.281	-24.3
871.495	-26.32
871.71	-24.61
871.925	-25.73
872.14	-26.71
872.354	-29.36
872.569	-31.02
872.783	-29.14
872.998	-29.19
873.213	-30.71
873.427	-28.05
873.642	-26.59
873.856	-26.13
874.071	-27.27
874.285	-27.23
874.5	-28.89
874.714	-30.71
874.928	-29.86
875.143	-30.15
875.357	-29.4
875.571	-30.91
875.786	-29.92
876	-26.84
876.214	-25.75
876.429	-26.76
876.643	-26.06
876.857	-23.69
877.071	-21.53
877.285	-21.42
877.499	-23.8
877.714	-21.91
877.928	-18.48
878.142	-19.29
878.356	-22.62
878.57	-21.91
878.784	-20.68
878.998	-21.25
879.212	-18.59
879.426	-20.76
879.639	-18.75
879.853	-20.54
880.067	-21.62
880.281	-24.17
880.495	-22.43
880.709	-19.63
880.922	-19
881.136	-17.58
881.35	-15.95
881.564	-16.92
881.777	-18.93
881.991	-17.64
882.205	-14.08
882.418	-15.73
882.632	-19.68
882.845	-19.86
883.059	-19.71
883.273	-19.89
883.486	-22.31
883.7	-20.82
883.913	-21.84
884.126	-21.41
884.34	-23.08
884.553	-26.62
884.767	-23.55
884.98	-22.56
885.193	-23.35
885.407	-23.03
885.62	-21.27
885.833	-21.94
886.046	-20.48
886.26	-23.3
886.473	-23.51
886.686	-23.72
886.899	-21.5
887.112	-23.42
887.326	-27.46
887.539	-26.7
887.752	-25.4
887.965	-26.41
888.178	-25.84
888.391	-24.11
888.604	-24.2
888.817	-27.21
889.03	-25.58
889.243	-25.66
889.455	-27.65
889.668	-27.91
889.881	-25.21
890.094	-25.45
890.307	-27.39
890.52	-25.8
890.732	-23.83
890.945	-24.53
891.158	-23.42
891.37	-24.75
891.583	-24.46
891.796	-22.3
892.008	-23.9
892.221	-24.09
892.434	-26.75
892.646	-28.17
892.859	-27.71
893.071	-25.58
893.284	-25.28
893.496	-26.59
893.709	-26.94
893.921	-23.78
894.133	-23.94
894.346	-24.27
894.558	-24.9
894.771	-24.24
894.983	-23.18
895.195	-23
895.407	-20.71
895.62	-23.29
895.832	-22.55
896.044	-19.73
896.256	-19.99
896.468	-22.52
896.681	-19.64
896.893	-19.01
897.105	-19.19
897.317	-20.24
897.529	-18.12
897.741	-17.9
897.953	-15.99
898.165	-17.56
898.377	-18.02
898.589	-15.97
898.801	-18
899.013	-15.72
899.224	-13.62
899.436	-11.69
899.648	-13.73
899.86	-14.9
900.072	-11.58
900.283	-9.84
900.495	-7.84
900.707	-8.52
900.919	-11.36
901.13	-10.25
901.342	-12.1
901.554	-11.34
901.765	-10.67
901.977	-13.1
902.188	-13.42
902.4	-14.77
902.611	-16.37
902.823	-16.9
903.034	-19.33
903.246	-21.94
903.457	-24.37
903.669	-25.49
903.88	-25.25
904.091	-26.78
904.303	-25.56
904.514	-27.02
904.725	-24.65
904.936	-24.55
905.148	-25.24
905.359	-21.89
905.57	-21.83
905.781	-22.81
905.992	-24.88
906.204	-22.48
906.415	-22.04
906.626	-23.96
906.837	-22.82
907.048	-25.65
907.259	-25.12
907.47	-25.94
907.681	-27.4
907.892	-23.82
908.103	-26.53
908.314	-28.31
908.525	-26.27
908.735	-25.98
908.946	-25.76
909.157	-25.97
909.368	-23.86
909.579	-23.1
909.789	-24.51
910	-23.59
910.211	-21.36
910.421	-21.86
910.632	-20.76
910.843	-23.41
911.053	-20.69
911.264	-19.14
911.475	-20.67
911.685	-20.91
911.896	-21.89
912.106	-20.72
912.317	-21.52
912.527	-19.33
912.737	-20.88
912.948	-20.08
913.158	-19.98
913.369	-22.63
913.579	-19.26
913.789	-19.46
914	-15.98
914.21	-15.39
914.42	-17.49
914.63	-16.67
914.841	-16.73
915.051	-16.49
915.261	-16.06
915.471	-13.83
915.681	-13.96
915.891	-15
916.101	-15.58
916.311	-14.42
916.521	-13.24
916.731	-13.66
916.941	-11.78
917.151	-12.76
917.361	-9.11
917.571	-12.9
917.781	-14.34
917.991	-16.57
918.201	-16.84
918.411	-19.02
918.621	-20.88
918.83	-19.45
919.04	-19.59
919.25	-16.43
919.46	-15.71
919.669	-19.26
919.879	-18.66
920.089	-21.02
920.298	-21.45
920.508	-20.03
920.717	-19.28
920.927	-20.74
921.136	-20.24
921.346	-20.26
921.555	-23.58
921.765	-23.18
921.974	-26.78
922.184	-28.94
922.393	-28.26
922.603	-28.02
922.812	-25.58
923.021	-26.47
923.23	-27.97
923.44	-31.09
923.649	-30.63
923.858	-33.33
924.067	-32.74
924.277	-34.28
924.486	-32.13
924.695	-32.05
924.904	-30.22
925.113	-29.87
925.322	-29.79
925.531	-31.02
925.74	-35.03
925.949	-36.95
926.158	-33.49
926.367	-33.77
926.576	-32.57
926.785	-33.32
926.994	-35.96
927.203	-34.22
927.412	-34.01
927.621	-34.83
927.83	-32.08
928.038	-30.75
928.247	-31.24
928.456	-29.14
928.665	-26.37
928.873	-25.53
929.082	-22.39
929.291	-22.22
929.499	-21.59
929.708	-22.66
929.916	-21.71
930.125	-23.33
930.333	-22.69
930.542	-20.53
930.75	-17.8
930.959	-17.92
931.167	-18.51
931.376	-19.26
931.584	-16.9
931.793	-16.07
932.001	-16.25
932.209	-17.59
932.418	-19.37
932.626	-19.72
932.834	-21.09
933.042	-24.59
933.251	-24.42
933.459	-23.33
933.667	-25.47
933.875	-25.5
934.083	-23.46
934.291	-24.32
934.499	-23.33
934.707	-23.75
934.915	-24.56
935.123	-23.65
935.331	-24.19
935.539	-27.29
935.747	-28.95
935.955	-29.58
936.163	-28.14
936.371	-28.5
936.579	-24.86
936.787	-25.87
936.995	-28.03
937.202	-31.18
937.41	-29.44
937.618	-29.24
937.826	-28.31
938.033	-33
938.241	-35.31
938.449	-32.64
938.656	-29.33
938.864	-28.52
939.071	-28.95
939.279	-25.81
939.486	-23.09
939.694	-24.72
939.901	-27.83
940.109	-26.7
940.316	-26.73
940.524	-28.68
940.731	-29.58
940.939	-27.55
941.146	-27.2
941.353	-27.11
941.561	-27.73
941.768	-28.76
941.975	-27.19
942.182	-27.63
942.39	-26.62
942.597	-24.12
942.804	-22.86
943.011	-23.99
943.218	-22.79
943.425	-22.73
943.632	-20.11
943.839	-21.14
944.046	-21.53
944.253	-21.69
944.46	-20.71
944.667	-16.59
944.874	-18.74
945.081	-18.24
945.288	-15.4
945.495	-14.28
945.702	-15.41
945.909	-17.1
946.115	-14.59
946.322	-14.29
946.529	-14.98
946.736	-14.89
946.942	-12.7
947.149	-13.13
947.356	-15.35
947.562	-16.86
947.769	-17.03
947.976	-17.58
948.182	-15.8
948.389	-17.12
948.595	-16.71
948.802	-16.51
949.008	-19.18
949.215	-18.6
949.421	-18.87
949.628	-19.7
949.834	-19.01
950.04	-21.17
950.247	-18.02
950.453	-16.44
950.659	-18.01
950.865	-17.49
951.072	-22.04
951.278	-20.62
951.484	-22.7
951.69	-26.83
951.896	-27.34
952.103	-27.8
952.309	-26.7
952.515	-27.27
952.721	-25.22
952.927	-24.41
953.133	-24.15
953.339	-26.66
953.545	-27.19
953.751	-26.57
953.957	-23.1
954.163	-24.43
954.369	-24.22
954.574	-27
954.78	-28.03
954.986	-27.09
955.192	-25.78
955.398	-25.5
955.603	-27.38
955.809	-25.85
956.015	-24.93
956.22	-24.67
956.426	-23.37
956.632	-26.45
956.837	-27.65
957.043	-26.56
957.248	-25.08
957.454	-23.9
957.66	-25.42
957.865	-24.19
958.07	-22.89
958.276	-24.5
958.481	-24.7
958.687	-25.08
958.892	-25.05
959.097	-23.61
959.303	-24
959.508	-25.14
959.713	-24.27
959.919	-25.05
960.124	-25.74
960.329	-26.43
960.534	-22.45
960.739	-22.12
960.945	-18.95
961.15	-18.51
961.355	-20.42
961.56	-24.86
961.765	-25.48
961.97	-26.13
962.175	-23.95
962.38	-27.2
962.585	-26.5
962.79	-28.93
962.995	-29.31
963.2	-29.75
963.404	-29.85
963.609	-32.19
963.814	-33.59
964.019	-36.83
964.224	-38.19
964.428	-36
964.633	-35.41
964.838	-34.92
965.042	-35.54
965.247	-37.64
965.452	-39.76
965.656	-37.98
965.861	-36.76
966.066	-38.59
966.27	-36.01
966.475	-32.98
966.679	-35.9
966.884	-36.44
967.088	-37.59
967.292	-37.71
967.497	-35.74
967.701	-35.21
967.906	-33.13
968.11	-31.25
968.314	-26.96
968.518	-29.64
968.723	-25.83
968.927	-24.62
969.131	-22.4
969.335	-20.37
969.539	-20.43
969.744	-19.62
969.948	-17.73
970.152	-15.33
970.356	-12.5
970.56	-12.22
970.764	-12.91
970.968	-8.84
971.172	-9.15
971.376	-8.34
971.58	-6.25
971.784	-5.53
971.988	-7.84
972.192	-5.74
972.395	-5.68
972.599	-8.8
972.803	-9.46
973.007	-8.23
973.21	-8.74
973.414	-9.91
973.618	-12.03
973.822	-11.86
974.025	-11.46
974.229	-11.19
974.432	-13.74
974.636	-16.72
974.84	-16.54
975.043	-17.67
975.247	-21.24
975.45	-22.8
975.654	-22.09
975.857	-20.88
976.06	-22.38
976.264	-24.52
976.467	-23.41
976.671	-22.99
976.874	-23.31
977.077	-25.03
977.28	-28.11
977.484	-29.62
977.687	-29.66
977.89	-27.91
978.093	-28.23
978.297	-27.37
978.5	-30.44
978.703	-28.89
978.906	-27.19
979.109	-28.35
979.312	-26.66
979.515	-27.37
979.718	-26.41
979.921	-26.59
980.124	-28.71
980.327	-28.55
980.53	-27.65
980.733	-26.45
980.936	-23.07
981.138	-23.73
981.341	-21.91
981.544	-21.02
981.747	-21.58
981.949	-22.57
982.152	-20.71
982.355	-20.07
982.558	-16.61
982.76	-19.88
982.963	-20.8
983.165	-18.55
983.368	-17.96
983.571	-18.86
983.773	-15.64
983.976	-16.42
984.178	-16.33
984.381	-17.26
984.583	-20.45
984.785	-19.51
984.988	-16.92
985.19	-14.98
985.392	-16.44
985.595	-20
985.797	-20.38
985.999	-18.47
986.202	-16.17
986.404	-16.57
986.606	-14.18
986.808	-15.64
987.01	-14.12
987.212	-16.32
987.415	-17.64
987.617	-17.31
987.819	-18.36
988.021	-16.84
988.223	-19.33
988.425	-21.1
988.627	-22.55
988.829	-25.3
989.031	-23.14
989.232	-24.1
989.434	-24.02
989.636	-24.62
989.838	-23.2
990.04	-21.88
990.242	-22.47
990.443	-24.08
990.645	-21.27
990.847	-18.13
991.048	-17.11
991.25	-19.19
991.452	-20.29
991.653	-22.09
991.855	-22.52
992.057	-22.3
992.258	-22.2
992.46	-23.9
992.661	-22.23
992.863	-24.07
993.064	-22.77
993.265	-23.98
993.467	-25.63
993.668	-23.17
993.87	-23.58
994.071	-22.29
994.272	-22.05
994.473	-20.57
994.675	-19.31
994.876	-17.78
995.077	-18
995.278	-17.73
995.48	-17.03
995.681	-18.68
995.882	-16.77
996.083	-17.84
996.284	-22.35
996.485	-21.83
996.686	-24.02
996.887	-24.45
997.088	-27.14
997.289	-30.03
997.49	-30.58
997.691	-30.38
997.892	-29.41
998.092	-23.5
998.293	-22.7
998.494	-22.99
998.695	-21.52
998.896	-20.45
999.096	-21.11
999.297	-22.35
999.498	-23.01
999.698	-25.24
999.899	-29.61
1000.1	-31.94
1000.3	-31.98
1000.501	-32.67
1000.701	-32.67
1000.902	-33.04
1001.102	-32.24
1001.303	-30.18
1001.503	-32.19
1001.704	-30.66
1001.904	-31.74
1002.105	-32.87
1002.305	-33.22
1002.505	-33.68
1002.706	-33.99
1002.906	-34.15
1003.106	-34.87
1003.306	-33.6
1003.507	-30.95
1003.707	-31.43
1003.907	-29.42
1004.107	-27.65
1004.307	-30.38
1004.507	-29.64
1004.707	-29.67
1004.907	-31.19
1005.107	-32.46
1005.308	-31.31
1005.507	-31.04
1005.707	-28.52
1005.907	-26.41
1006.107	-22.11
1006.307	-20.65
1006.507	-20.9
1006.707	-20.4
1006.907	-20.85
1007.106	-22.27
1007.306	-24.07
1007.506	-24.78
1007.706	-24.93
1007.905	-27.7
1008.105	-26.31
1008.305	-26.74
1008.504	-25.21
1008.704	-19.17
1008.903	-18.98
1009.103	-16.73
1009.303	-19.68
1009.502	-19.96
1009.702	-20.62
1009.901	-19.2
1010.1	-23.16
1010.3	-22.04
1010.499	-22.65
1010.699	-23.86
1010.898	-25.39
1011.097	-25.71
1011.296	-25.76
1011.496	-26.93
1011.695	-28.21
1011.894	-29.96
1012.093	-27.29
1012.293	-27.65
1012.492	-29.42
1012.691	-30.33
1012.89	-30.22
1013.089	-31.66
1013.288	-29.72
1013.487	-29.21
1013.686	-28.85
1013.885	-29.76
1014.084	-28.31
1014.283	-29.75
1014.482	-29.49
1014.681	-30.63
1014.88	-35.48
1015.078	-34.09
1015.277	-35.92
1015.476	-36.24
1015.675	-35.31
1015.873	-35.27
1016.072	-37.54
1016.271	-34.22
1016.47	-37.82
1016.668	-36.59
1016.867	-37.73
1017.065	-38.24
1017.264	-38.24
1017.463	-37.17
1017.661	-37.17
1017.86	-36.86
1018.058	-35.92
1018.256	-37.97
1018.455	-39.23
1018.653	-38.02
1018.852	-36.85
1019.05	-40.14
1019.248	-39.69
1019.447	-41.91
1019.645	-41.88
1019.843	-43.56
1020.041	-41.85
1020.24	-41.88
1020.438	-37.99
1020.636	-38.45
1020.834	-40.18
1021.032	-38.32
1021.23	-38.76
1021.428	-36.52
1021.626	-31.96
1021.824	-31.35
1022.022	-32.52
1022.22	-30
1022.418	-28.55
1022.616	-28.51
1022.814	-28.78
1023.012	-29.71
1023.21	-29.37
1023.408	-29.37
1023.606	-30.36
1023.803	-25.55
1024.001	-25.14
1024.199	-28.39
1024.397	-27.77
1024.594	-27.82
1024.792	-29.63
1024.99	-28.4
1025.187	-26.06
1025.385	-23.01
1025.582	-22.28
1025.78	-22.2
1025.977	-21.19
1026.175	-20.84
1026.372	-21.26
1026.57	-22.87
1026.767	-19.09
1026.965	-18.34
1027.162	-17.67
1027.359	-18.42
1027.557	-18.77
1027.754	-23.12
1027.951	-24.82
1028.148	-22.3
1028.346	-25.15
1028.543	-28.93
1028.74	-28.21
1028.937	-31.02
1029.134	-29.9
1029.331	-30.15
1029.528	-29.54
1029.725	-29.58
1029.923	-33.13
1030.12	-29.58
1030.317	-28.74
1030.513	-28.04
1030.71	-27.27
1030.907	-24.79
1031.104	-27.18
1031.301	-28.71
1031.498	-29.87
1031.695	-30.55
1031.892	-29.59
1032.088	-29.17
1032.285	-30.76
1032.482	-31.19
1032.678	-34.72
1032.875	-39.44
1033.072	-38.35
1033.268	-37.68
1033.465	-37.12
1033.662	-38.55
1033.858	-37.04
1034.055	-38.09
1034.251	-36.41
1034.448	-35.8
1034.644	-35.02
1034.84	-32.76
1035.037	-30.22
1035.233	-29.6
1035.43	-28.07
1035.626	-29.19
1035.822	-29.49
1036.019	-31.22
1036.215	-35.52
1036.411	-35.31
1036.607	-36.66
1036.803	-38.84
1037	-40.01
1037.196	-39.9
1037.392	-40.77
1037.588	-41.86
1037.784	-39.76
1037.98	-41.06
1038.176	-40.9
1038.372	-41.16
1038.568	-39.74
1038.764	-36.04
1038.96	-31.88
1039.156	-33.2
1039.352	-35.21
1039.547	-33.63
1039.743	-32.03
1039.939	-29.94
1040.135	-29.34
1040.331	-31.06
1040.526	-29.92
1040.722	-31.09
1040.918	-33.02
1041.113	-36.29
1041.309	-36.64
1041.505	-38.73
1041.7	-37.12
1041.896	-37.15
1042.091	-37.13
1042.287	-36.17
1042.482	-35.29
1042.678	-35.25
1042.873	-34.05
1043.069	-34.11
1043.264	-33.2
1043.459	-30.51
1043.655	-29.77
1043.85	-31.6
1044.045	-30.74
1044.24	-31.47
1044.436	-29.51
1044.631	-30.39
1044.826	-32.82
1045.021	-36.93
1045.216	-35.74
