Data from FLMT021711__7__17-54-26-602.txt Node

Date: Tue Nov 05 17:54:26 CET 2024
User: Etudiants TP
Spectrometer: FLMT02171
Trigger mode: 0
Integration Time (sec): 1.000000E-1
Scans to average: 5
Electric dark correction enabled: true
Nonlinearity correction enabled: false
Boxcar width: 15
XAxis mode: Wavelengths
Number of Pixels in Spectrum: 3648
>>>>>Begin Spectral Data<<<<<
194.658	-66.09
194.923	-64.08
195.188	-57.73
195.453	-57.11
195.717	-50.25
195.982	-47.93
196.247	-46.97
196.512	-48.84
196.777	-47.37
197.042	-45.59
197.307	-45.37
197.572	-41.51
197.837	-41.38
198.101	-38.08
198.366	-35.45
198.631	-33.68
198.896	-26.81
199.161	-19.18
199.425	-11.77
199.69	-1.45
199.955	-2.48
200.22	-5.88
200.484	-5.53
200.749	-5.92
201.014	-4.47
201.278	-5.08
201.543	-4.65
201.807	-4.52
202.072	-4.76
202.337	-4.88
202.601	-5.61
202.866	-7.12
203.13	-5.66
203.395	-7.3
203.659	-6.28
203.924	-8.85
204.189	-8.36
204.453	-6.56
204.717	-4.9
204.982	-3.89
205.246	-1.98
205.511	-0.33
205.775	-1.33
206.04	3.42
206.304	3
206.568	5.43
206.833	5.9
207.097	6.86
207.361	8.12
207.626	11.55
207.89	12.29
208.154	13.35
208.419	15.21
208.683	14.73
208.947	17.3
209.211	17.32
209.476	17.79
209.74	18.83
210.004	18.47
210.268	19.59
210.532	22.84
210.796	23.5
211.061	24.07
211.325	24.39
211.589	23.33
211.853	24.11
212.117	24.58
212.381	24.67
212.645	25.38
212.909	25.11
213.173	23.08
213.437	23.99
213.701	24.17
213.965	25.1
214.229	20.85
214.493	20.98
214.757	17.84
215.021	17.07
215.285	21.02
215.549	22.91
215.813	19.95
216.077	18.59
216.34	20.72
216.604	20.38
216.868	21.18
217.132	21.44
217.396	20.79
217.659	20.03
217.923	16.57
218.187	17.27
218.451	17.52
218.714	14.38
218.978	14.8
219.242	16.3
219.505	16.44
219.769	17.52
220.033	16.98
220.296	17.97
220.56	18.39
220.824	16.02
221.087	16.88
221.351	17.38
221.614	15.86
221.878	17.3
222.142	15.68
222.405	16.25
222.669	18.3
222.932	16.75
223.196	15.21
223.459	11.99
223.722	13.14
223.986	12.16
224.249	10.95
224.513	11.08
224.776	10.23
225.04	9.2
225.303	9.03
225.566	8.87
225.83	10.64
226.093	13.27
226.356	10.85
226.62	9.11
226.883	11.02
227.146	10.9
227.409	11.41
227.673	9.9
227.936	7.92
228.199	8.22
228.462	5.61
228.725	4.62
228.989	3.55
229.252	5.96
229.515	10.87
229.778	9.24
230.041	8.06
230.304	6.04
230.567	6.08
230.83	4.06
231.093	6.28
231.356	5.97
231.619	10.9
231.882	8.09
232.145	10.65
232.408	10.6
232.671	10.26
232.934	10.14
233.197	9.65
233.46	8.14
233.723	10.15
233.986	9.46
234.249	7.32
234.512	9.89
234.775	13.44
235.037	12.28
235.3	12.5
235.563	12.32
235.826	13.23
236.089	15.51
236.351	14.71
236.614	16.64
236.877	17.19
237.14	20.26
237.402	18.94
237.665	13.13
237.928	12.98
238.19	10.52
238.453	12.81
238.716	12.75
238.978	11.2
239.241	9.82
239.503	12.73
239.766	8.81
240.029	7.94
240.291	12.12
240.554	11.38
240.816	9.51
241.079	10.01
241.341	9.65
241.604	8.94
241.866	5.73
242.129	6.82
242.391	8.53
242.653	7.58
242.916	7.46
243.178	7.3
243.441	8.2
243.703	7.2
243.965	5.73
244.228	7.04
244.49	7.06
244.752	9.1
245.015	11.13
245.277	12.83
245.539	11.55
245.801	12.45
246.064	11.56
246.326	11.71
246.588	12.06
246.85	13.26
247.112	14.97
247.374	16.2
247.637	17.69
247.899	17.49
248.161	18.33
248.423	12.24
248.685	13.04
248.947	13.59
249.209	14.79
249.471	17.05
249.733	19
249.995	17.21
250.257	15.5
250.519	13.99
250.781	17.63
251.043	15.05
251.305	17.84
251.567	20.1
251.829	19.28
252.091	19.53
252.353	15.07
252.615	14.87
252.876	11.63
253.138	9.03
253.4	4.76
253.662	5.65
253.924	7.26
254.185	9.11
254.447	9.75
254.709	10.4
254.971	12.19
255.232	13.63
255.494	12.83
255.756	10.91
256.017	10.74
256.279	11.08
256.541	12.1
256.802	12.27
257.064	12.19
257.326	10.5
257.587	11.32
257.849	12.21
258.11	15.91
258.372	17.02
258.633	18.67
258.895	16.07
259.156	14.18
259.418	11.21
259.679	7.06
259.941	5.93
260.202	7.84
260.464	11.24
260.725	11.45
260.987	11.78
261.248	10.67
261.509	10.96
261.771	10.39
262.032	11.73
262.293	11.73
262.555	11.89
262.816	9.44
263.077	7.21
263.338	4.64
263.6	5.21
263.861	4.73
264.122	4.39
264.383	6.08
264.645	6.74
264.906	4.88
265.167	6.85
265.428	6.43
265.689	6.57
265.95	2.29
266.211	3.41
266.473	3.64
266.734	1.56
266.995	-1.2
267.256	0.87
267.517	4.31
267.778	6.52
268.039	8.37
268.3	6.6
268.561	3.84
268.822	7.11
269.083	5.4
269.344	4.62
269.604	4.79
269.865	5
270.126	1.98
270.387	1.9
270.648	2.66
270.909	3.28
271.17	2.31
271.43	-0.09
271.691	-4.45
271.952	-5.17
272.213	-4.29
272.473	-6.88
272.734	-5.76
272.995	-3.52
273.256	-3.5
273.516	-0.61
273.777	-2.66
274.038	1.95
274.298	-0.49
274.559	-0.61
274.82	3.78
275.08	6.78
275.341	7.52
275.601	5.92
275.862	4.06
276.122	3.54
276.383	3.81
276.643	6.14
276.904	4.53
277.164	7.91
277.425	8.09
277.685	12.01
277.946	12.5
278.206	13.75
278.467	15.82
278.727	17.04
278.987	17.12
279.248	16.89
279.508	19.05
279.768	23.43
280.029	24.59
280.289	22.19
280.549	21.54
280.81	20.66
281.07	20.15
281.33	21.06
281.59	19.26
281.851	20.86
282.111	19.39
282.371	18.38
282.631	18.02
282.891	15.39
283.151	14.17
283.412	12.96
283.672	11.75
283.932	11.81
284.192	12.73
284.452	10.92
284.712	8.83
284.972	6.82
285.232	4.57
285.492	8.33
285.752	6.4
286.012	11.85
286.272	12.23
286.532	9.92
286.792	8.67
287.052	9.54
287.312	11.22
287.571	9.2
287.831	9.09
288.091	6.72
288.351	7.1
288.611	12.15
288.871	13.6
289.13	11.77
289.39	8.35
289.65	9.35
289.91	6.93
290.17	9.81
290.429	12.99
290.689	12.47
290.949	8.88
291.208	9.32
291.468	11.51
291.728	13.73
291.987	15.78
292.247	14.38
292.506	17.78
292.766	20.59
293.026	20.58
293.285	21.69
293.545	23.47
293.804	22.74
294.064	18.19
294.323	17.57
294.583	17.63
294.842	17.01
295.102	17.38
295.361	16.81
295.621	18.22
295.88	17.71
296.139	17.99
296.399	18.94
296.658	13.47
296.917	11.86
297.177	9.49
297.436	10.32
297.695	7.55
297.955	9.84
298.214	6.47
298.473	7.82
298.732	9.37
298.992	13.06
299.251	11.68
299.51	8.66
299.769	9.4
300.028	9.22
300.287	10.36
300.547	9.86
300.806	7.41
301.065	10.91
301.324	11.91
301.583	8.23
301.842	4.5
302.101	4.39
302.36	4.61
302.619	5.54
302.878	6.64
303.137	5.34
303.396	6.67
303.655	8.11
303.914	5.41
304.173	4.84
304.432	4.57
304.691	6.88
304.95	4.7
305.208	10.24
305.467	12.25
305.726	12.53
305.985	12.59
306.244	14.35
306.503	12.58
306.761	9.96
307.02	7.97
307.279	8.92
307.537	9.23
307.796	5.17
308.055	3.33
308.314	3.46
308.572	1.39
308.831	3.11
309.09	1.73
309.348	2.26
309.607	1
309.865	5.13
310.124	3.9
310.382	6.22
310.641	5.99
310.9	5.38
311.158	6.35
311.417	6.27
311.675	6.38
311.933	7.77
312.192	9.72
312.45	10.76
312.709	11.04
312.967	10.91
313.226	9.41
313.484	7.46
313.742	5.75
314.001	3.62
314.259	2.01
314.517	2.71
314.776	5.22
315.034	7.84
315.292	5.92
315.55	4.84
315.809	4.61
316.067	4.05
316.325	2.99
316.583	4.46
316.841	2.91
317.1	1.94
317.358	-0.44
317.616	-1.36
317.874	-2.73
318.132	-2.77
318.39	-4.47
318.648	-4.6
318.906	-4.79
319.164	-7.14
319.422	-8.1
319.68	-10.66
319.938	-9.85
320.196	-9.56
320.454	-8.56
320.712	-9.13
320.97	-9.41
321.228	-10.56
321.486	-8.62
321.744	-5.96
322.002	-3.39
322.26	-5.06
322.517	-5.64
322.775	-8.59
323.033	-10.56
323.291	-6.98
323.549	-6.02
323.806	-4.55
324.064	-3.16
324.322	-1.45
324.58	-2.6
324.837	0.54
325.095	-2
325.353	0.24
325.61	2.6
325.868	2.84
326.126	4.88
326.383	3.73
326.641	0.65
326.898	1.83
327.156	3.77
327.413	3.32
327.671	4.58
327.928	5.62
328.186	4.73
328.443	2.39
328.701	5.95
328.958	8.08
329.216	9.11
329.473	8.23
329.731	8.71
329.988	7.51
330.245	10.23
330.503	12.71
330.76	14.29
331.017	16.62
331.275	13.17
331.532	14.66
331.789	13.56
332.047	12.47
332.304	10.18
332.561	11.76
332.818	9.11
333.076	11.2
333.333	10.67
333.59	10.82
333.847	12.25
334.104	10.95
334.361	10.29
334.618	11.2
334.876	9.82
335.133	9.27
335.39	7.6
335.647	9.06
335.904	6.24
336.161	5.42
336.418	6.85
336.675	2.28
336.932	3.04
337.189	3.18
337.446	1.87
337.703	1.09
337.96	-1.97
338.216	-0.83
338.473	-5.49
338.73	-5.68
338.987	-5.79
339.244	-1.89
339.501	-4.36
339.757	-2.77
340.014	-1.73
340.271	-1.73
340.528	-1.58
340.785	2.74
341.041	3.21
341.298	1.17
341.555	0.61
341.811	-0.62
342.068	-3.12
342.325	-1.99
342.581	2.26
342.838	3.1
343.094	2.49
343.351	2.03
343.608	-0.4
343.864	2.13
344.121	2.93
344.377	1.81
344.634	1.85
344.89	1.61
345.147	0.44
345.403	0.26
345.66	-0.63
345.916	1.56
346.172	-1.03
346.429	-1.14
346.685	-1.64
346.942	-2.05
347.198	-6.4
347.454	-4.85
347.711	-5.1
347.967	-7.87
348.223	-6.55
348.48	-7.26
348.736	-4.23
348.992	-4.83
349.248	-2.05
349.504	-1.95
349.761	-2.01
350.017	-0.87
350.273	-1.19
350.529	-4.08
350.785	-4.76
351.041	-4.84
351.297	-1.49
351.554	-2.61
351.81	-4.5
352.066	-6.07
352.322	-6.3
352.578	-3.91
352.834	-5.24
353.09	-4.73
353.346	-4.95
353.602	-6.02
353.858	-6.58
354.114	-7.16
354.369	-5.32
354.625	-3.42
354.881	-4.72
355.137	-2.35
355.393	-3.13
355.649	-3.48
355.905	-3.16
356.16	-3.2
356.416	-2.51
356.672	-8.88
356.928	-8.56
357.183	-9.89
357.439	-9.64
357.695	-11.17
357.951	-7.51
358.206	-7.35
358.462	-6.99
358.718	-8.77
358.973	-7.74
359.229	-8.77
359.484	-7.17
359.74	-5.08
359.996	-3.19
360.251	-0.13
360.507	-2.62
360.762	-2.92
361.018	-1.44
361.273	-3.47
361.529	-2
361.784	-2.17
362.04	-0.66
362.295	-1.04
362.55	-1.72
362.806	0.73
363.061	1.6
363.316	2.69
363.572	4.3
363.827	6.5
364.082	3.45
364.338	3.7
364.593	3.55
364.848	5.15
365.104	3.18
365.359	5.69
365.614	6.78
365.869	5.02
366.124	5.31
366.38	4.01
366.635	5.26
366.89	6.48
367.145	6.42
367.4	9.7
367.655	10.33
367.91	10.87
368.165	8.98
368.42	7.6
368.675	9.36
368.93	10.59
369.185	9.82
369.44	9.97
369.695	13.79
369.95	12.07
370.205	11.95
370.46	10.57
370.715	9.78
370.97	10.29
371.225	8.92
371.48	9.38
371.734	9.66
371.989	11.35
372.244	9.56
372.499	10.3
372.754	8.77
373.008	8.15
373.263	3.42
373.518	5.7
373.773	3.07
374.027	1.48
374.282	4.19
374.537	5.95
374.791	6.79
375.046	6.27
375.301	3.9
375.555	1.96
375.81	2.09
376.064	3.14
376.319	6.94
376.573	6.53
376.828	2.83
377.082	8.32
377.337	6.57
377.591	2.37
377.846	4.12
378.1	6.29
378.355	7.97
378.609	6.89
378.863	3.4
379.118	5.92
379.372	3.88
379.627	2.55
379.881	1.95
380.135	3.45
380.389	4.92
380.644	4.44
380.898	5.71
381.152	7.07
381.407	6.01
381.661	8.69
381.915	10
382.169	10.03
382.423	8.52
382.677	5.3
382.932	5
383.186	6.14
383.44	6.98
383.694	8.59
383.948	6.89
384.202	5.4
384.456	6.4
384.71	6.94
384.964	5.12
385.218	6.8
385.472	8.81
385.726	8.06
385.98	7.6
386.234	5.86
386.488	3.51
386.742	4.89
386.996	1.57
387.249	4.02
387.503	5.69
387.757	6.3
388.011	6.87
388.265	5.91
388.518	8.71
388.772	10.39
389.026	12.89
389.28	11.01
389.533	9.78
389.787	12.24
390.041	10.01
390.295	9.44
390.548	8.61
390.802	12.64
391.055	10.52
391.309	9.55
391.563	6.62
391.816	6.55
392.07	5.32
392.323	5.86
392.577	7
392.83	7.77
393.084	12.93
393.337	15.28
393.591	15.71
393.844	16.28
394.098	21.06
394.351	25.22
394.604	27.96
394.858	29.72
395.111	28.63
395.364	26.65
395.618	28.06
395.871	27.18
396.124	25.63
396.378	23.81
396.631	23.6
396.884	19.88
397.137	20.41
397.391	20.88
397.644	17.9
397.897	18.23
398.15	19.85
398.403	23.91
398.657	21.4
398.91	20.69
399.163	21.89
399.416	22.36
399.669	22.66
399.922	21.4
400.175	20.66
400.428	20
400.681	20.15
400.934	16.97
401.187	14.97
401.44	14.1
401.693	11.77
401.946	7.72
402.199	3.03
402.452	1.9
402.704	-0.2
402.957	0.06
403.21	1.89
403.463	2.46
403.716	2.39
403.969	3.34
404.221	2.94
404.474	3.99
404.727	7.42
404.98	9.99
405.232	10.41
405.485	12.4
405.738	14.8
405.99	14.7
406.243	15.93
406.496	18.35
406.748	18.95
407.001	17.41
407.253	18.28
407.506	17.39
407.759	19.69
408.011	17.72
408.264	18.35
408.516	18.18
408.769	15.74
409.021	17.93
409.274	18.49
409.526	20.34
409.778	20.17
410.031	23.76
410.283	23.07
410.536	28.16
410.788	25.97
411.04	25.21
411.293	26.6
411.545	27.21
411.797	26.45
412.049	25.62
412.302	27
412.554	28.14
412.806	25.89
413.058	23.94
413.311	23.7
413.563	22.13
413.815	21.85
414.067	18.61
414.319	17.1
414.571	18.32
414.823	18.59
415.075	17.01
415.328	18.81
415.58	20.77
415.832	20.79
416.084	21.84
416.336	20.51
416.588	23.95
416.84	21.36
417.091	23.81
417.343	20.86
417.595	23.09
417.847	23.55
418.099	24.77
418.351	23.42
418.603	26.23
418.855	27.31
419.106	25.62
419.358	25.22
419.61	25.71
419.862	27.57
420.114	24.42
420.365	22.58
420.617	22.18
420.869	20.83
421.12	19.93
421.372	20.8
421.624	20.03
421.875	19.31
422.127	16.23
422.379	15.84
422.63	16.62
422.882	16.42
423.133	14.83
423.385	15.51
423.636	16.28
423.888	17.46
424.139	18.5
424.391	15.78
424.642	14.64
424.894	13.05
425.145	12.97
425.396	10.67
425.648	12.48
425.899	10.48
426.151	11.26
426.402	9.54
426.653	9.77
426.905	8.17
427.156	6.26
427.407	6.18
427.658	5.36
427.91	4.26
428.161	4.23
428.412	6.8
428.663	8.68
428.914	10.46
429.166	11.68
429.417	12.42
429.668	12.31
429.919	10.09
430.17	10.17
430.421	10.46
430.672	14.31
430.923	14.02
431.174	11.52
431.425	11.59
431.676	11.97
431.927	10.25
432.178	12.21
432.429	13.02
432.68	13.17
432.931	15.51
433.182	18.04
433.433	14.72
433.683	17.18
433.934	16.46
434.185	15.45
434.436	13.94
434.687	15.58
434.937	18.64
435.188	17.7
435.439	16.25
435.69	18.36
435.94	17.67
436.191	18.7
436.442	17.76
436.692	15.75
436.943	13
437.194	11.46
437.444	13.65
437.695	18.12
437.945	18.79
438.196	17.47
438.447	14.94
438.697	17.26
438.948	17.8
439.198	15.06
439.449	9.15
439.699	10.32
439.949	9.35
440.2	8.55
440.45	8.65
440.701	7.97
440.951	6.69
441.201	7.88
441.452	5.64
441.702	4.49
441.952	5.53
442.203	5.79
442.453	4.32
442.703	3.75
442.953	4.93
443.204	6.43
443.454	3.19
443.704	3.87
443.954	0.01
444.204	2.44
444.455	4.7
444.705	5.13
444.955	7.4
445.205	6.51
445.455	3.77
445.705	3.27
445.955	3.28
446.205	4.12
446.455	5.13
446.705	5.7
446.955	7.74
447.205	11.34
447.455	13.2
447.705	11.34
447.955	10.92
448.205	12.88
448.454	13.08
448.704	15.43
448.954	14.72
449.204	16.77
449.454	17.59
449.704	16.47
449.953	17.39
450.203	20.86
450.453	19.42
450.703	20.21
450.952	19.57
451.202	22.32
451.452	22.21
451.701	25.04
451.951	27.74
452.201	26.86
452.45	28.99
452.7	29.88
452.949	29.86
453.199	30.91
453.448	33.39
453.698	35.52
453.947	33.99
454.197	31.62
454.446	30.33
454.696	32.95
454.945	32.3
455.195	31.13
455.444	32.87
455.693	36.38
455.943	33.36
456.192	35.27
456.442	33.94
456.691	33.82
456.94	32.01
457.189	30.33
457.439	32.62
457.688	34.11
457.937	32.69
458.186	33.25
458.436	34.09
458.685	34.46
458.934	33.7
459.183	33.76
459.432	36.43
459.681	37.32
459.93	37.04
460.179	35.41
460.429	33.42
460.678	35.87
460.927	39.27
461.176	37.81
461.425	37.8
461.674	39.67
461.923	40.36
462.172	39.82
462.42	38.65
462.669	41.83
462.918	41.73
463.167	41.37
463.416	38.33
463.665	39.31
463.914	38.7
464.162	38.28
464.411	38.68
464.66	40.18
464.909	38.97
465.158	39.58
465.406	38.13
465.655	39.08
465.904	40.3
466.152	40.23
466.401	41.08
466.65	42.45
466.898	41.54
467.147	37.62
467.395	34.79
467.644	35.26
467.893	34.76
468.141	34.56
468.39	31.78
468.638	29.67
468.887	28.75
469.135	27.92
469.384	28.65
469.632	29.93
469.88	29.5
470.129	30.61
470.377	26.78
470.626	28.59
470.874	29.9
471.122	31.73
471.371	29.94
471.619	29.87
471.867	30.65
472.115	31.25
472.364	28.82
472.612	33.24
472.86	32.05
473.108	31.69
473.356	30.79
473.605	30.67
473.853	28.95
474.101	29.03
474.349	28.12
474.597	30.38
474.845	29.26
475.093	28.45
475.341	27.17
475.589	27.89
475.837	28.67
476.085	30.66
476.333	26.93
476.581	27.85
476.829	27.37
477.077	28.84
477.325	27.51
477.573	28.04
477.821	26.99
478.069	28.5
478.317	27.12
478.564	28.63
478.812	26.26
479.06	25.91
479.308	24.35
479.555	25.38
479.803	24.15
480.051	26.05
480.299	24.51
480.546	23.91
480.794	22.43
481.042	23.95
481.289	23.51
481.537	24.16
481.784	22.6
482.032	24.34
482.28	23.05
482.527	22.94
482.775	23.49
483.022	24.07
483.27	24.78
483.517	27.72
483.765	26.78
484.012	28.48
484.259	26.36
484.507	28.14
484.754	28.29
485.002	28.08
485.249	28.31
485.496	30.64
485.744	29.9
485.991	30.06
486.238	28.85
486.486	33.07
486.733	34.16
486.98	36.38
487.227	33.45
487.474	34.88
487.722	37.41
487.969	35.05
488.216	35.25
488.463	36.21
488.71	34.27
488.957	32.84
489.204	33.45
489.451	35.36
489.699	36.14
489.946	33.79
490.193	33.59
490.44	33.65
490.687	34.48
490.934	32.54
491.18	28.86
491.427	29.16
491.674	31.34
491.921	32.34
492.168	30.84
492.415	27.23
492.662	27.87
492.909	30.35
493.155	29.14
493.402	27.61
493.649	26.09
493.896	25.89
494.142	22.6
494.389	23.18
494.636	21.16
494.883	20.91
495.129	19.53
495.376	17.88
495.623	20.05
495.869	22.52
496.116	24.09
496.362	24.84
496.609	27.94
496.855	31.43
497.102	31.55
497.348	30.49
497.595	31.85
497.841	35.77
498.088	33.62
498.334	32.63
498.581	31.48
498.827	32.44
499.074	34.44
499.32	36.17
499.566	39.27
499.813	40.27
500.059	39.51
500.305	39.21
500.552	37.62
500.798	36.77
501.044	40.33
501.29	39.31
501.537	37.67
501.783	39.16
502.029	41.56
502.275	39.57
502.521	37.44
502.767	38.09
503.013	40.04
503.26	37.64
503.506	33.54
503.752	34.52
503.998	34.14
504.244	34.08
504.49	30.64
504.736	30.83
504.982	29.24
505.228	31.4
505.474	31.01
505.72	33.42
505.966	32.74
506.211	35.78
506.457	35.52
506.703	31.62
506.949	29.9
507.195	28.09
507.441	24.75
507.686	28.81
507.932	29.31
508.178	32.26
508.424	29.44
508.669	28.06
508.915	29.1
509.161	31.14
509.406	31.59
509.652	30.23
509.898	33.96
510.143	36.89
510.389	36.93
510.634	34.14
510.88	37.54
511.125	39.87
511.371	39.75
511.616	39.34
511.862	36.96
512.107	34.95
512.353	35.11
512.598	36.7
512.844	34.92
513.089	33.75
513.335	33.86
513.58	34.58
513.825	35.37
514.071	34.31
514.316	34.63
514.561	36.5
514.806	36.32
515.052	38.65
515.297	36.58
515.542	38.15
515.787	36.73
516.033	40.3
516.278	39.85
516.523	39.26
516.768	37.47
517.013	35.29
517.258	35.88
517.503	34.56
517.748	33.9
517.993	32.42
518.238	32.46
518.483	30.05
518.728	28.61
518.973	26.43
519.218	26.78
519.463	28.16
519.708	27.94
519.953	26.93
520.198	26.79
520.443	29.81
520.688	31.56
520.933	30.87
521.177	30.71
521.422	28.14
521.667	30.26
521.912	30.28
522.157	25.57
522.401	27.12
522.646	27.17
522.891	27.38
523.135	26.56
523.38	27.09
523.625	24.9
523.869	27.95
524.114	28.58
524.358	28.37
524.603	28.39
524.848	25.28
525.092	24.75
525.337	26.04
525.581	29.18
525.826	30.89
526.07	32.35
526.315	34.74
526.559	34.14
526.803	33.38
527.048	36.34
527.292	36.57
527.537	35.81
527.781	35.04
528.025	29.7
528.269	30.87
528.514	31.09
528.758	30.54
529.002	30.65
529.247	33.28
529.491	33.88
529.735	38.7
529.979	38.84
530.223	40.42
530.467	37.27
530.712	35.21
530.956	33.98
531.2	35.36
531.444	31.5
531.688	34.2
531.932	34.16
532.176	35.43
532.42	37.04
532.664	38.16
532.908	36.22
533.152	33.66
533.396	32.91
533.64	30.83
533.884	29.7
534.128	29.89
534.371	31.15
534.615	32.03
534.859	32.42
535.103	32.98
535.347	33.45
535.59	35.8
535.834	32.45
536.078	33.84
536.322	36.35
536.565	39.52
536.809	38.56
537.053	40.28
537.296	37.99
537.54	36.49
537.784	35.29
538.027	38.04
538.271	37.63
538.514	36.94
538.758	36.14
539.001	35.6
539.245	34.85
539.488	35.99
539.732	37.43
539.975	38.11
540.219	40.9
540.462	41.52
540.706	43.57
540.949	43.5
541.192	45.34
541.436	50.11
541.679	55.23
541.922	55.84
542.166	50.63
542.409	50.86
542.652	51.74
542.895	52.58
543.139	53.71
543.382	57.73
543.625	57.92
543.868	57.03
544.111	55.71
544.354	53.2
544.598	51.85
544.841	52.33
545.084	52.54
545.327	53.79
545.57	55.15
545.813	57.52
546.056	57.29
546.299	59.36
546.542	61.27
546.785	62.89
547.028	63.23
547.271	62.14
547.514	61.46
547.756	57.36
547.999	58.43
548.242	59.45
548.485	58.7
548.728	59.28
548.971	53.45
549.213	53.62
549.456	52.54
549.699	53.21
549.942	53.46
550.184	52.56
550.427	51.53
550.67	51.61
550.912	45.59
551.155	46.32
551.398	45.47
551.64	44.99
551.883	46.36
552.125	45.09
552.368	45.51
552.61	43.82
552.853	44.33
553.095	43.24
553.338	42.02
553.58	43.04
553.823	40.17
554.065	43.17
554.308	39.53
554.55	37.85
554.792	36.81
555.035	35.7
555.277	35.44
555.519	36.31
555.762	33.68
556.004	32.95
556.246	28.97
556.488	30.78
556.731	27.13
556.973	28.48
557.215	28.14
557.457	28.92
557.699	30.39
557.941	28.88
558.183	28.8
558.426	32.54
558.668	28.98
558.91	31.3
559.152	30.69
559.394	28.46
559.636	31.57
559.878	31.53
560.12	30.84
560.362	31.67
560.604	31.33
560.845	30.96
561.087	30.17
561.329	32.72
561.571	30.61
561.813	31.76
562.055	31.21
562.297	31.9
562.538	33.62
562.78	35.6
563.022	32.39
563.264	34.77
563.505	35.58
563.747	37
563.989	35.2
564.23	34.57
564.472	32.72
564.714	35.94
564.955	36.03
565.197	34.43
565.438	35.92
565.68	39.41
565.921	38.4
566.163	40.71
566.404	38.07
566.646	40.52
566.887	43.96
567.129	44.98
567.37	43.97
567.612	46.91
567.853	44.56
568.094	46.07
568.336	46.77
568.577	47.82
568.818	49
569.06	47.24
569.301	46.1
569.542	46.87
569.783	47.59
570.025	47.62
570.266	49.41
570.507	52.47
570.748	50.95
570.989	51.61
571.23	55.16
571.472	55.7
571.713	55.96
571.954	57.44
572.195	54.09
572.436	55.6
572.677	56.95
572.918	58.42
573.159	54.89
573.4	53.86
573.641	54.02
573.882	55.06
574.123	54.41
574.364	50.11
574.604	49.35
574.845	48.44
575.086	48.14
575.327	49.14
575.568	47.89
575.809	47.8
576.049	46.14
576.29	43.79
576.531	48.74
576.771	53.2
577.012	55.52
577.253	56.73
577.494	56.6
577.734	57
577.975	56.66
578.215	57.03
578.456	56.34
578.697	56.04
578.937	58.1
579.178	56.99
579.418	56.15
579.659	57.29
579.899	55.87
580.14	56.62
580.38	56.57
580.62	57.74
580.861	60.78
581.101	60.67
581.342	59.96
581.582	55.27
581.822	59.53
582.063	58.22
582.303	60.25
582.543	60.94
582.783	62
583.024	65.55
583.264	69.36
583.504	68.72
583.744	71
583.984	68.98
584.224	68.96
584.465	67.75
584.705	68.57
584.945	69.95
585.185	68.92
585.425	70.89
585.665	71.81
585.905	72.31
586.145	73.34
586.385	72.62
586.625	76.71
586.865	76.66
587.105	77.79
587.345	78.62
587.585	79.9
587.824	78.87
588.064	79.54
588.304	77.62
588.544	77.71
588.784	77.93
589.024	83.09
589.263	82.06
589.503	82.25
589.743	85.05
589.982	84.44
590.222	84.98
590.462	82.63
590.701	81.25
590.941	84.08
591.181	83.77
591.42	83.31
591.66	84.76
591.899	89.64
592.139	88.78
592.378	89.53
592.618	89.85
592.857	89.71
593.097	90.99
593.336	91.32
593.576	90.09
593.815	91.3
594.055	90.02
594.294	91.69
594.533	91.41
594.773	91.48
595.012	92.38
595.251	95.06
595.491	97.44
595.73	100.52
595.969	102.98
596.208	104.95
596.447	108.45
596.687	110.7
596.926	112.83
597.165	110.64
597.404	114.89
597.643	114.14
597.882	113.64
598.121	114.66
598.36	116.84
598.599	118.94
598.838	120.01
599.077	118.32
599.316	118.52
599.555	119.75
599.794	122.38
600.033	125.47
600.272	126.67
600.511	125.47
600.75	128.45
600.989	131.69
601.228	133.17
601.466	134.05
601.705	135.78
601.944	137.45
602.183	140.71
602.422	140.43
602.66	139.53
602.899	140.32
603.138	141.67
603.376	140.57
603.615	142.39
603.854	141.5
604.092	142.53
604.331	144.24
604.569	145.88
604.808	144.95
605.047	148.21
605.285	149.51
605.524	149.7
605.762	149.05
606	151.09
606.239	152.74
606.477	153.23
606.716	150.02
606.954	149.55
607.193	146.02
607.431	142.72
607.669	142.62
607.908	141.95
608.146	144.76
608.384	144.68
608.622	143.69
608.861	145.42
609.099	144.97
609.337	144.23
609.575	144.29
609.813	146.06
610.052	147.16
610.29	142.14
610.528	140.2
610.766	139.96
611.004	140.32
611.242	138.6
611.48	137.48
611.718	134.57
611.956	135.08
612.194	133.58
612.432	133.41
612.67	133.3
612.908	134.83
613.146	133.42
613.384	132.49
613.621	130.48
613.859	131.22
614.097	130.49
614.335	131.47
614.573	133.2
614.811	135.66
615.048	134.14
615.286	136.35
615.524	133.87
615.761	130.75
615.999	132.22
616.237	131.73
616.474	132.8
616.712	135.22
616.95	133.78
617.187	132.01
617.425	132.98
617.662	136.1
617.9	136
618.137	134.56
618.375	132.93
618.612	131.92
618.85	134.61
619.087	138.69
619.325	138.59
619.562	137.11
619.799	135.22
620.037	133.79
620.274	132.63
620.511	134.33
620.749	130.89
620.986	130.12
621.223	128.36
621.461	129.02
621.698	129.77
621.935	129.11
622.172	126.69
622.409	129.14
622.647	127.94
622.884	126.14
623.121	128.88
623.358	127.42
623.595	127.29
623.832	127.82
624.069	125.75
624.306	126.35
624.543	128.76
624.78	129.83
625.017	128.95
625.254	130.32
625.491	133.69
625.728	135.81
625.965	137.78
626.202	136.88
626.438	134.13
626.675	133.3
626.912	135.94
627.149	136.81
627.386	138.26
627.622	137.5
627.859	137.19
628.096	137.43
628.333	138.68
628.569	138.53
628.806	141.17
629.043	141.82
629.279	141.82
629.516	144.13
629.752	142.14
629.989	142.8
630.225	140.84
630.462	140.57
630.699	141.03
630.935	138.87
631.171	135.94
631.408	136.36
631.644	135.09
631.881	131.5
632.117	127.75
632.354	129.15
632.59	128.48
632.826	126.83
633.063	124.61
633.299	124.41
633.535	121.47
633.771	120.74
634.008	123.32
634.244	122.52
634.48	121.29
634.716	122.13
634.953	121.23
635.189	120.22
635.425	122.28
635.661	123.36
635.897	123.4
636.133	120.91
636.369	118.86
636.605	116.28
636.841	116
637.077	116.8
637.313	115.44
637.549	117.55
637.785	116.87
638.021	117
638.257	117.63
638.493	120.83
638.729	118.71
638.965	121.27
639.2	123.72
639.436	123.52
639.672	122.59
639.908	119.81
640.144	122.56
640.379	125.62
640.615	123.23
640.851	126.47
641.086	128.11
641.322	125.56
641.558	124.96
641.793	125.35
642.029	123.76
642.264	122.6
642.5	123.15
642.736	119.94
642.971	121.25
643.207	118.89
643.442	117.3
643.678	118.24
643.913	120.15
644.148	118.6
644.384	119.91
644.619	121.44
644.855	122.46
645.09	122.4
645.325	121.01
645.561	120.86
645.796	118.12
646.031	121.86
646.266	119.03
646.502	117.22
646.737	117.94
646.972	117.31
647.207	118.27
647.442	116.54
647.678	111.75
647.913	114.38
648.148	115.2
648.383	113.44
648.618	113.53
648.853	114.19
649.088	115.89
649.323	118.47
649.558	119.44
649.793	119.91
650.028	119.67
650.263	116.43
650.498	117.99
650.733	117.84
650.968	116.99
651.202	117.61
651.437	115.72
651.672	111.83
651.907	110.27
652.142	109.3
652.376	109.44
652.611	111.47
652.846	112.14
653.081	111.52
653.315	109.05
653.55	109.2
653.785	107.79
654.019	110.13
654.254	109.51
654.488	109.85
654.723	106.83
654.958	105.98
655.192	103.37
655.427	97.71
655.661	98.87
655.896	100.29
656.13	102.76
656.364	101.05
656.599	97.81
656.833	104.82
657.068	106.62
657.302	107.44
657.536	104.17
657.771	105.65
658.005	106.03
658.239	105.76
658.474	103.44
658.708	105.29
658.942	105.71
659.176	103.3
659.41	100.61
659.645	99.54
659.879	98.93
660.113	96.47
660.347	95.44
660.581	93.23
660.815	92.63
661.049	92.89
661.283	88.82
661.517	85.84
661.751	84.24
661.985	83.09
662.219	84.68
662.453	83.87
662.687	85.53
662.921	82.22
663.155	81.18
663.389	74.43
663.622	71.46
663.856	72.38
664.09	64.27
664.324	61.96
664.558	63.9
664.791	64.23
665.025	63.45
665.259	63.59
665.492	61.77
665.726	64.02
665.96	61.81
666.193	60.63
666.427	62.73
666.661	62.55
666.894	60.75
667.128	59.56
667.361	59.59
667.595	58.65
667.828	58.24
668.062	56.95
668.295	56.26
668.529	56.38
668.762	57.17
668.995	56.21
669.229	59.88
669.462	59.67
669.695	58.71
669.929	55.97
670.162	56.78
670.395	54.65
670.629	56.62
670.862	58.95
671.095	55.45
671.328	55.89
671.561	53
671.795	51.61
672.028	52.34
672.261	52.21
672.494	54.05
672.727	52.71
672.96	53.64
673.193	53.13
673.426	56.5
673.659	58.09
673.892	57.89
674.125	56.75
674.358	54.25
674.591	53.42
674.824	53.73
675.057	52.35
675.29	50.73
675.523	51.76
675.755	51.4
675.988	51.16
676.221	54.3
676.454	51.8
676.687	52.88
676.919	53.47
677.152	54.33
677.385	53.11
677.617	53.88
677.85	53.24
678.083	51.58
678.315	53.78
678.548	51.38
678.78	51.13
679.013	50.92
679.246	51.05
679.478	50.56
679.711	48.48
679.943	50.27
680.175	46.34
680.408	50.27
680.64	45.87
680.873	44.31
681.105	45.3
681.338	48.86
681.57	49.12
681.802	49.81
682.034	49.68
682.267	53.43
682.499	55.55
682.731	53.52
682.964	51.95
683.196	51.18
683.428	48.19
683.66	46.23
683.892	48.43
684.124	50.2
684.356	53.05
684.589	53.4
684.821	51.29
685.053	51.54
685.285	52.01
685.517	53.22
685.749	54.95
685.981	55.44
686.213	54.75
686.445	55.44
686.676	53.6
686.908	52.82
687.14	51.72
687.372	53.03
687.604	48.92
687.836	50.16
688.068	49.23
688.299	49.57
688.531	46.38
688.763	49.95
688.995	48.66
689.226	50.55
689.458	48.28
689.69	47.25
689.921	45.26
690.153	46.57
690.384	47.31
690.616	47.15
690.848	47.88
691.079	43.53
691.311	40.29
691.542	37.28
691.774	35.63
692.005	38.07
692.237	41.63
692.468	39.24
692.699	38.36
692.931	37.32
693.162	35.21
693.393	34.25
693.625	31.64
693.856	31.88
694.087	32.29
694.319	32.26
694.55	31.88
694.781	31.13
695.012	29.94
695.243	29.16
695.475	26.35
695.706	26.71
695.937	25.39
696.168	26.23
696.399	23.49
696.63	22.3
696.861	21.02
697.092	25.87
697.323	27.83
697.554	29.34
697.785	29.61
698.016	30.11
698.247	27.56
698.478	28.98
698.709	30.14
698.94	32.68
699.171	32.91
699.401	27.46
699.632	28.92
699.863	25.02
700.094	24.59
700.325	28.05
700.555	28.65
700.786	31.26
701.017	31.62
701.247	29.97
701.478	30.97
701.709	30.15
701.939	28.54
702.17	30.66
702.401	32.03
702.631	33.12
702.862	31.81
703.092	28.28
703.323	29.81
703.553	31.41
703.784	32.53
704.014	33.08
704.244	29.01
704.475	27.12
704.705	26.93
704.936	26.73
705.166	26.11
705.396	28.86
705.627	27.89
705.857	27.18
706.087	26.41
706.317	22.89
706.548	21.84
706.778	20.66
707.008	22.53
707.238	23.48
707.468	20.8
707.698	18.86
707.928	16.4
708.158	14.6
708.389	13.87
708.619	11.44
708.849	10.68
709.079	11.89
709.309	9.21
709.539	6.83
709.768	6.99
709.998	9.26
710.228	8.88
710.458	6.26
710.688	3.32
710.918	3.44
711.148	2.64
711.378	3.1
711.607	2.65
711.837	3.12
712.067	3.8
712.297	4.24
712.526	3.98
712.756	6.27
712.986	3.49
713.215	1.11
713.445	2.32
713.674	4.48
713.904	5.25
714.134	7.77
714.363	6.1
714.593	5.57
714.822	5.26
715.052	5.45
715.281	6.96
715.511	7.03
715.74	7.52
715.969	5.87
716.199	6.54
716.428	7.19
716.657	7.26
716.887	8.52
717.116	6.31
717.345	9.52
717.575	10.86
717.804	11.72
718.033	9.72
718.262	8.55
718.492	7.23
718.721	8.37
718.95	5.54
719.179	2.17
719.408	2.59
719.637	-0.41
719.866	-4.14
720.095	-0.92
720.324	-0.62
720.553	-3.48
720.782	-5.64
721.011	-6.36
721.24	-9.24
721.469	-8.53
721.698	-7.57
721.927	-7.55
722.156	-8.22
722.385	-8.95
722.613	-6.01
722.842	-6.65
723.071	-2.35
723.3	-0.88
723.529	-0.1
723.757	0.74
723.986	-1.88
724.215	-2.88
724.443	-2.3
724.672	-0.81
724.901	-0.02
725.129	1.74
725.358	5.56
725.586	4.78
725.815	3.42
726.043	4.06
726.272	3.86
726.5	2.64
726.729	3.27
726.957	0.66
727.186	-1.53
727.414	-1.04
727.642	0.54
727.871	2
728.099	0.1
728.327	0.67
728.556	1.46
728.784	0.67
729.012	-0.5
729.241	2.06
729.469	1.4
729.697	-1.95
729.925	-0.01
730.153	-2
730.381	-3.99
730.61	-5.34
730.838	-8.37
731.066	-7.35
731.294	-7.46
731.522	-11.91
731.75	-16.09
731.978	-16.51
732.206	-17.58
732.434	-19.63
732.662	-17.94
732.89	-19.98
733.118	-20.65
733.346	-19.02
733.573	-19.12
733.801	-18.69
734.029	-11.8
734.257	-10.69
734.485	-7.57
734.712	-5.95
734.94	-8.25
735.168	-3.93
735.396	-3.88
735.623	-5.42
735.851	-3.77
736.078	-1.71
736.306	0.28
736.534	-0.44
736.761	0.02
736.989	-1.15
737.216	-2.68
737.444	-3.2
737.671	-2.27
737.899	2.83
738.126	2.08
738.354	2.71
738.581	5.3
738.809	6.91
739.036	5.43
739.263	6.05
739.491	4.7
739.718	4.27
739.945	10.5
740.173	11.63
740.4	10.26
740.627	10.07
740.854	10.79
741.081	8.69
741.309	6.52
741.536	2.67
741.763	2.86
741.99	4.4
742.217	4.14
742.444	3.66
742.671	4.92
742.898	5.47
743.125	3.52
743.352	-1.49
743.579	-1.49
743.806	-0.85
744.033	-0.46
744.26	1.6
744.487	0.63
744.714	0.53
744.941	-0.8
745.167	2.84
745.394	1.88
745.621	1.25
745.848	1.54
746.075	3.43
746.301	7.31
746.528	10.91
746.755	9.29
746.981	7.98
747.208	9.82
747.435	11.7
747.661	11.16
747.888	12.37
748.114	10.64
748.341	12.96
748.567	15.29
748.794	11.36
749.02	10.51
749.247	7.05
749.473	6.69
749.7	7.06
749.926	4.91
750.152	8.07
750.379	9.02
750.605	8.95
750.831	8.32
751.058	7.19
751.284	4.46
751.51	7.83
751.737	9.17
751.963	8.41
752.189	6.56
752.415	6.21
752.641	6.12
752.867	5.58
753.094	3.73
753.32	0.49
753.546	-1.4
753.772	1
753.998	-2.04
754.224	-1.9
754.45	-2.43
754.676	-2.36
754.902	-2.7
755.128	-2.33
755.354	-2.48
755.579	-0.49
755.805	1.4
756.031	-0.09
756.257	0.51
756.483	-0.51
756.709	-3.07
756.934	-2.3
757.16	-3.21
757.386	-2.34
757.612	-3.39
757.837	-4.4
758.063	-1.12
758.289	2.56
758.514	1.3
758.74	-1.42
758.965	-4.08
759.191	-1.85
759.416	-0.01
759.642	1.78
759.868	1.57
760.093	4.22
760.318	4.01
760.544	4.73
760.769	3.78
760.995	4.31
761.22	2.44
761.445	3.07
761.671	6.05
761.896	6.16
762.121	5.81
762.347	5.45
762.572	1.44
762.797	1.05
763.022	2.69
763.248	7.02
763.473	8.28
763.698	9.13
763.923	9.9
764.148	8.77
764.373	7.86
764.598	9.87
764.823	11.71
765.048	6.93
765.273	3.7
765.498	2.82
765.723	2.46
765.948	3.68
766.173	0.68
766.398	1.08
766.623	-2.71
766.848	-3.17
767.073	-4.95
767.298	-4.92
767.522	-6.84
767.747	-4.55
767.972	-4.93
768.197	-4.29
768.421	-4.45
768.646	-7.91
768.871	-10.37
769.095	-9.7
769.32	-8.98
769.545	-7.93
769.769	-5.81
769.994	-4.65
770.218	-9.08
770.443	-8.96
770.667	-8.52
770.892	-8.67
771.116	-9.58
771.341	-7.72
771.565	-7.98
771.79	-7.38
772.014	-6.5
772.238	-7.3
772.463	-5.67
772.687	-3.55
772.911	-3.93
773.136	-5.16
773.36	-4.29
773.584	-1.41
773.808	-3.17
774.033	-3.14
774.257	-4.45
774.481	-4.43
774.705	-6.71
774.929	-6.93
775.153	-7.74
775.377	-7.01
775.602	-7.33
775.826	-4.29
776.05	-1.96
776.274	-3.4
776.498	-4.02
776.722	-4.76
776.945	-3.68
777.169	-2.17
777.393	-1.98
777.617	-4.08
777.841	-3.76
778.065	-2.11
778.289	-3.56
778.512	-4.41
778.736	-4.39
778.96	-3.95
779.184	-1.9
779.407	-2.92
779.631	-3.5
779.855	-4.48
780.078	-2.44
780.302	-4.65
780.526	-7.57
780.749	-5.74
780.973	-5.46
781.196	-3.25
781.42	-4
781.643	-4.25
781.867	-3.55
782.09	-5.53
782.314	-5.5
782.537	-5.34
782.76	-7.42
782.984	-6.43
783.207	-5.05
783.431	-4.91
783.654	-6.71
783.877	-10.36
784.1	-11.02
784.324	-12.17
784.547	-10.52
784.77	-13.78
784.993	-15.75
785.216	-16.72
785.44	-17.3
785.663	-19.9
785.886	-17.88
786.109	-18.8
786.332	-19
786.555	-17.91
786.778	-14.79
787.001	-15.4
787.224	-14.07
787.447	-13.1
787.67	-12.55
787.893	-11.74
788.116	-12.29
788.339	-11.92
788.561	-12.3
788.784	-15.07
789.007	-15.21
789.23	-17.21
789.453	-17.24
789.675	-17.65
789.898	-20.98
790.121	-24.05
790.344	-25.04
790.566	-23.84
790.789	-22.24
791.012	-22.16
791.234	-19.19
791.457	-16.57
791.679	-14.99
791.902	-13.01
792.124	-13.95
792.347	-13.54
792.569	-11.79
792.792	-15
793.014	-11.54
793.237	-10.71
793.459	-11.75
793.681	-11.9
793.904	-12.47
794.126	-13.49
794.348	-12.97
794.571	-12.08
794.793	-13.59
795.015	-12.94
795.237	-13.77
795.46	-12.18
795.682	-11.11
795.904	-9.12
796.126	-10.17
796.348	-11.46
796.57	-8.19
796.792	-6.99
797.014	-2.62
797.237	-0.54
797.459	1.34
797.681	1.82
797.903	0.92
798.124	0.44
798.346	10.42
798.568	10.7
798.79	13.48
799.012	15.94
799.234	16.63
799.456	15.98
799.678	18.91
799.899	15.64
800.121	13.11
800.343	11.77
800.565	11.34
800.786	12.14
801.008	13.49
801.23	13.16
801.451	13.13
801.673	12.5
801.895	11.42
802.116	14.75
802.338	14.01
802.559	13.66
802.781	11.78
803.002	14.97
803.224	17.56
803.445	14.09
803.667	15.25
803.888	13.19
804.109	13.62
804.331	11.98
804.552	12.04
804.773	13.89
804.995	11.3
805.216	-2.5
805.437	-4.77
805.658	-8.98
805.88	-11.16
806.101	-10.58
806.322	-10.78
806.543	-11.35
806.764	-12.92
806.985	-10.7
807.207	-9.4
807.428	-9.5
807.649	-13.04
807.87	-13.79
808.091	-13.11
808.312	-12.29
808.533	-7.68
808.754	-5.25
808.975	-8.22
809.195	-5.35
809.416	-4.21
809.637	-4.3
809.858	-5.79
810.079	-7.09
810.3	-3.55
810.52	-4.38
810.741	-5.64
810.962	-6.82
811.183	-7.86
811.403	-7.03
811.624	-8.75
811.845	-7.84
812.065	-5.09
812.286	-1.88
812.506	-0.67
812.727	0.39
812.948	1.53
813.168	4.13
813.389	1.56
813.609	4.22
813.83	3.5
814.05	2.42
814.27	3.08
814.491	8.11
814.711	6.91
814.931	3.95
815.152	2.56
815.372	0.24
815.592	-0.9
815.813	-1.28
816.033	-3.76
816.253	-2.81
816.473	-3.19
816.694	-3.8
816.914	-2.88
817.134	-4.22
817.354	-6.81
817.574	-5.27
817.794	-5.92
818.014	-6.47
818.234	-6.81
818.454	-8.37
818.674	-8.58
818.894	-11.45
819.114	-10.1
819.334	-9.68
819.554	-7.39
819.774	-6.19
819.994	-8.97
820.214	-7.74
820.433	-8.29
820.653	-8.54
820.873	-6.62
821.093	-6.52
821.312	-9.58
821.532	-6.72
821.752	-4.81
821.972	-5.98
822.191	-3.57
822.411	-6.46
822.63	-5.75
822.85	-5.16
823.07	-8.08
823.289	-7
823.509	-7.26
823.728	-5.72
823.948	-7.57
824.167	-7.29
824.387	-8.59
824.606	-7.58
824.825	-7.27
825.045	-7.93
825.264	-7.22
825.483	-7.29
825.703	-6.28
825.922	-9.02
826.141	-10.59
826.361	-12.18
826.58	-14.81
826.799	-16.52
827.018	-15.54
827.237	-15.59
827.456	-14.36
827.676	-14.66
827.895	-14.13
828.114	-13.68
828.333	-15.61
828.552	-14.8
828.771	-13.08
828.99	-16.4
829.209	-15.31
829.428	-13.14
829.647	-12.8
829.866	-12.13
830.084	-12.22
830.303	-12.41
830.522	-13.53
830.741	-12.68
830.96	-12.33
831.179	-12.31
831.397	-13.64
831.616	-12.94
831.835	-12.77
832.053	-10.22
832.272	-8.88
832.491	-7.67
832.709	-8.45
832.928	-7.92
833.147	-7.1
833.365	-6.6
833.584	-3.47
833.802	-2.74
834.021	-2.64
834.239	-1.78
834.458	-2.59
834.676	-6.6
834.894	-7.09
835.113	-7.29
835.331	-8.85
835.55	-9.49
835.768	-7.95
835.986	-6.38
836.204	-7.61
836.423	-6.92
836.641	-7.18
836.859	-8.34
837.077	-7.39
837.296	-6.66
837.514	-8.26
837.732	-8.81
837.95	-10.91
838.168	-8.17
838.386	-9.29
838.604	-7.6
838.822	-9.14
839.04	-11.25
839.258	-11.62
839.476	-10.23
839.694	-9.5
839.912	-11.32
840.13	-11.28
840.348	-9.28
840.566	-12.66
840.783	-10.91
841.001	-13.58
841.219	-12.5
841.437	-11.17
841.655	-9.93
841.872	-10.01
842.09	-9.07
842.308	-8.27
842.525	-8.39
842.743	-8.18
842.961	-8.98
843.178	-11.9
843.396	-8.1
843.613	-6.81
843.831	-6.01
844.048	-5.96
844.266	-5
844.483	-5.77
844.701	-5.63
844.918	-5.76
845.136	-4.68
845.353	-6.52
845.57	-5.31
845.788	-1.36
846.005	-3.26
846.222	-4.13
846.439	-2.35
846.657	-1.09
846.874	-0.28
847.091	-2.32
847.308	0.44
847.526	-1.19
847.743	-0.46
847.96	-1.63
848.177	-1.71
848.394	-1.7
848.611	-1.53
848.828	-2.86
849.045	-3.62
849.262	-4.33
849.479	-6.14
849.696	-6.03
849.913	-6.7
850.13	-10.77
850.347	-7.78
850.564	-7.1
850.78	-11.04
850.997	-12.87
851.214	-11.27
851.431	-10.2
851.647	-13.15
851.864	-13.72
852.081	-11.8
852.298	-15.66
852.514	-17.69
852.731	-14.85
852.948	-13.92
853.164	-14.74
853.381	-14.67
853.597	-16.47
853.814	-18.49
854.03	-21.36
854.247	-19.01
854.463	-18.45
854.68	-19.13
854.896	-17.43
855.113	-18.09
855.329	-17.24
855.545	-15.14
855.762	-15.73
855.978	-18.03
856.194	-19.14
856.411	-16.99
856.627	-15.71
856.843	-14.61
857.059	-14.19
857.275	-17.19
857.492	-14.41
857.708	-9.96
857.924	-10.19
858.14	-9.21
858.356	-9.62
858.572	-9.24
858.788	-11.21
859.004	-9.55
859.22	-11.64
859.436	-12.41
859.652	-14.02
859.868	-14.05
860.084	-15.06
860.3	-15.44
860.516	-14.76
860.731	-13.69
860.947	-16.97
861.163	-15.95
861.379	-14.83
861.595	-14.95
861.81	-13.26
862.026	-12.99
862.242	-12.3
862.457	-12.51
862.673	-11.45
862.889	-10.61
863.104	-10.91
863.32	-8.85
863.535	-9.11
863.751	-13.08
863.966	-9.44
864.182	-8.03
864.397	-9.92
864.613	-10.42
864.828	-11.06
865.044	-10.25
865.259	-7.73
865.474	-7.84
865.69	-5.31
865.905	-3.77
866.12	-5.46
866.336	-3.74
866.551	-3.8
866.766	-4.58
866.981	-4.23
867.196	-4.5
867.412	-4.07
867.627	-3.52
867.842	-4.46
868.057	-4.46
868.272	-5.06
868.487	-5.68
868.702	-7.81
868.917	-8.65
869.132	-6.3
869.347	-5.83
869.562	-6.97
869.777	-7.48
869.992	-9.84
870.207	-9.58
870.422	-9.38
870.636	-12.63
870.851	-15.25
871.066	-17.45
871.281	-17.3
871.495	-16.72
871.71	-14.58
871.925	-17.83
872.14	-18.25
872.354	-21.03
872.569	-22.61
872.783	-19.87
872.998	-21.04
873.213	-21.88
873.427	-18.26
873.642	-18.42
873.856	-17.03
874.071	-17.48
874.285	-17.53
874.5	-19.8
874.714	-22.37
874.928	-22.21
875.143	-23.42
875.357	-24.39
875.571	-26.53
875.786	-26.76
876	-24.77
876.214	-22.99
876.429	-25.08
876.643	-24.63
876.857	-23.48
877.071	-22.49
877.285	-22.51
877.499	-23.23
877.714	-19.54
877.928	-17.81
878.142	-20.16
878.356	-22.88
878.57	-21.1
878.784	-20.22
878.998	-20.56
879.212	-17.55
879.426	-19.51
879.639	-17.63
879.853	-18.6
880.067	-19.27
880.281	-19.89
880.495	-19.47
880.709	-16.26
880.922	-15.96
881.136	-13.62
881.35	-10.59
881.564	-11.01
881.777	-13.41
881.991	-11.19
882.205	-6.86
882.418	-7.82
882.632	-9.46
882.845	-9.31
883.059	-8.43
883.273	-8.93
883.486	-9.74
883.7	-7.82
883.913	-8.6
884.126	-7.27
884.34	-12.07
884.553	-14.99
884.767	-10.74
884.98	-9.96
885.193	-11.98
885.407	-12.92
885.62	-11.35
885.833	-12.03
886.046	-11.44
886.26	-13.12
886.473	-12.73
886.686	-14.42
886.899	-12.37
887.112	-13.35
887.326	-16.69
887.539	-16.51
887.752	-14.28
887.965	-16.55
888.178	-15.07
888.391	-13.51
888.604	-13.66
888.817	-16.61
889.03	-15.7
889.243	-17.41
889.455	-19.6
889.668	-18.97
889.881	-15.64
890.094	-15.49
890.307	-18.38
890.52	-16.07
890.732	-15.38
890.945	-14.88
891.158	-13.78
891.37	-16.97
891.583	-15.4
891.796	-13.54
892.008	-14.14
892.221	-15.18
892.434	-18.87
892.646	-19.32
892.859	-19.52
893.071	-18.4
893.284	-16.93
893.496	-17.97
893.709	-18.78
893.921	-15.75
894.133	-15.75
894.346	-16.96
894.558	-17
894.771	-18.61
894.983	-17.15
895.195	-17.51
895.407	-16.81
895.62	-19.39
895.832	-17.49
896.044	-14.22
896.256	-15.14
896.468	-16.89
896.681	-16.65
896.893	-16.14
897.105	-16.57
897.317	-17.49
897.529	-14.49
897.741	-14.03
897.953	-10.91
898.165	-12.34
898.377	-14.53
898.589	-13.1
898.801	-13.58
899.013	-10.42
899.224	-7.5
899.436	-5.31
899.648	-6.19
899.86	-7.55
900.072	-5.35
900.283	-3.57
900.495	-4.75
900.707	-4.49
900.919	-6.77
901.13	-5.15
901.342	-5.33
901.554	-5.8
901.765	-4.95
901.977	-7.42
902.188	-7.78
902.4	-10.08
902.611	-12.38
902.823	-13.58
903.034	-14.69
903.246	-15.95
903.457	-15.83
903.669	-16.14
903.88	-16.42
904.091	-17.75
904.303	-15.36
904.514	-17.33
904.725	-16.77
904.936	-14.83
905.148	-14.06
905.359	-11.06
905.57	-11.36
905.781	-14.38
905.992	-16.45
906.204	-15.38
906.415	-15.1
906.626	-17.3
906.837	-15.6
907.048	-16.14
907.259	-16.74
907.47	-18.67
907.681	-19.95
907.892	-17.85
908.103	-18.68
908.314	-21.35
908.525	-18.59
908.735	-16.7
908.946	-16.17
909.157	-15.31
909.368	-13.16
909.579	-12.82
909.789	-13.79
910	-14.8
910.211	-12.39
910.421	-12.63
910.632	-11.09
910.843	-16.12
911.053	-12.31
911.264	-9.18
911.475	-10.54
911.685	-10.93
911.896	-11.96
912.106	-10.46
912.317	-11.43
912.527	-8.91
912.737	-9.79
912.948	-8.53
913.158	-8.47
913.369	-11.28
913.579	-9.5
913.789	-8.96
914	-3.65
914.21	-3.6
914.42	-4.64
914.63	-5.1
914.841	-3.91
915.051	-1.32
915.261	-1.79
915.471	2.44
915.681	2.24
915.891	2.34
916.101	1.26
916.311	1.18
916.521	2.94
916.731	1.94
916.941	4.93
917.151	4.02
917.361	7.69
917.571	3.19
917.781	0.94
917.991	-0.11
918.201	-1.2
918.411	-3.7
918.621	-4.43
918.83	-3.98
919.04	-6.43
919.25	-4.68
919.46	-4.34
919.669	-6.55
919.879	-6.14
920.089	-8.08
920.298	-10.26
920.508	-11.8
920.717	-12.23
920.927	-13.28
921.136	-12.07
921.346	-12.51
921.555	-16.88
921.765	-17.3
921.974	-21.01
922.184	-23.96
922.393	-23.99
922.603	-24.26
922.812	-22.11
923.021	-24.42
923.23	-25.37
923.44	-27.67
923.649	-27.75
923.858	-27.97
924.067	-28.19
924.277	-30.6
924.486	-29.84
924.695	-30.19
924.904	-28.19
925.113	-28.17
925.322	-26.17
925.531	-26.24
925.74	-28.24
925.949	-29.68
926.158	-27.13
926.367	-27.06
926.576	-25.85
926.785	-25.48
926.994	-27.32
927.203	-25.24
927.412	-25.73
927.621	-25.93
927.83	-24.35
928.038	-24.19
928.247	-24.47
928.456	-23.83
928.665	-21.77
928.873	-20.16
929.082	-18.36
929.291	-18.06
929.499	-14.83
929.708	-16.8
929.916	-16.64
930.125	-16.82
930.333	-17.69
930.542	-13.58
930.75	-10.51
930.959	-9.37
931.167	-8.82
931.376	-9.98
931.584	-9.83
931.793	-8.6
932.001	-8.6
932.209	-11.82
932.418	-14.22
932.626	-15.54
932.834	-16.46
933.042	-19.87
933.251	-20.36
933.459	-19.2
933.667	-19.95
933.875	-19.14
934.083	-18.75
934.291	-17.47
934.499	-16.08
934.707	-15.97
934.915	-15.96
935.123	-14.52
935.331	-16.13
935.539	-18.44
935.747	-19.57
935.955	-20.24
936.163	-19
936.371	-19.14
936.579	-19.14
936.787	-19.8
936.995	-22.84
937.202	-24.57
937.41	-24.8
937.618	-26.24
937.826	-25.77
938.033	-30
938.241	-33.21
938.449	-29.26
938.656	-25.12
938.864	-23.3
939.071	-23.5
939.279	-20.56
939.486	-17.25
939.694	-16.38
939.901	-18.26
940.109	-17.16
940.316	-17.07
940.524	-17.8
940.731	-19.83
940.939	-19.82
941.146	-19.74
941.353	-20.76
941.561	-21.01
941.768	-21.65
941.975	-19.8
942.182	-20.36
942.39	-21.75
942.597	-19.21
942.804	-17.88
943.011	-18.01
943.218	-17.2
943.425	-17.99
943.632	-17.86
943.839	-18.68
944.046	-18.26
944.253	-17.75
944.46	-16.98
944.667	-13.62
944.874	-15.76
945.081	-15.06
945.288	-15.23
945.495	-11.96
945.702	-11.9
945.909	-14.53
946.115	-13.09
946.322	-13.38
946.529	-15.17
946.736	-15.13
946.942	-13.42
947.149	-13.58
947.356	-14.59
947.562	-15.66
947.769	-15.54
947.976	-16.36
948.182	-15.08
948.389	-15.85
948.595	-15.57
948.802	-13.19
949.008	-14.32
949.215	-13.4
949.421	-13.49
949.628	-15.05
949.834	-12.92
950.04	-13.01
950.247	-9.33
950.453	-7.47
950.659	-10.09
950.865	-7.61
951.072	-12.21
951.278	-9.44
951.484	-11.14
951.69	-12.93
951.896	-14.92
952.103	-17.02
952.309	-16
952.515	-16.34
952.721	-14.47
952.927	-12.5
953.133	-14.12
953.339	-16.1
953.545	-16.08
953.751	-15.75
953.957	-13.55
954.163	-14.48
954.369	-13.71
954.574	-16.4
954.78	-16.19
954.986	-14.93
955.192	-13.83
955.398	-15.64
955.603	-19.56
955.809	-18.4
956.015	-17.72
956.22	-19.35
956.426	-18.54
956.632	-21.42
956.837	-22.1
957.043	-19.97
957.248	-20.65
957.454	-19.9
957.66	-23.8
957.865	-22.65
958.07	-22.7
958.276	-24.17
958.481	-24.77
958.687	-25.11
958.892	-25.39
959.097	-26.43
959.303	-27.8
959.508	-27.47
959.713	-27.18
959.919	-28.91
960.124	-29.41
960.329	-27.95
960.534	-24.78
960.739	-24.56
960.945	-22.1
961.15	-22.19
961.355	-23.77
961.56	-28.53
961.765	-29.37
961.97	-27.56
962.175	-26.42
962.38	-29.27
962.585	-27.91
962.79	-30.28
962.995	-31.22
963.2	-33.05
963.404	-33.33
963.609	-35.2
963.814	-36.16
964.019	-37.49
964.224	-41.02
964.428	-38.56
964.633	-37.05
964.838	-36.05
965.042	-35.51
965.247	-37.54
965.452	-37.08
965.656	-34.95
965.861	-34.19
966.066	-35.54
966.27	-32.26
966.475	-27.19
966.679	-32.66
966.884	-33.23
967.088	-33.98
967.292	-34.54
967.497	-33.72
967.701	-33.51
967.906	-31.75
968.11	-29.01
968.314	-25.76
968.518	-26.38
968.723	-22.44
968.927	-22.08
969.131	-19.36
969.335	-17.38
969.539	-16.71
969.744	-14.52
969.948	-11.01
970.152	-9.05
970.356	-7.19
970.56	-7.24
970.764	-8.19
970.968	-6.44
971.172	-6.45
971.376	-5.88
971.58	-3.46
971.784	-2.06
971.988	-4.94
972.192	-1.8
972.395	-1.25
972.599	-3.69
972.803	-6.75
973.007	-3.78
973.21	-2.64
973.414	-3.86
973.618	-3.81
973.822	-5.37
974.025	-5.87
974.229	-6.52
974.432	-8.5
974.636	-11.98
974.84	-11.57
975.043	-12.64
975.247	-14.16
975.45	-15.99
975.654	-14.91
975.857	-13.33
976.06	-13.84
976.264	-15.39
976.467	-13.32
976.671	-14.38
976.874	-12.89
977.077	-13.45
977.28	-14.32
977.484	-16.6
977.687	-17.93
977.89	-17.13
978.093	-17.82
978.297	-16.2
978.5	-19.73
978.703	-18.68
978.906	-17.36
979.109	-17.85
979.312	-16.28
979.515	-18.4
979.718	-18.07
979.921	-18.46
980.124	-18.91
980.327	-18.6
980.53	-18.19
980.733	-16.38
980.936	-13.72
981.138	-15.7
981.341	-14.7
981.544	-13.87
981.747	-14.9
981.949	-15.41
982.152	-14.48
982.355	-16.16
982.558	-13.78
982.76	-16.96
982.963	-16.56
983.165	-15.21
983.368	-14.26
983.571	-14.78
983.773	-10.52
983.976	-10.14
984.178	-8.95
984.381	-9.6
984.583	-11.21
984.785	-11.21
984.988	-9.57
985.19	-8.13
985.392	-10.4
985.595	-14.05
985.797	-13.02
985.999	-10.74
986.202	-8.84
986.404	-9.51
986.606	-5.61
986.808	-5.96
987.01	-4.62
987.212	-5.83
987.415	-7.29
987.617	-7.9
987.819	-9.47
988.021	-8.08
988.223	-10.07
988.425	-11.7
988.627	-11.69
988.829	-14.36
989.031	-11.01
989.232	-13.37
989.434	-12.39
989.636	-12.83
989.838	-13.37
990.04	-13.87
990.242	-13.96
990.443	-16.4
990.645	-15.06
990.847	-11.86
991.048	-10.71
991.25	-12.31
991.452	-13.11
991.653	-12.21
991.855	-12.12
992.057	-12.6
992.258	-12.15
992.46	-12.92
992.661	-10.25
992.863	-12.68
993.064	-12.52
993.265	-14.11
993.467	-14.67
993.668	-11.89
993.87	-11.45
994.071	-10.76
994.272	-10.23
994.473	-9.15
994.675	-7.99
994.876	-6.88
995.077	-7.79
995.278	-9.37
995.48	-7.14
995.681	-9.33
995.882	-8.47
996.083	-7.99
996.284	-11.71
996.485	-12.32
996.686	-14.47
996.887	-14.97
997.088	-19.51
997.289	-21.37
997.49	-21.35
997.691	-21.24
997.892	-21.2
998.092	-15.84
998.293	-15.87
998.494	-16.2
998.695	-16.82
998.896	-15.74
999.096	-16.28
999.297	-16
999.498	-18.76
999.698	-20.7
999.899	-22.73
1000.1	-24.87
1000.3	-24.63
1000.501	-25.04
1000.701	-25.64
1000.902	-26.9
1001.102	-26.92
1001.303	-24.37
1001.503	-25.69
1001.704	-25.16
1001.904	-26.18
1002.105	-26.58
1002.305	-26.35
1002.505	-26.15
1002.706	-26.07
1002.906	-24.6
1003.106	-24.25
1003.306	-23.17
1003.507	-20.76
1003.707	-21.24
1003.907	-19.97
1004.107	-19.29
1004.307	-21.46
1004.507	-20.09
1004.707	-20.53
1004.907	-23.22
1005.107	-24.53
1005.308	-24.97
1005.507	-26.07
1005.707	-22.4
1005.907	-23.25
1006.107	-22.46
1006.307	-19.39
1006.507	-19.78
1006.707	-19.31
1006.907	-18.14
1007.106	-18.23
1007.306	-18.86
1007.506	-17.94
1007.706	-17.74
1007.905	-19.13
1008.105	-16.5
1008.305	-16.19
1008.504	-16.43
1008.704	-12.83
1008.903	-12.52
1009.103	-10.5
1009.303	-12.66
1009.502	-12.85
1009.702	-13.78
1009.901	-12.69
1010.1	-15.64
1010.3	-13.78
1010.499	-15.22
1010.699	-18.15
1010.898	-19.38
1011.097	-17.47
1011.296	-17.53
1011.496	-16.78
1011.695	-16.74
1011.894	-18.54
1012.093	-15.51
1012.293	-15.02
1012.492	-15.66
1012.691	-15.67
1012.89	-16.91
1013.089	-19.08
1013.288	-17.6
1013.487	-16.38
1013.686	-17.98
1013.885	-18.54
1014.084	-18.76
1014.283	-20.85
1014.482	-22.76
1014.681	-22.42
1014.88	-26.42
1015.078	-24.46
1015.277	-27.05
1015.476	-28.68
1015.675	-28.18
1015.873	-28.04
1016.072	-30.37
1016.271	-26.88
1016.47	-30
1016.668	-29.33
1016.867	-29.04
1017.065	-30.32
1017.264	-30.58
1017.463	-30.19
1017.661	-31.17
1017.86	-30.04
1018.058	-28.5
1018.256	-29.79
1018.455	-30.16
1018.653	-29.42
1018.852	-28.77
1019.05	-29.85
1019.248	-31.29
1019.447	-31.86
1019.645	-32.48
1019.843	-34.06
1020.041	-33.09
1020.24	-32.98
1020.438	-29
1020.636	-28.91
1020.834	-31.29
1021.032	-28.69
1021.23	-30.06
1021.428	-27.83
1021.626	-23.54
1021.824	-22.21
1022.022	-23.57
1022.22	-21.38
1022.418	-21.03
1022.616	-21.84
1022.814	-21.51
1023.012	-22.59
1023.21	-20.89
1023.408	-21.29
1023.606	-22.27
1023.803	-17.37
1024.001	-18.32
1024.199	-21.77
1024.397	-20.31
1024.594	-20.5
1024.792	-23.05
1024.99	-23.15
1025.187	-22.5
1025.385	-18.25
1025.582	-18.35
1025.78	-18.03
1025.977	-16.67
1026.175	-16.18
1026.372	-15.19
1026.57	-17.07
1026.767	-13.08
1026.965	-11.53
1027.162	-11.62
1027.359	-12.44
1027.557	-12.72
1027.754	-15.92
1027.951	-17.91
1028.148	-15.47
1028.346	-17.25
1028.543	-21.18
1028.74	-20.3
1028.937	-22.77
1029.134	-21.71
1029.331	-22.03
1029.528	-20.81
1029.725	-22.29
1029.923	-26.45
1030.12	-22.46
1030.317	-20.21
1030.513	-18.8
1030.71	-18.02
1030.907	-14.8
1031.104	-14.84
1031.301	-15.91
1031.498	-16.7
1031.695	-17.69
1031.892	-18.54
1032.088	-18.08
1032.285	-19.88
1032.482	-21.35
1032.678	-23.26
1032.875	-27.35
1033.072	-27.87
1033.268	-27.33
1033.465	-26.19
1033.662	-28.21
1033.858	-27.63
1034.055	-27.01
1034.251	-25.11
1034.448	-24.82
1034.644	-23.62
1034.84	-22.02
1035.037	-19.93
1035.233	-19.78
1035.43	-18.08
1035.626	-19.31
1035.822	-17.04
1036.019	-17.6
1036.215	-20.76
1036.411	-22.85
1036.607	-25.17
1036.803	-27.95
1037	-30.43
1037.196	-32.36
1037.392	-32.83
1037.588	-34.64
1037.784	-33.65
1037.98	-35.01
1038.176	-36
1038.372	-35.84
1038.568	-33.01
1038.764	-32.61
1038.96	-29.09
1039.156	-29.02
1039.352	-30.46
1039.547	-29.87
1039.743	-29.35
1039.939	-27.3
1040.135	-27.33
1040.331	-28.92
1040.526	-27.4
1040.722	-28.51
1040.918	-30.49
1041.113	-33.05
1041.309	-33.08
1041.505	-36.94
1041.7	-36.7
1041.896	-38.29
1042.091	-39.01
1042.287	-40.05
1042.482	-38.51
1042.678	-39.08
1042.873	-37.49
1043.069	-37.55
1043.264	-36.14
1043.459	-33.97
1043.655	-33.26
1043.85	-34.06
1044.045	-32.22
1044.24	-32.05
1044.436	-30.75
1044.631	-33.52
1044.826	-33.29
1045.021	-37.39
1045.216	-38.2
