Data from FLMT021711__3__17-53-42-062.txt Node

Date: Tue Nov 05 17:53:42 CET 2024
User: Etudiants TP
Spectrometer: FLMT02171
Trigger mode: 0
Integration Time (sec): 1.000000E-1
Scans to average: 5
Electric dark correction enabled: true
Nonlinearity correction enabled: false
Boxcar width: 15
XAxis mode: Wavelengths
Number of Pixels in Spectrum: 3648
>>>>>Begin Spectral Data<<<<<
194.658	-64.91
194.923	-62.83
195.188	-55.64
195.453	-53.36
195.717	-47.25
195.982	-46.35
196.247	-45.32
196.512	-47.33
196.777	-45.76
197.042	-43.52
197.307	-44.58
197.572	-40.77
197.837	-41.21
198.101	-38.08
198.366	-36.57
198.631	-34.89
198.896	-28.62
199.161	-22.05
199.425	-15.09
199.69	-5.54
199.955	-6.84
200.22	-10.38
200.484	-10.4
200.749	-10.17
201.014	-9.48
201.278	-10.02
201.543	-8.97
201.807	-10.34
202.072	-8.28
202.337	-9.56
202.601	-9.2
202.866	-11.09
203.13	-10.24
203.395	-11.22
203.659	-12.21
203.924	-14.68
204.189	-13.73
204.453	-12.26
204.717	-9.76
204.982	-7.69
205.246	-6.45
205.511	-4.5
205.775	-4.91
206.04	1.27
206.304	0.94
206.568	3.99
206.833	5.09
207.097	5.67
207.361	8.44
207.626	11.34
207.89	12.95
208.154	13.31
208.419	16.17
208.683	16.73
208.947	19.17
209.211	18.73
209.476	18.41
209.74	18.41
210.004	18.74
210.268	18.93
210.532	21.9
210.796	22.16
211.061	22.72
211.325	24.41
211.589	22.29
211.853	23.2
212.117	23.59
212.381	23.58
212.645	23.42
212.909	22.79
213.173	18.58
213.437	18.81
213.701	20.61
213.965	20.57
214.229	16.08
214.493	17.16
214.757	15.53
215.021	15.1
215.285	18.71
215.549	18.55
215.813	16.71
216.077	16.14
216.34	19.33
216.604	18.33
216.868	17.98
217.132	18.54
217.396	17.68
217.659	17.29
217.923	12.86
218.187	12.58
218.451	10.12
218.714	7.73
218.978	7.99
219.242	11.02
219.505	8.86
219.769	9.73
220.033	10.33
220.296	11.28
220.56	12.27
220.824	9.88
221.087	10.65
221.351	10.74
221.614	9.72
221.878	10.85
222.142	10.33
222.405	9.52
222.669	10.49
222.932	7.15
223.196	5.73
223.459	3.02
223.722	5.46
223.986	4.08
224.249	3.65
224.513	4
224.776	4.26
225.04	4.89
225.303	4.19
225.566	3.87
225.83	7.14
226.093	11.57
226.356	11.14
226.62	10.41
226.883	11.72
227.146	11.94
227.409	10.46
227.673	10.34
227.936	10.16
228.199	10.03
228.462	8.24
228.725	6.92
228.989	8.68
229.252	10.14
229.515	16.16
229.778	15.59
230.041	14.29
230.304	11.89
230.567	12.72
230.83	9.91
231.093	11.42
231.356	11.07
231.619	18.32
231.882	16.07
232.145	17.52
232.408	16.42
232.671	14.92
232.934	14.36
233.197	11.07
233.46	9.12
233.723	10.24
233.986	7.76
234.249	4.55
234.512	6.15
234.775	10.99
235.037	10
235.3	10.13
235.563	10.56
235.826	11.19
236.089	13.12
236.351	12.83
236.614	16.44
236.877	16.86
237.14	17.54
237.402	16.49
237.665	9.47
237.928	8.15
238.19	6.32
238.453	8.28
238.716	7.48
238.978	9.68
239.241	9.03
239.503	10.53
239.766	3.89
240.029	1.59
240.291	5.68
240.554	4.52
240.816	3.71
241.079	3.58
241.341	4.32
241.604	4.43
241.866	1.84
242.129	3.82
242.391	6.34
242.653	5.92
242.916	4.57
243.178	4.96
243.441	6.42
243.703	5.55
243.965	3.75
244.228	2.53
244.49	1.98
244.752	1.49
245.015	3.13
245.277	5.65
245.539	5.2
245.801	7.11
246.064	7.52
246.326	5.69
246.588	6.77
246.85	8.31
247.112	5.83
247.374	7.78
247.637	9.48
247.899	9.36
248.161	11.19
248.423	6.89
248.685	9.5
248.947	9.17
249.209	8.49
249.471	10.91
249.733	12.26
249.995	11.5
250.257	9.36
250.519	7.45
250.781	10.58
251.043	7.92
251.305	9.14
251.567	9.46
251.829	9.61
252.091	9.78
252.353	6.79
252.615	7.33
252.876	5.03
253.138	2.03
253.4	-3.39
253.662	-2.96
253.924	-0.25
254.185	0.01
254.447	1.22
254.709	-0.05
254.971	1.12
255.232	4.36
255.494	3.77
255.756	2.06
256.017	2.01
256.279	2.64
256.541	1.35
256.802	0.4
257.064	1.81
257.326	1.49
257.587	1.08
257.849	1.77
258.11	4.3
258.372	5.51
258.633	7.15
258.895	5.74
259.156	5.61
259.418	3.83
259.679	0.83
259.941	-1.41
260.202	0.98
260.464	3.36
260.725	2.45
260.987	1.37
261.248	1.81
261.509	3
261.771	1.56
262.032	2.15
262.293	3.11
262.555	3.8
262.816	2.84
263.077	1.18
263.338	-1.26
263.6	-1.11
263.861	-2.34
264.122	-2.94
264.383	-1.08
264.645	1.28
264.906	0.33
265.167	1.38
265.428	1.02
265.689	1.89
265.95	-1.26
266.211	0.32
266.473	-0.51
266.734	-3.9
266.995	-7.41
267.256	-6.77
267.517	-3.38
267.778	-0.63
268.039	2.47
268.3	1.52
268.561	-1.3
268.822	1.24
269.083	0.75
269.344	-0.98
269.604	-1.37
269.865	-0.47
270.126	-4.61
270.387	-4.07
270.648	-3.72
270.909	-3.37
271.17	-4.62
271.43	-9.27
271.691	-11.9
271.952	-11.63
272.213	-9
272.473	-12.54
272.734	-12.36
272.995	-10.61
273.256	-10.34
273.516	-7.52
273.777	-10.08
274.038	-8.47
274.298	-11.37
274.559	-12.61
274.82	-7.51
275.08	-5.09
275.341	-3.46
275.601	-6.63
275.862	-8.36
276.122	-8.88
276.383	-9.13
276.643	-7.4
276.904	-8.27
277.164	-5.28
277.425	-4.88
277.685	0.1
277.946	-0.07
278.206	1.6
278.467	2.91
278.727	3.71
278.987	1.44
279.248	1.79
279.508	5.67
279.768	7.26
280.029	8.15
280.289	3.62
280.549	2.73
280.81	1.85
281.07	0.81
281.33	1.68
281.59	0.24
281.851	3.18
282.111	4.11
282.371	3.68
282.631	5.8
282.891	3.65
283.151	2.2
283.412	0.07
283.672	0.4
283.932	-0.35
284.192	1.13
284.452	0.16
284.712	-1.22
284.972	-2.84
285.232	-4.94
285.492	-1.13
285.752	-5
286.012	1.01
286.272	2.99
286.532	0.17
286.792	-1.46
287.052	2.25
287.312	2.63
287.571	2.08
287.831	2.32
288.091	-0.13
288.351	1.64
288.611	6.12
288.871	6.64
289.13	7.04
289.39	2.87
289.65	3.05
289.91	-0.54
290.17	1.51
290.429	3.73
290.689	1.37
290.949	-0.82
291.208	0.52
291.468	3.39
291.728	5.43
291.987	8.42
292.247	5.45
292.506	7.43
292.766	10.04
293.026	9.41
293.285	9.79
293.545	11.57
293.804	11.52
294.064	8.25
294.323	6.57
294.583	7.82
294.842	9.38
295.102	9.85
295.361	10.28
295.621	10.37
295.88	11.77
296.139	11.54
296.399	12.03
296.658	7.33
296.917	7.75
297.177	3.1
297.436	5.22
297.695	3.15
297.955	5.09
298.214	2.74
298.473	3.93
298.732	6.61
298.992	9.07
299.251	9.04
299.51	6.62
299.769	6.32
300.028	5.5
300.287	6.15
300.547	6.86
300.806	5.64
301.065	8.75
301.324	10.49
301.583	6.36
301.842	3.31
302.101	1.1
302.36	0.21
302.619	-0.28
302.878	-0.46
303.137	-3.24
303.396	-2.34
303.655	-1.11
303.914	-4.26
304.173	-3.52
304.432	-4.16
304.691	-0.85
304.95	-3.69
305.208	1.33
305.467	2.14
305.726	2.5
305.985	3.69
306.244	5.57
306.503	4.98
306.761	3.35
307.02	0.06
307.279	0.03
307.537	-0.39
307.796	-3.01
308.055	-5.74
308.314	-3.27
308.572	-5.56
308.831	-4.33
309.09	-4.32
309.348	-4.51
309.607	-5.18
309.865	0.43
310.124	0.86
310.382	4.1
310.641	5.54
310.9	4.09
311.158	5.57
311.417	5.51
311.675	5.49
311.933	5.49
312.192	6.8
312.45	7.4
312.709	7.16
312.967	8.06
313.226	8.36
313.484	6.73
313.742	6
314.001	4.66
314.259	3.58
314.517	4.31
314.776	6.69
315.034	9.88
315.292	8.16
315.55	6.14
315.809	5.9
316.067	7.92
316.325	5.38
316.583	6.71
316.841	4.96
317.1	3.87
317.358	1.84
317.616	1.73
317.874	0.16
318.132	-1.19
318.39	-3.01
318.648	-5.28
318.906	-4.9
319.164	-6.7
319.422	-8.17
319.68	-10.24
319.938	-8.63
320.196	-9.51
320.454	-8.74
320.712	-10.28
320.97	-9.59
321.228	-11.93
321.486	-9.75
321.744	-8.29
322.002	-6.37
322.26	-9.34
322.517	-10.18
322.775	-13.9
323.033	-15.33
323.291	-13.18
323.549	-10.59
323.806	-7.02
324.064	-7.43
324.322	-4.81
324.58	-8.46
324.837	-6.58
325.095	-9.76
325.353	-8.73
325.61	-7.52
325.868	-8.63
326.126	-6.38
326.383	-6.99
326.641	-8.31
326.898	-7.13
327.156	-6.82
327.413	-6.23
327.671	-4.39
327.928	-2.06
328.186	-1.62
328.443	-3.19
328.701	0.94
328.958	1.58
329.216	3.18
329.473	0.34
329.731	-0.36
329.988	-0.78
330.245	3.23
330.503	4.45
330.76	6.16
331.017	8.51
331.275	5.9
331.532	7.06
331.789	4.1
332.047	3.23
332.304	-0.68
332.561	1.68
332.818	1.12
333.076	4.08
333.333	5.98
333.59	6.33
333.847	7.47
334.104	6.52
334.361	6.26
334.618	7.52
334.876	4.97
335.133	6.06
335.39	3.59
335.647	3.8
335.904	0.44
336.161	-0.94
336.418	-0.26
336.675	-5.46
336.932	-4.52
337.189	-5.34
337.446	-4.57
337.703	-3.71
337.96	-8.71
338.216	-9.77
338.473	-12.51
338.73	-12.1
338.987	-13.76
339.244	-8.91
339.501	-11.74
339.757	-11.88
340.014	-10.88
340.271	-9.46
340.528	-8.74
340.785	-5.56
341.041	-6.07
341.298	-10.42
341.555	-10.38
341.811	-11.95
342.068	-14.17
342.325	-14.73
342.581	-13.61
342.838	-11.93
343.094	-12
343.351	-9.57
343.608	-11.45
343.864	-10.2
344.121	-8.85
344.377	-9.57
344.634	-8.21
344.89	-10.18
345.147	-11.06
345.403	-12.22
345.66	-12.94
345.916	-8.3
346.172	-10.3
346.429	-11.18
346.685	-12.68
346.942	-11.47
347.198	-16.29
347.454	-14.38
347.711	-13.73
347.967	-15.5
348.223	-14.81
348.48	-14.73
348.736	-11.73
348.992	-12.48
349.248	-9.67
349.504	-10.62
349.761	-10.68
350.017	-8.82
350.273	-9.43
350.529	-9.86
350.785	-10.61
351.041	-11.4
351.297	-11.42
351.554	-12.49
351.81	-14.88
352.066	-15.36
352.322	-14.74
352.578	-14.45
352.834	-14.59
353.09	-14.28
353.346	-13.6
353.602	-15.29
353.858	-16.24
354.114	-15.57
354.369	-14.13
354.625	-12.35
354.881	-14.31
355.137	-11.15
355.393	-11.62
355.649	-11.07
355.905	-11.64
356.16	-11.49
356.416	-11.83
356.672	-18.76
356.928	-17.01
357.183	-16.2
357.439	-16.53
357.695	-16.65
357.951	-12.59
358.206	-12.31
358.462	-12.49
358.718	-14.45
358.973	-12.97
359.229	-12.33
359.484	-11.29
359.74	-7.76
359.996	-7.68
360.251	-4.43
360.507	-4.58
360.762	-4.51
361.018	-1.86
361.273	-3.44
361.529	-0.69
361.784	-1.82
362.04	-0.6
362.295	-1.12
362.55	-0.97
362.806	0.5
363.061	-0.76
363.316	-0.43
363.572	-0.44
363.827	0.96
364.082	-2.21
364.338	-1.72
364.593	-2.11
364.848	-2.12
365.104	-4.74
365.359	-1.09
365.614	0.26
365.869	-3.3
366.124	-2.05
366.38	-3.01
366.635	-0.21
366.89	-0.62
367.145	-1.56
367.4	1.81
367.655	0.83
367.91	1.13
368.165	-1.46
368.42	-3.7
368.675	-3.55
368.93	-3.32
369.185	-5.08
369.44	-5.99
369.695	-3.57
369.95	-4.69
370.205	-3.75
370.46	-4.23
370.715	-4.51
370.97	-3.53
371.225	-3.65
371.48	-3.15
371.734	-1.38
371.989	0.31
372.244	-0.03
372.499	3.69
372.754	3.13
373.008	1.87
373.263	-3.41
373.518	-2.35
373.773	-4.1
374.027	-5.52
374.282	-3.73
374.537	-2.25
374.791	-0.04
375.046	0.18
375.301	-1.9
375.555	-3.8
375.81	-2.37
376.064	-1.17
376.319	1.75
376.573	0.41
376.828	-4.13
377.082	0.48
377.337	-2.35
377.591	-5.88
377.846	-4.43
378.1	-2.83
378.355	-3.92
378.609	-4.75
378.863	-6.67
379.118	-5.45
379.372	-6.83
379.627	-9.25
379.881	-10.93
380.135	-10.52
380.389	-11.88
380.644	-11.09
380.898	-9.26
381.152	-7.4
381.407	-8.19
381.661	-5.86
381.915	-4.55
382.169	-3.44
382.423	-5.39
382.677	-8.89
382.932	-9
383.186	-7.93
383.44	-6.74
383.694	-5.13
383.948	-7.95
384.202	-9
384.456	-6.58
384.71	-4.06
384.964	-6.47
385.218	-3.44
385.472	-1.45
385.726	-2.62
385.98	-3.5
386.234	-2.98
386.488	-5.33
386.742	-5
386.996	-7.37
387.249	-6.21
387.503	-4.14
387.757	-2.74
388.011	-2.18
388.265	-1.85
388.518	-0.34
388.772	1.99
389.026	2.88
389.28	1.7
389.533	-0.13
389.787	2.79
390.041	0.84
390.295	1.02
390.548	1.9
390.802	5.82
391.055	3.82
391.309	3.17
391.563	0.16
391.816	2.08
392.07	1.35
392.323	2.29
392.577	2.85
392.83	5.32
393.084	10.39
393.337	13.04
393.591	12.83
393.844	13.42
394.098	16.54
394.351	21.24
394.604	23.2
394.858	25.66
395.111	26.46
395.364	24.08
395.618	25.69
395.871	22.88
396.124	21.55
396.378	19.87
396.631	19.25
396.884	16.52
397.137	15.41
397.391	17.57
397.644	12.62
397.897	12.13
398.15	12.29
398.403	13.18
398.657	10.03
398.91	9.8
399.163	10.57
399.416	11.07
399.669	9.37
399.922	8.45
400.175	6.61
400.428	5.84
400.681	5.22
400.934	0.75
401.187	-0.43
401.44	1.13
401.693	-0.36
401.946	-3.41
402.199	-8.86
402.452	-10.16
402.704	-13.94
402.957	-16.06
403.21	-14.38
403.463	-15.32
403.716	-13.27
403.969	-11.49
404.221	-12.4
404.474	-12.19
404.727	-8.15
404.98	-4.93
405.232	-5.43
405.485	-1.89
405.738	0.7
405.99	1.34
406.243	2.83
406.496	3.76
406.748	3.69
407.001	3.23
407.253	2.92
407.506	3.4
407.759	3.79
408.011	2.11
408.264	2.42
408.516	2.46
408.769	0.06
409.021	0.7
409.274	0.51
409.526	1.62
409.778	1.56
410.031	6.37
410.283	6.58
410.536	12.65
410.788	11.72
411.04	12.36
411.293	13.58
411.545	14.39
411.797	12.98
412.049	12.43
412.302	13.72
412.554	14.95
412.806	13.1
413.058	10.37
413.311	10.5
413.563	7.95
413.815	6.95
414.067	4.94
414.319	5.06
414.571	6.79
414.823	5.77
415.075	5.48
415.328	6.14
415.58	10.12
415.832	12.24
416.084	12.86
416.336	11.89
416.588	16.08
416.84	14.73
417.091	16.84
417.343	14.61
417.595	15.96
417.847	16.32
418.099	17.31
418.351	14.92
418.603	17.65
418.855	17.01
419.106	18.11
419.358	18.06
419.61	17.83
419.862	19.29
420.114	16.09
420.365	14.1
420.617	13.3
420.869	13.08
421.12	12.11
421.372	14.35
421.624	14.46
421.875	14.32
422.127	11.08
422.379	10.96
422.63	13.5
422.882	12.58
423.133	12.2
423.385	10.68
423.636	11.15
423.888	14.49
424.139	16.23
424.391	15.08
424.642	13.33
424.894	11.5
425.145	11.62
425.396	8.59
425.648	10.71
425.899	8.96
426.151	9.3
426.402	8.1
426.653	8.06
426.905	5.26
427.156	3.51
427.407	4.36
427.658	2.71
427.91	1.27
428.161	1.16
428.412	3.66
428.663	4.64
428.914	5.38
429.166	6.71
429.417	7.76
429.668	6.32
429.919	5.28
430.17	4.17
430.421	4.12
430.672	7.43
430.923	8.16
431.174	7.38
431.425	7.44
431.676	5.51
431.927	3.56
432.178	4.53
432.429	4.25
432.68	3.69
432.931	6.71
433.182	9.78
433.433	7.33
433.683	8.16
433.934	7.81
434.185	6.84
434.436	6.03
434.687	8.87
434.937	10.03
435.188	8.39
435.439	8.12
435.69	10.16
435.94	10.25
436.191	10.73
436.442	11.33
436.692	10.55
436.943	7.28
437.194	5.25
437.444	7.63
437.695	12.39
437.945	13.17
438.196	11.59
438.447	10.94
438.697	10.31
438.948	9.44
439.198	6.57
439.449	2.81
439.699	4.01
439.949	2.18
440.2	3.19
440.45	4.98
440.701	3.65
440.951	2.25
441.201	3.67
441.452	3.02
441.702	2.53
441.952	4.11
442.203	5.48
442.453	3.86
442.703	5.65
442.953	8.06
443.204	9.76
443.454	7.61
443.704	6.84
443.954	4.53
444.204	5.11
444.455	5.71
444.705	7.05
444.955	8.41
445.205	7.63
445.455	4.78
445.705	5.05
445.955	5.18
446.205	3.26
446.455	4.63
446.705	5.84
446.955	6.76
447.205	8.69
447.455	9.72
447.705	9.45
447.955	8.19
448.205	7.2
448.454	7.22
448.704	9.65
448.954	6.67
449.204	8.92
449.454	9.05
449.704	8.93
449.953	8.4
450.203	9.09
450.453	6.43
450.703	6.97
450.952	6.42
451.202	8.39
451.452	9.44
451.701	13.06
451.951	16.35
452.201	17.06
452.45	16.28
452.7	16.56
452.949	18.09
453.199	18.02
453.448	19.89
453.698	22.24
453.947	22.94
454.197	22.39
454.446	21.51
454.696	25.14
454.945	25.65
455.195	24.46
455.444	25.64
455.693	30.9
455.943	30.77
456.192	30.46
456.442	30.33
456.691	29.3
456.94	27.59
457.189	27.08
457.439	27.95
457.688	30.62
457.937	31.47
458.186	31.64
458.436	31.65
458.685	31.9
458.934	31.54
459.183	31.41
459.432	32.17
459.681	32.96
459.93	31.62
460.179	31.99
460.429	30.33
460.678	32.51
460.927	35.28
461.176	34.22
461.425	33.17
461.674	33.99
461.923	34.3
462.172	34.83
462.42	33.09
462.669	35.04
462.918	35.41
463.167	35.01
463.416	31.68
463.665	33.11
463.914	34.7
464.162	33.06
464.411	36.02
464.66	38.14
464.909	37.79
465.158	38.58
465.406	38.34
465.655	39.26
465.904	42.51
466.152	42.04
466.401	43.48
466.65	45.33
466.898	43.22
467.147	39.51
467.395	36.92
467.644	38.91
467.893	38.2
468.141	38.72
468.39	35.31
468.638	33.22
468.887	32.21
469.135	32.6
469.384	33.07
469.632	32.68
469.88	32.17
470.129	32.97
470.377	30.19
470.626	32.28
470.874	33.44
471.122	33.74
471.371	31.29
471.619	28.73
471.867	30.45
472.115	30.59
472.364	28.78
472.612	30.92
472.86	28.98
473.108	28.64
473.356	27.18
473.605	26.13
473.853	24.28
474.101	22.77
474.349	22.1
474.597	25.21
474.845	24.11
475.093	23.96
475.341	22.27
475.589	22.3
475.837	24.58
476.085	26.91
476.333	24.88
476.581	26.16
476.829	24.4
477.077	27.75
477.325	27.92
477.573	29.04
477.821	29.4
478.069	30.71
478.317	30.53
478.564	32.54
478.812	29.93
479.06	30.42
479.308	29.48
479.555	29.4
479.803	26.37
480.051	28.11
480.299	27.17
480.546	27.09
480.794	24.44
481.042	25.89
481.289	24.7
481.537	25.8
481.784	26.46
482.032	28.45
482.28	27.54
482.527	27.78
482.775	27.87
483.022	29.24
483.27	31.89
483.517	34.07
483.765	32.7
484.012	33.99
484.259	32.17
484.507	35.08
484.754	32.87
485.002	32.28
485.249	31.16
485.496	33.14
485.744	31.29
485.991	29.13
486.238	27.75
486.486	31.83
486.733	32.17
486.98	35.64
487.227	33.88
487.474	36.54
487.722	37.88
487.969	36.33
488.216	36.13
488.463	38.04
488.71	36.38
488.957	35.85
489.204	34.94
489.451	35.67
489.699	34.17
489.946	31.21
490.193	30.43
490.44	29.58
490.687	29.71
490.934	26.59
491.18	23.72
491.427	24.94
491.674	27.67
491.921	28.22
492.168	26.4
492.415	26.09
492.662	28.28
492.909	30.44
493.155	27.97
493.402	26.94
493.649	27.02
493.896	26.68
494.142	22.93
494.389	22.37
494.636	22.52
494.883	22.67
495.129	22.18
495.376	20.01
495.623	22.03
495.869	25.01
496.116	26.75
496.362	28.68
496.609	31.64
496.855	37
497.102	35.25
497.348	34.81
497.595	37.24
497.841	43.44
498.088	43.39
498.334	44.07
498.581	44.2
498.827	43.72
499.074	45.4
499.32	46.37
499.566	49.87
499.813	51.36
500.059	49.6
500.305	48.69
500.552	48.35
500.798	49.7
501.044	54.27
501.29	53.41
501.537	51.66
501.783	54.81
502.029	58.75
502.275	55.01
502.521	53.25
502.767	55.15
503.013	58.28
503.26	56.48
503.506	53.87
503.752	53.09
503.998	52.81
504.244	53.78
504.49	50.82
504.736	52.98
504.982	53.53
505.228	56.5
505.474	55.69
505.72	57.32
505.966	55.08
506.211	57.34
506.457	57.51
506.703	53.67
506.949	52.14
507.195	49.72
507.441	47.66
507.686	50.99
507.932	50.85
508.178	52.52
508.424	50.88
508.669	50.01
508.915	50.45
509.161	52.87
509.406	54.32
509.652	53.75
509.898	58.51
510.143	60.34
510.389	57.91
510.634	54.2
510.88	57.55
511.125	60.23
511.371	61.56
511.616	61.39
511.862	57.88
512.107	56.97
512.353	58.86
512.598	58.51
512.844	55.34
513.089	52.52
513.335	52.8
513.58	52.86
513.825	53.21
514.071	54.02
514.316	54.5
514.561	56.01
514.806	55.73
515.052	58.4
515.297	57.23
515.542	59.13
515.787	59.74
516.033	61.09
516.278	60.16
516.523	60
516.768	59.84
517.013	56.48
517.258	56.1
517.503	54.88
517.748	55.49
517.993	56.53
518.238	56.69
518.483	55.19
518.728	54.3
518.973	51.97
519.218	52.31
519.463	54.45
519.708	54.14
519.953	52.29
520.198	53.37
520.443	55.38
520.688	58.95
520.933	59.05
521.177	59.37
521.422	57.88
521.667	60.64
521.912	61.59
522.157	58.27
522.401	61.65
522.646	61.38
522.891	61.65
523.135	63.05
523.38	62.07
523.625	60.85
523.869	63.41
524.114	66.02
524.358	65.07
524.603	66.38
524.848	62.24
525.092	61.98
525.337	64.92
525.581	66.88
525.826	70.1
526.07	70.62
526.315	71.85
526.559	71.88
526.803	70.12
527.048	72.98
527.292	73.25
527.537	72.58
527.781	72.55
528.025	70.88
528.269	70.75
528.514	70.89
528.758	71.02
529.002	71.11
529.247	73.16
529.491	72.04
529.735	77.38
529.979	76.18
530.223	75.79
530.467	73.01
530.712	70.43
530.956	69.99
531.2	71.68
531.444	68.99
531.688	69.55
531.932	69
532.176	69.59
532.42	73.75
532.664	75.64
532.908	72.39
533.152	68.86
533.396	66.26
533.64	66.78
533.884	64.3
534.128	64.89
534.371	65.78
534.615	67.09
534.859	66.69
535.103	66.55
535.347	66.79
535.59	68.35
535.834	66.3
536.078	66.37
536.322	67.59
536.565	70.6
536.809	68.09
537.053	70
537.296	67.49
537.54	66.45
537.784	66.9
538.027	69.48
538.271	68.25
538.514	68
538.758	68.24
539.001	67.01
539.245	66.47
539.488	68.26
539.732	71.15
539.975	70.31
540.219	71.95
540.462	73.07
540.706	76.01
540.949	77.56
541.192	77.51
541.436	83.29
541.679	86.84
541.922	88.1
542.166	83.64
542.409	83.74
542.652	84.92
542.895	86.07
543.139	86.94
543.382	90.54
543.625	91.5
543.868	90.44
544.111	90.02
544.354	89.11
544.598	88.88
544.841	89.32
545.084	89.68
545.327	88.11
545.57	89.18
545.813	92.01
546.056	91.65
546.299	91.4
546.542	94.64
546.785	97.97
547.028	97.94
547.271	95.52
547.514	95.08
547.756	91.85
547.999	92.52
548.242	93.88
548.485	91.16
548.728	91.39
548.971	85.99
549.213	85.87
549.456	85.29
549.699	86.86
549.942	87.26
550.184	85.86
550.427	84.77
550.67	83.53
550.912	79.61
551.155	81.33
551.398	81.68
551.64	79.81
551.883	80.63
552.125	80.05
552.368	80.97
552.61	79.07
552.853	82.62
553.095	80.65
553.338	80.32
553.58	81.92
553.823	80.66
554.065	82.82
554.308	78.02
554.55	76.69
554.792	75.16
555.035	74.69
555.277	74.58
555.519	74.25
555.762	71.7
556.004	73.89
556.246	71.85
556.488	74
556.731	70.86
556.973	72.26
557.215	69.88
557.457	70.65
557.699	74.18
557.941	72.69
558.183	72.72
558.426	74.84
558.668	70.21
558.91	71.46
559.152	72.97
559.394	72.74
559.636	73.76
559.878	74.37
560.12	74.26
560.362	75.49
560.604	75.96
560.845	75.37
561.087	74.59
561.329	77.77
561.571	74.99
561.813	76.73
562.055	76.91
562.297	78.41
562.538	79.02
562.78	81.75
563.022	78.89
563.264	80.9
563.505	81.73
563.747	82.39
563.989	81.05
564.23	81.09
564.472	80.66
564.714	84.68
564.955	86.98
565.197	84.18
565.438	86.94
565.68	91.5
565.921	90.29
566.163	93.32
566.404	92.51
566.646	94.7
566.887	97.07
567.129	98.68
567.37	97.78
567.612	100.09
567.853	97.02
568.094	99.34
568.336	100.38
568.577	100.88
568.818	101.22
569.06	100.13
569.301	98
569.542	98.3
569.783	100.58
570.025	101.57
570.266	102.06
570.507	105.65
570.748	106.24
570.989	107.58
571.23	110.11
571.472	111.4
571.713	110.4
571.954	110.93
572.195	109.08
572.436	110.53
572.677	113.85
572.918	115.01
573.159	111.77
573.4	110.84
573.641	109.57
573.882	110.62
574.123	110
574.364	105.61
574.604	107.66
574.845	105.7
575.086	106.35
575.327	107.78
575.568	106.15
575.809	104.68
576.049	104.51
576.29	101.95
576.531	107.27
576.771	111.43
577.012	114.52
577.253	114.53
577.494	114.45
577.734	113.85
577.975	114.89
578.215	115.7
578.456	113.04
578.697	112.42
578.937	113.38
579.178	115.26
579.418	113.35
579.659	112.56
579.899	108.42
580.14	107.6
580.38	108.22
580.62	108.52
580.861	113.49
581.101	114.47
581.342	115.33
581.582	110.66
581.822	113.43
582.063	111.21
582.303	112.75
582.543	113.36
582.783	115.62
583.024	118.91
583.264	122.56
583.504	122.16
583.744	125.67
583.984	122.61
584.224	121.96
584.465	120.12
584.705	121.29
584.945	123.32
585.185	124.61
585.425	124.94
585.665	123.05
585.905	123.59
586.145	124.33
586.385	122.9
586.625	124.94
586.865	125.46
587.105	125.71
587.345	127.15
587.585	127.93
587.824	125.71
588.064	126.81
588.304	123.42
588.544	123.7
588.784	121.38
589.024	124.55
589.263	124.14
589.503	122.9
589.743	125.72
589.982	124.12
590.222	123.13
590.462	119.52
590.701	117.81
590.941	119.39
591.181	118.03
591.42	117.99
591.66	120.99
591.899	124.88
592.139	122.81
592.378	122.65
592.618	120.98
592.857	121.03
593.097	122.36
593.336	122.18
593.576	121.06
593.815	123.43
594.055	122.27
594.294	122.99
594.533	121.96
594.773	121.56
595.012	121.39
595.251	123.62
595.491	125.71
595.73	127.9
595.969	128.9
596.208	130
596.447	135.67
596.687	136.82
596.926	138.03
597.165	135.74
597.404	139.55
597.643	137.76
597.882	138.84
598.121	139.75
598.36	141.05
598.599	140.69
598.838	140.8
599.077	137.08
599.316	136.07
599.555	136.83
599.794	137.16
600.033	139.53
600.272	140.11
600.511	138.84
600.75	141
600.989	143.07
601.228	141.57
601.466	142.04
601.705	144.48
601.944	147.27
602.183	150.34
602.422	150.53
602.66	148.4
602.899	148.27
603.138	148.52
603.376	149.11
603.615	150.86
603.854	147.69
604.092	148.62
604.331	150.16
604.569	150.62
604.808	149.09
605.047	150.54
605.285	150.69
605.524	151.05
605.762	149.27
606	152.09
606.239	153.27
606.477	153.23
606.716	148.95
606.954	148.04
607.193	145.26
607.431	141.4
607.669	139.32
607.908	138.35
608.146	140.76
608.384	140.14
608.622	140.09
608.861	140.27
609.099	139.05
609.337	137.72
609.575	136.27
609.813	137.12
610.052	136.3
610.29	131.72
610.528	130.73
610.766	129.5
611.004	129.39
611.242	126.88
611.48	125.8
611.718	122.2
611.956	122.58
612.194	120.52
612.432	119.63
612.67	117.23
612.908	117.59
613.146	115.07
613.384	112.51
613.621	111.42
613.859	112.21
614.097	111.79
614.335	112.03
614.573	113.84
614.811	115.47
615.048	115.68
615.286	116.38
615.524	113.67
615.761	110.83
615.999	109.94
616.237	109.16
616.474	110.02
616.712	110.8
616.95	109.32
617.187	107.92
617.425	109.37
617.662	110.31
617.9	107.3
618.137	105.22
618.375	102.75
618.612	101.8
618.85	103.48
619.087	106.37
619.325	105.29
619.562	103.82
619.799	101.97
620.037	102.61
620.274	100.73
620.511	103.2
620.749	100.83
620.986	98.56
621.223	96.5
621.461	96.99
621.698	98.04
621.935	95.86
622.172	93.66
622.409	95.77
622.647	94.42
622.884	92.81
623.121	94.38
623.358	93.27
623.595	93.14
623.832	93.21
624.069	91.34
624.306	92.4
624.543	93.04
624.78	93.44
625.017	93.92
625.254	96.03
625.491	98.02
625.728	99.63
625.965	98.71
626.202	96.56
626.438	94.75
626.675	94.29
626.912	96.06
627.149	98.4
627.386	98.37
627.622	97.36
627.859	95.89
628.096	95.87
628.333	96.21
628.569	96.88
628.806	99.47
629.043	97.5
629.279	99.23
629.516	100.61
629.752	95.39
629.989	97.59
630.225	95.26
630.462	95.43
630.699	95.46
630.935	94.41
631.171	89.69
631.408	89.42
631.644	88.29
631.881	86.18
632.117	83.43
632.354	84.01
632.59	83.58
632.826	82.84
633.063	81.85
633.299	84.28
633.535	81.6
633.771	80.96
634.008	81.81
634.244	82.35
634.48	80.04
634.716	81.21
634.953	80.58
635.189	81.12
635.425	83.65
635.661	85.64
635.897	84.88
636.133	82.29
636.369	82.27
636.605	78.14
636.841	77.31
637.077	79.25
637.313	78.49
637.549	78.75
637.785	77.21
638.021	78.63
638.257	77.86
638.493	81.1
638.729	79.78
638.965	81.84
639.2	83.22
639.436	82.67
639.672	81.52
639.908	78.63
640.144	81.83
640.379	83.58
640.615	79.5
640.851	82.38
641.086	84.74
641.322	83.34
641.558	81.9
641.793	83.53
642.029	80.29
642.264	79.58
642.5	79.42
642.736	74.71
642.971	75.22
643.207	72.89
643.442	70.48
643.678	70.2
643.913	71.98
644.148	71.65
644.384	73.44
644.619	72.65
644.855	75.15
645.09	75.42
645.325	74.88
645.561	74.23
645.796	71.48
646.031	73.67
646.266	70.22
646.502	67.37
646.737	70.46
646.972	69.87
647.207	69.74
647.442	65.71
647.678	62.83
647.913	67.31
648.148	66.81
648.383	64.21
648.618	64.06
648.853	66.3
649.088	66.26
649.323	69.42
649.558	70.19
649.793	70.53
650.028	71.98
650.263	68.4
650.498	70.98
650.733	71.12
650.968	69.26
651.202	71.05
651.437	67.87
651.672	64.01
651.907	62.41
652.142	62.85
652.376	63.36
652.611	64.9
652.846	66.96
653.081	67.52
653.315	66.26
653.55	66.33
653.785	66.16
654.019	66.09
654.254	64.82
654.488	66.86
654.723	64.44
654.958	61.97
655.192	58.62
655.427	54.7
655.661	55.26
655.896	58.18
656.13	57.82
656.364	55.08
656.599	52.09
656.833	53.16
657.068	54.5
657.302	53.53
657.536	51.74
657.771	52.43
658.005	54.1
658.239	56.25
658.474	52.61
658.708	53.95
658.942	54.49
659.176	53.64
659.41	49.57
659.645	48.34
659.879	45.87
660.113	42.27
660.347	40.73
660.581	38.53
660.815	37.44
661.049	35.61
661.283	32.36
661.517	29.94
661.751	27
661.985	25.69
662.219	27.78
662.453	25.54
662.687	28.05
662.921	24.93
663.155	22.22
663.389	16.39
663.622	15.68
663.856	16.94
664.09	13.91
664.324	12.05
664.558	12.1
664.791	10.8
665.025	9.86
665.259	9.45
665.492	6.25
665.726	9.59
665.96	9.43
666.193	7.66
666.427	8.36
666.661	8.23
666.894	7.35
667.128	7.09
667.361	8.5
667.595	7.96
667.828	7.16
668.062	6.72
668.295	8.39
668.529	9.31
668.762	11.35
668.995	9.84
669.229	14.11
669.462	14.09
669.695	15.12
669.929	13.46
670.162	13.69
670.395	10.93
670.629	12.45
670.862	13.31
671.095	9.55
671.328	9.99
671.561	5.91
671.795	8.13
672.028	9.42
672.261	9.45
672.494	10.41
672.727	8.99
672.96	8.48
673.193	8.91
673.426	11.79
673.659	11.61
673.892	11.49
674.125	11.11
674.358	10.59
674.591	9.03
674.824	8.79
675.057	9.24
675.29	7.8
675.523	7.65
675.755	4.83
675.988	4.73
676.221	8.35
676.454	4.74
676.687	6.57
676.919	5.93
677.152	6.06
677.385	6.89
677.617	8.87
677.85	9.05
678.083	7.38
678.315	11.37
678.548	9.78
678.78	10.63
679.013	8.71
679.246	9.76
679.478	11.11
679.711	9.07
679.943	12.19
680.175	9.73
680.408	11.55
680.64	9.38
680.873	10.92
681.105	12.41
681.338	15.16
681.57	13.83
681.802	15.28
682.034	14.6
682.267	17.77
682.499	19.86
682.731	18.31
682.964	17.82
683.196	16.53
683.428	15.7
683.66	16.23
683.892	17.98
684.124	20.86
684.356	23.85
684.589	22.76
684.821	21.15
685.053	21.4
685.285	22.02
685.517	21.75
685.749	22.7
685.981	23.68
686.213	24.6
686.445	24.93
686.676	21.81
686.908	22.21
687.14	20.73
687.372	20.5
687.604	18.16
687.836	19.33
688.068	18.19
688.299	16.45
688.531	14.07
688.763	17.6
688.995	16.84
689.226	20.96
689.458	18.88
689.69	16.88
689.921	17.52
690.153	18.91
690.384	20.18
690.616	18.12
690.848	17.96
691.079	14.29
691.311	11.05
691.542	7.48
691.774	6.43
692.005	9.59
692.237	11.87
692.468	10.94
692.699	9.76
692.931	9.67
693.162	7.84
693.393	6.19
693.625	4.38
693.856	5.43
694.087	5.61
694.319	6.42
694.55	6.19
694.781	6.75
695.012	6.7
695.243	5.04
695.475	4.61
695.706	4.25
695.937	2.67
696.168	1.11
696.399	-1.91
696.63	-2.76
696.861	-2.38
697.092	1.01
697.323	3.62
697.554	3.79
697.785	4.04
698.016	4.34
698.247	2.54
698.478	4.54
698.709	6.44
698.94	8.25
699.171	7.64
699.401	4.12
699.632	5.99
699.863	3.44
700.094	2.77
700.325	5.59
700.555	6.78
700.786	8.91
701.017	8.18
701.247	8.25
701.478	8.17
701.709	9.46
701.939	7.3
702.17	9.26
702.401	11.45
702.631	12.63
702.862	10.64
703.092	8.77
703.323	11.4
703.553	13.06
703.784	13.96
704.014	14.79
704.244	10.05
704.475	8.52
704.705	9.24
704.936	9.86
705.166	10.99
705.396	12.84
705.627	12.71
705.857	12.38
706.087	13.16
706.317	10.37
706.548	8.91
706.778	7.59
707.008	10.07
707.238	10.32
707.468	7.95
707.698	6.44
707.928	4.82
708.158	4.59
708.389	3.05
708.619	1.75
708.849	0.29
709.079	0.43
709.309	-3.89
709.539	-5.55
709.768	-5.3
709.998	-1.68
710.228	-1.4
710.458	-3.24
710.688	-5.74
710.918	-6.21
711.148	-7.26
711.378	-6.32
711.607	-6.66
711.837	-5.34
712.067	-6.02
712.297	-6.55
712.526	-7.09
712.756	-4.67
712.986	-8.94
713.215	-10.53
713.445	-9.93
713.674	-8.73
713.904	-8.17
714.134	-6.93
714.363	-6.33
714.593	-6.72
714.822	-7.41
715.052	-7.18
715.281	-6.64
715.511	-6.97
715.74	-5.87
715.969	-6.44
716.199	-5.87
716.428	-3.92
716.657	-4.66
716.887	-1.26
717.116	-3.43
717.345	-3.01
717.575	-3.11
717.804	-2.43
718.033	-4.38
718.262	-4.55
718.492	-5.3
718.721	-5.04
718.95	-7.79
719.179	-8.22
719.408	-8.98
719.637	-11.58
719.866	-15.68
720.095	-11.14
720.324	-12.68
720.553	-16.07
720.782	-17.35
721.011	-17.92
721.24	-20.17
721.469	-21.7
721.698	-21.78
721.927	-20.15
722.156	-20.59
722.385	-21.61
722.613	-19.11
722.842	-19.44
723.071	-16.1
723.3	-15.12
723.529	-16.09
723.757	-15.46
723.986	-20.31
724.215	-21.27
724.443	-19.68
724.672	-16.48
724.901	-15.08
725.129	-12.68
725.358	-9.99
725.586	-11.32
725.815	-11.19
726.043	-11.89
726.272	-14.12
726.5	-13.23
726.729	-11.44
726.957	-12.58
727.186	-15.07
727.414	-13.52
727.642	-11.38
727.871	-9.23
728.099	-9.13
728.327	-9.05
728.556	-5.93
728.784	-4.23
729.012	-7.31
729.241	-5.34
729.469	-5.39
729.697	-7.67
729.925	-6.23
730.153	-8.18
730.381	-8.55
730.61	-8.85
730.838	-11.56
731.066	-10.72
731.294	-11.25
731.522	-14.38
731.75	-17.99
731.978	-19.55
732.206	-21.16
732.434	-23.12
732.662	-20.61
732.89	-23.51
733.118	-23.92
733.346	-22.22
733.573	-21.95
733.801	-22.64
734.029	-16.7
734.257	-16.49
734.485	-13.27
734.712	-12.28
734.94	-15.15
735.168	-12.81
735.396	-11.9
735.623	-14.74
735.851	-14.06
736.078	-12.19
736.306	-11.44
736.534	-11.01
736.761	-11.45
736.989	-14.29
737.216	-15.6
737.444	-18.08
737.671	-16.61
737.899	-12.62
738.126	-12.99
738.354	-12.71
738.581	-11.4
738.809	-11.12
739.036	-13.66
739.263	-12.87
739.491	-14.48
739.718	-15.38
739.945	-10.62
740.173	-8.56
740.4	-8.66
740.627	-9.66
740.854	-9.44
741.081	-12.35
741.309	-13.42
741.536	-18.24
741.763	-18.98
741.99	-16.63
742.217	-16.7
742.444	-16.67
742.671	-14.31
742.898	-15.21
743.125	-17.31
743.352	-20.79
743.579	-22.01
743.806	-20.94
744.033	-17.81
744.26	-16.15
744.487	-16.17
744.714	-15.59
744.941	-15.76
745.167	-13.59
745.394	-13.66
745.621	-14.02
745.848	-12.67
746.075	-9.73
746.301	-7.13
746.528	-2.57
746.755	-4.41
746.981	-5.09
747.208	-3.44
747.435	-1.26
747.661	-1.21
747.888	0.51
748.114	-1.49
748.341	0.15
748.567	2.55
748.794	0.26
749.02	0.5
749.247	-1.94
749.473	-3.78
749.7	-4.61
749.926	-3.95
750.152	0.89
750.379	2.11
750.605	1.2
750.831	1.08
751.058	-1.88
751.284	-4.31
751.51	-0.08
751.737	1.18
751.963	-0.95
752.189	-0.89
752.415	-2.4
752.641	-2.11
752.867	-3.76
753.094	-5.2
753.32	-6.79
753.546	-8.94
753.772	-6.5
753.998	-7.88
754.224	-9.72
754.45	-9.87
754.676	-10.66
754.902	-12.7
755.128	-12.9
755.354	-13.35
755.579	-11.89
755.805	-8.56
756.031	-11.31
756.257	-12.64
756.483	-12.69
756.709	-15.45
756.934	-15.83
757.16	-19.66
757.386	-19.77
757.612	-20.08
757.837	-21.97
758.063	-18.17
758.289	-14.72
758.514	-18.77
758.74	-22.09
758.965	-22.93
759.191	-21.98
759.416	-19.84
759.642	-18.95
759.868	-18.1
760.093	-15.31
760.318	-16.52
760.544	-17.38
760.769	-18.13
760.995	-19.41
761.22	-18.85
761.445	-17.12
761.671	-15.91
761.896	-12.08
762.121	-11.36
762.347	-11.04
762.572	-13.91
762.797	-15.5
763.022	-15.41
763.248	-9.98
763.473	-9.49
763.698	-8.61
763.923	-8.44
764.148	-7.1
764.373	-6.91
764.598	-5.25
764.823	-1.98
765.048	-5.39
765.273	-8.49
765.498	-7.85
765.723	-8.03
765.948	-7.53
766.173	-8.53
766.398	-6.4
766.623	-9
766.848	-9.91
767.073	-12.3
767.298	-13.1
767.522	-12.35
767.747	-11.52
767.972	-10.77
768.197	-11.18
768.421	-14.24
768.646	-17.61
768.871	-21.43
769.095	-21.51
769.32	-21.22
769.545	-22.81
769.769	-20.87
769.994	-18.53
770.218	-22.14
770.443	-20.26
770.667	-18.45
770.892	-18.88
771.116	-20.11
771.341	-20.34
771.565	-20.25
771.79	-20.57
772.014	-21.08
772.238	-21.63
772.463	-20.02
772.687	-18.47
772.911	-18.91
773.136	-21.58
773.36	-22.39
773.584	-20.8
773.808	-22.63
774.033	-22.49
774.257	-20.78
774.481	-21.97
774.705	-23.87
774.929	-23.98
775.153	-23.2
775.377	-20.73
775.602	-20.44
775.826	-19.03
776.05	-16.71
776.274	-16.53
776.498	-15.49
776.722	-15.77
776.945	-15.4
777.169	-15.29
777.393	-17.42
777.617	-20.11
777.841	-19.55
778.065	-18.21
778.289	-18.67
778.512	-19.08
778.736	-19.71
778.96	-19.45
779.184	-17.53
779.407	-17.78
779.631	-17.58
779.855	-18.32
780.078	-16.26
780.302	-18.39
780.526	-19.92
780.749	-18.29
780.973	-17.75
781.196	-17.42
781.42	-18.45
781.643	-17.23
781.867	-15.88
782.09	-18.47
782.314	-19.41
782.537	-18.52
782.76	-19.46
782.984	-18.03
783.207	-18.67
783.431	-17.03
783.654	-18.6
783.877	-20.17
784.1	-20.6
784.324	-21.04
784.547	-20.53
784.77	-24.88
784.993	-26.08
785.216	-26.7
785.44	-26.45
785.663	-27.88
785.886	-25.65
786.109	-26.39
786.332	-25.59
786.555	-26.81
786.778	-24.93
787.001	-25.52
787.224	-23.29
787.447	-20.85
787.67	-20.4
787.893	-18.3
788.116	-18.38
788.339	-17.43
788.561	-19.12
788.784	-23.34
789.007	-23.92
789.23	-24.93
789.453	-24.84
789.675	-26.2
789.898	-28.68
790.121	-31.8
790.344	-32.39
790.566	-31.8
790.789	-33.05
791.012	-32.71
791.234	-29.75
791.457	-25.44
791.679	-23.23
791.902	-23.53
792.124	-23
792.347	-24.72
792.569	-24.83
792.792	-27.5
793.014	-24.82
793.237	-24.07
793.459	-23.17
793.681	-22.83
793.904	-24.36
794.126	-26.72
794.348	-28.27
794.571	-25.88
794.793	-28.16
795.015	-28.09
795.237	-28.02
795.46	-24.93
795.682	-22.24
795.904	-19.87
796.126	-21.51
796.348	-22.17
796.57	-17.78
796.792	-17.9
797.014	-12.6
797.237	-12.31
797.459	-10.35
797.681	-8.19
797.903	-9.94
798.124	-10.19
798.346	-0.21
798.568	0.77
798.79	4.79
799.012	6.47
799.234	9.45
799.456	11.67
799.678	14.65
799.899	12.49
800.121	10.45
800.343	9.13
800.565	8.48
800.786	10.36
801.008	12.62
801.23	12.92
801.451	12.38
801.673	10.97
801.895	10.86
802.116	12.54
802.338	12.53
802.559	11.79
802.781	9.97
803.002	13.01
803.224	15.31
803.445	12.01
803.667	13.1
803.888	9.7
804.109	11.65
804.331	10.14
804.552	10.79
804.773	12.41
804.995	10.43
805.216	-3.03
805.437	-3.97
805.658	-7.1
805.88	-9.09
806.101	-10.67
806.322	-11.62
806.543	-13.37
806.764	-15.5
806.985	-14.73
807.207	-13.39
807.428	-12.08
807.649	-15.58
807.87	-16.84
808.091	-16.71
808.312	-16.56
808.533	-11.45
808.754	-9.66
808.975	-12.1
809.195	-10.43
809.416	-9.93
809.637	-9.66
809.858	-12.06
810.079	-13.63
810.3	-10.93
810.52	-11.58
810.741	-11.58
810.962	-14.91
811.183	-14.85
811.403	-14.34
811.624	-14.85
811.845	-13.36
812.065	-11.56
812.286	-11.56
812.506	-10.15
812.727	-10.94
812.948	-9.85
813.168	-7.7
813.389	-8.68
813.609	-6.32
813.83	-5.84
814.05	-6.02
814.27	-5.81
814.491	-2.17
814.711	-3.1
814.931	-5.44
815.152	-5.54
815.372	-8.14
815.592	-9.87
815.813	-10.41
816.033	-13.13
816.253	-12.31
816.473	-13.68
816.694	-12.92
816.914	-10.41
817.134	-11.68
817.354	-13.05
817.574	-12.3
817.794	-11.37
818.014	-11.61
818.234	-12.83
818.454	-13.89
818.674	-15.1
818.894	-18.29
819.114	-15.06
819.334	-15.38
819.554	-12.31
819.774	-9.81
819.994	-13.12
820.214	-13.91
820.433	-14.05
820.653	-15.79
820.873	-15.15
821.093	-14.04
821.312	-15.76
821.532	-13.25
821.752	-9.82
821.972	-11.92
822.191	-9.8
822.411	-10.6
822.63	-8.51
822.85	-6.6
823.07	-9.01
823.289	-7.61
823.509	-8.4
823.728	-7.66
823.948	-9.56
824.167	-10.4
824.387	-11.98
824.606	-9.98
824.825	-11.74
825.045	-11.4
825.264	-11.35
825.483	-9.95
825.703	-7.86
825.922	-10.15
826.141	-10.64
826.361	-12.13
826.58	-16.6
826.799	-17.23
827.018	-16.26
827.237	-15.94
827.456	-14.3
827.676	-13.01
827.895	-13.66
828.114	-11.98
828.333	-13.09
828.552	-14.34
828.771	-12.53
828.99	-16.54
829.209	-16.63
829.428	-15.76
829.647	-17.09
829.866	-15.4
830.084	-15.49
830.303	-16.67
830.522	-17.32
830.741	-17.42
830.96	-16.8
831.179	-15.49
831.397	-17.56
831.616	-17.85
831.835	-18.75
832.053	-17.38
832.272	-17.48
832.491	-16.1
832.709	-18.07
832.928	-19.18
833.147	-19.04
833.365	-17.29
833.584	-14.29
833.802	-11.32
834.021	-11.11
834.239	-10.33
834.458	-11.8
834.676	-15.35
834.894	-16.06
835.113	-16.73
835.331	-17.67
835.55	-17.86
835.768	-16.44
835.986	-15.34
836.204	-16.9
836.423	-15.71
836.641	-17.35
836.859	-18.35
837.077	-16.14
837.296	-17.15
837.514	-17.93
837.732	-19.03
837.95	-20.11
838.168	-17.73
838.386	-17.83
838.604	-14.62
838.822	-13.73
839.04	-15.45
839.258	-15.32
839.476	-12.05
839.694	-11.3
839.912	-12.58
840.13	-13.04
840.348	-10.46
840.566	-14.07
840.783	-12.26
841.001	-13.4
841.219	-12.85
841.437	-10.52
841.655	-10.18
841.872	-9.95
842.09	-10.16
842.308	-10.94
842.525	-10.26
842.743	-9.82
842.961	-10.32
843.178	-12.26
843.396	-7.31
843.613	-6.14
843.831	-6.29
844.048	-6.85
844.266	-5.17
844.483	-4.94
844.701	-5.88
844.918	-6.67
845.136	-6.6
845.353	-8.51
845.57	-8.88
845.788	-5.25
846.005	-8.37
846.222	-10.25
846.439	-8.9
846.657	-7.94
846.874	-7.33
847.091	-10.53
847.308	-9.24
847.526	-11.45
847.743	-12.82
847.96	-14.56
848.177	-14.95
848.394	-15.33
848.611	-16.11
848.828	-16.97
849.045	-16.92
849.262	-18.02
849.479	-19.57
849.696	-20.8
849.913	-21.98
850.13	-27.17
850.347	-24.9
850.564	-24.57
850.78	-25.95
850.997	-28.34
851.214	-27.28
851.431	-26.56
851.647	-28.98
851.864	-27.76
852.081	-26.33
852.298	-29.08
852.514	-30.64
852.731	-28.08
852.948	-26.79
853.164	-25.45
853.381	-23.95
853.597	-25.23
853.814	-25.81
854.03	-28
854.247	-25.86
854.463	-23.75
854.68	-24.35
854.896	-23.19
855.113	-22.01
855.329	-20.56
855.545	-17.08
855.762	-17.72
855.978	-21.01
856.194	-21.65
856.411	-17.57
856.627	-16.01
856.843	-15.8
857.059	-13.3
857.275	-14.62
857.492	-13.56
857.708	-7.78
857.924	-6.45
858.14	-2.81
858.356	-3.1
858.572	-3.97
858.788	-4.98
859.004	-2.58
859.22	-5.22
859.436	-5.28
859.652	-6.2
859.868	-9.35
860.084	-12.16
860.3	-11.9
860.516	-11.76
860.731	-11.27
860.947	-14.34
861.163	-14.45
861.379	-12.44
861.595	-12.18
861.81	-12.09
862.026	-11.59
862.242	-11.72
862.457	-12.26
862.673	-8.62
862.889	-8.17
863.104	-9.73
863.32	-8.38
863.535	-6.77
863.751	-11.67
863.966	-9.24
864.182	-7.86
864.397	-9.68
864.613	-11.87
864.828	-13.85
865.044	-11.47
865.259	-8.47
865.474	-10.01
865.69	-9.21
865.905	-7.39
866.12	-9.07
866.336	-9.35
866.551	-6.38
866.766	-6.5
866.981	-8.86
867.196	-9.51
867.412	-8.9
867.627	-8.8
867.842	-10.04
868.057	-11.64
868.272	-11.96
868.487	-13.48
868.702	-15.32
868.917	-16.52
869.132	-14.5
869.347	-14.73
869.562	-15.51
869.777	-15.27
869.992	-17.56
870.207	-17.86
870.422	-18.85
870.636	-19.87
870.851	-21.28
871.066	-23.5
871.281	-22.91
871.495	-24.7
871.71	-23.35
871.925	-26.67
872.14	-27.69
872.354	-30.76
872.569	-31.98
872.783	-29.89
872.998	-29.67
873.213	-31.38
873.427	-27.95
873.642	-25.94
873.856	-25.84
874.071	-26.13
874.285	-26.91
874.5	-27.49
874.714	-28.71
874.928	-29.62
875.143	-29.98
875.357	-30.48
875.571	-32.04
875.786	-32.34
876	-29.36
876.214	-27.63
876.429	-29.97
876.643	-28.42
876.857	-27.28
877.071	-26.78
877.285	-28.35
877.499	-30.52
877.714	-28.35
877.928	-27.77
878.142	-28.72
878.356	-31.13
878.57	-29.96
878.784	-27.48
878.998	-26.83
879.212	-24.59
879.426	-26.5
879.639	-23.56
879.853	-24.89
880.067	-25.3
880.281	-24.98
880.495	-24.02
880.709	-20.87
880.922	-19.87
881.136	-17.99
881.35	-16.26
881.564	-17.18
881.777	-18.94
881.991	-18.67
882.205	-16.48
882.418	-16.78
882.632	-20.31
882.845	-20.56
883.059	-19.55
883.273	-20.49
883.486	-21.45
883.7	-18.69
883.913	-19.41
884.126	-16.37
884.34	-19.76
884.553	-20.54
884.767	-16.72
884.98	-17.95
885.193	-19.36
885.407	-21.32
885.62	-19.59
885.833	-19.79
886.046	-18.67
886.26	-21.55
886.473	-21.11
886.686	-22.86
886.899	-22.42
887.112	-23.14
887.326	-26.46
887.539	-25.7
887.752	-24.85
887.965	-26.09
888.178	-25.53
888.391	-24.75
888.604	-24.38
888.817	-25.6
889.03	-24.24
889.243	-24.8
889.455	-27.14
889.668	-26.9
889.881	-24.36
890.094	-24.36
890.307	-27.1
890.52	-24.84
890.732	-24.63
890.945	-24.95
891.158	-25.13
891.37	-26.64
891.583	-24.22
891.796	-21.66
892.008	-21.29
892.221	-22.94
892.434	-26.68
892.646	-28.02
892.859	-29.02
893.071	-28.09
893.284	-25.06
893.496	-24.64
893.709	-24.18
893.921	-22.48
894.133	-23.3
894.346	-24.31
894.558	-24.18
894.771	-22.97
894.983	-20.78
895.195	-20.46
895.407	-19.41
895.62	-21.77
895.832	-20.76
896.044	-18.28
896.256	-19.89
896.468	-21.34
896.681	-21.03
896.893	-20.4
897.105	-21.19
897.317	-22.03
897.529	-19.83
897.741	-18.93
897.953	-17.17
898.165	-20.06
898.377	-22.78
898.589	-22.01
898.801	-21.31
899.013	-17.99
899.224	-15.07
899.436	-11.38
899.648	-13.23
899.86	-15.84
900.072	-14.28
900.283	-14.9
900.495	-13.89
900.707	-13.3
900.919	-15.72
901.13	-14.45
901.342	-16.55
901.554	-18.43
901.765	-16.3
901.977	-18.6
902.188	-18.48
902.4	-19.48
902.611	-21.05
902.823	-21.68
903.034	-23.47
903.246	-25.43
903.457	-25.99
903.669	-26.79
903.88	-27.56
904.091	-27.45
904.303	-27.51
904.514	-28.28
904.725	-25.91
904.936	-24.04
905.148	-23.94
905.359	-22.4
905.57	-23.04
905.781	-24.85
905.992	-27.28
906.204	-25.42
906.415	-24.39
906.626	-26.19
906.837	-23.99
907.048	-24.56
907.259	-25.28
907.47	-26.72
907.681	-27.39
907.892	-23.93
908.103	-23.04
908.314	-27.25
908.525	-24.35
908.735	-24.06
908.946	-25.07
909.157	-24.75
909.368	-21.34
909.579	-19.88
909.789	-20.93
910	-20.7
910.211	-18.46
910.421	-19.42
910.632	-18.9
910.843	-20.77
911.053	-18.56
911.264	-15.81
911.475	-16.52
911.685	-16.12
911.896	-16.13
912.106	-17.16
912.317	-19.34
912.527	-16.45
912.737	-16.35
912.948	-15.95
913.158	-15.92
913.369	-18.21
913.579	-16.87
913.789	-16.52
914	-11.21
914.21	-10.98
914.42	-12.35
914.63	-14.19
914.841	-12.41
915.051	-11.3
915.261	-10.83
915.471	-7.69
915.681	-7.37
915.891	-8.06
916.101	-8.69
916.311	-7.62
916.521	-7.67
916.731	-7.29
916.941	-3.88
917.151	-4.55
917.361	-1.08
917.571	-4.95
917.781	-8.2
917.991	-10.6
918.201	-11.55
918.411	-14.85
918.621	-13.56
918.83	-11.72
919.04	-15.02
919.25	-13.31
919.46	-12.49
919.669	-14.92
919.879	-14.88
920.089	-16.44
920.298	-16.66
920.508	-17.56
920.717	-16.97
920.927	-17.99
921.136	-16.91
921.346	-17.98
921.555	-22.43
921.765	-23.12
921.974	-25.15
922.184	-27.21
922.393	-27.62
922.603	-29.74
922.812	-26.96
923.021	-28.62
923.23	-29.71
923.44	-33.32
923.649	-33.68
923.858	-35.25
924.067	-34.87
924.277	-36.6
924.486	-33.19
924.695	-33.52
924.904	-31.11
925.113	-32.01
925.322	-32.21
925.531	-31.19
925.74	-35.2
925.949	-37.39
926.158	-34.4
926.367	-35.31
926.576	-34.91
926.785	-34.98
926.994	-36.64
927.203	-36.27
927.412	-37.43
927.621	-38.36
927.83	-36.12
928.038	-35.16
928.247	-35.67
928.456	-35.37
928.665	-33.86
928.873	-31.7
929.082	-29.03
929.291	-29.13
929.499	-25.96
929.708	-28.11
929.916	-27.06
930.125	-27.98
930.333	-29.1
930.542	-25.68
930.75	-21.83
930.959	-22.78
931.167	-23.14
931.376	-24.67
931.584	-23.87
931.793	-21.95
932.001	-22.69
932.209	-22.31
932.418	-23.99
932.626	-26.81
932.834	-27.94
933.042	-30.1
933.251	-31.03
933.459	-30.65
933.667	-31.56
933.875	-30.55
934.083	-28.25
934.291	-28.29
934.499	-27.77
934.707	-26.81
934.915	-26.94
935.123	-24.71
935.331	-26.94
935.539	-29.28
935.747	-32.05
935.955	-32.82
936.163	-32.76
936.371	-32.48
936.579	-30.69
936.787	-29.73
936.995	-32.05
937.202	-34.66
937.41	-34.19
937.618	-34.3
937.826	-32.68
938.033	-36.21
938.241	-38.52
938.449	-36.51
938.656	-34.8
938.864	-34.52
939.071	-34.18
939.279	-29.88
939.486	-27.31
939.694	-27.28
939.901	-29.02
940.109	-29.13
940.316	-29.61
940.524	-30.84
940.731	-31.25
940.939	-30.7
941.146	-31.99
941.353	-33.15
941.561	-33.6
941.768	-35.06
941.975	-32.47
942.182	-32.8
942.39	-32.96
942.597	-28.93
942.804	-29.67
943.011	-29.73
943.218	-29.11
943.425	-30.03
943.632	-29.62
943.839	-30.33
944.046	-29.92
944.253	-30.79
944.46	-28.53
944.667	-25.87
944.874	-26.38
945.081	-24.81
945.288	-22.82
945.495	-21.1
945.702	-21.99
945.909	-24.57
946.115	-23.46
946.322	-24.65
946.529	-24.89
946.736	-24.24
946.942	-22.44
947.149	-23.27
947.356	-24.01
947.562	-25.24
947.769	-23.73
947.976	-24.99
948.182	-22.15
948.389	-24.55
948.595	-23.07
948.802	-22.47
949.008	-24.54
949.215	-23.33
949.421	-23.15
949.628	-24.52
949.834	-24.07
950.04	-24.29
950.247	-21.55
950.453	-20.37
950.659	-20.06
950.865	-19.6
951.072	-23.19
951.278	-20.8
951.484	-22.55
951.69	-25.33
951.896	-24.92
952.103	-25.81
952.309	-24.2
952.515	-24.65
952.721	-22.05
952.927	-21.61
953.133	-22.06
953.339	-22.78
953.545	-23.2
953.751	-22.34
953.957	-18.53
954.163	-20.25
954.369	-19.28
954.574	-21.64
954.78	-21.38
954.986	-19.99
955.192	-18.46
955.398	-19.25
955.603	-21.17
955.809	-20.27
956.015	-18.6
956.22	-18.11
956.426	-17.96
956.632	-20.43
956.837	-21.38
957.043	-22.22
957.248	-20.43
957.454	-19.65
957.66	-23.84
957.865	-24.36
958.07	-21.71
958.276	-23.72
958.481	-24.35
958.687	-26.03
958.892	-24.9
959.097	-24.63
959.303	-24.46
959.508	-24.04
959.713	-25.17
959.919	-25.73
960.124	-26.43
960.329	-27.02
960.534	-23.46
960.739	-23.62
960.945	-20.39
961.15	-19.89
961.355	-23.04
961.56	-27.06
961.765	-27.99
961.97	-26.98
962.175	-26.73
962.38	-30.76
962.585	-30.7
962.79	-32.29
962.995	-32.37
963.2	-33.19
963.404	-31.95
963.609	-35.56
963.814	-36.89
964.019	-37.56
964.224	-39.8
964.428	-38.56
964.633	-38.21
964.838	-37.69
965.042	-37.83
965.247	-40.86
965.452	-40.68
965.656	-39.37
965.861	-39.13
966.066	-38.96
966.27	-35.48
966.475	-31.72
966.679	-34.86
966.884	-35.6
967.088	-37.75
967.292	-39.72
967.497	-39.19
967.701	-38.69
967.906	-37.06
968.11	-33.9
968.314	-30.63
968.518	-33.06
968.723	-29.13
968.927	-27.86
969.131	-26.71
969.335	-24.33
969.539	-24.03
969.744	-23.07
969.948	-20.03
970.152	-19.01
970.356	-17.82
970.56	-16.02
970.764	-17.83
970.968	-15.31
971.172	-13.54
971.376	-11.73
971.58	-9.17
971.784	-9.41
971.988	-11.98
972.192	-10.67
972.395	-10.73
972.599	-13.39
972.803	-14.65
973.007	-12.85
973.21	-12.43
973.414	-11.27
973.618	-12.05
973.822	-11.61
974.025	-10.06
974.229	-10.29
974.432	-13.76
974.636	-16.81
974.84	-14.48
975.043	-15.19
975.247	-17.35
975.45	-17.78
975.654	-17.14
975.857	-15.46
976.06	-17.33
976.264	-18.25
976.467	-15.86
976.671	-16.56
976.874	-16.01
977.077	-17.66
977.28	-18.42
977.484	-21.08
977.687	-21.48
977.89	-19.38
978.093	-19.76
978.297	-17.57
978.5	-18.72
978.703	-18.95
978.906	-18.98
979.109	-19.11
979.312	-17.65
979.515	-18.5
979.718	-20.61
979.921	-20.68
980.124	-22.94
980.327	-24.88
980.53	-25.55
980.733	-22.78
980.936	-20.24
981.138	-22.24
981.341	-21.25
981.544	-22.25
981.747	-22.56
981.949	-24.69
982.152	-23.17
982.355	-23.68
982.558	-21.97
982.76	-26.83
982.963	-25.52
983.165	-25.66
983.368	-24.74
983.571	-25.45
983.773	-22.25
983.976	-22.14
984.178	-23.59
984.381	-23.3
984.583	-26.33
984.785	-25.08
984.988	-22.58
985.19	-21.2
985.392	-22.51
985.595	-25.43
985.797	-25.39
985.999	-22.11
986.202	-19.1
986.404	-18.37
986.606	-15.31
986.808	-14.92
987.01	-14.73
987.212	-15.61
987.415	-16.53
987.617	-17.31
987.819	-16.21
988.021	-15.2
988.223	-17.14
988.425	-19.07
988.627	-18.7
988.829	-21.64
989.031	-17.56
989.232	-20.14
989.434	-17.99
989.636	-18.02
989.838	-18.07
990.04	-17.38
990.242	-19.55
990.443	-21.16
990.645	-19.39
990.847	-16.67
991.048	-18.27
991.25	-19.38
991.452	-19.68
991.653	-20.78
991.855	-21.56
992.057	-22.69
992.258	-20.83
992.46	-23.29
992.661	-22.86
992.863	-22.89
993.064	-22.07
993.265	-23.85
993.467	-25.18
993.668	-23.75
993.87	-23.5
994.071	-23.43
994.272	-23.75
994.473	-21.83
994.675	-20.49
994.876	-20.8
995.077	-21.31
995.278	-21.47
995.48	-19.94
995.681	-21.82
995.882	-19.32
996.083	-19.98
996.284	-24.29
996.485	-23.06
996.686	-22.99
996.887	-24.45
997.088	-27.98
997.289	-28.19
997.49	-28.37
997.691	-28.16
997.892	-27.62
998.092	-22.6
998.293	-22.07
998.494	-24.92
998.695	-25.5
998.896	-22.46
999.096	-24.48
999.297	-24.21
999.498	-24.82
999.698	-26.26
999.899	-27.54
1000.1	-28.63
1000.3	-28.62
1000.501	-28.23
1000.701	-27.02
1000.902	-28.42
1001.102	-26.83
1001.303	-24.64
1001.503	-25.92
1001.704	-24.53
1001.904	-24.83
1002.105	-26.88
1002.305	-26.05
1002.505	-26.27
1002.706	-25.5
1002.906	-25.23
1003.106	-25.68
1003.306	-23.73
1003.507	-22.3
1003.707	-23.51
1003.907	-22.46
1004.107	-21.51
1004.307	-23.58
1004.507	-21.89
1004.707	-21.19
1004.907	-22.14
1005.107	-24.33
1005.308	-23.49
1005.507	-24.76
1005.707	-21.09
1005.907	-21.73
1006.107	-19.48
1006.307	-18.32
1006.507	-18.95
1006.707	-18.47
1006.907	-19.4
1007.106	-20.36
1007.306	-21.01
1007.506	-21.25
1007.706	-20.73
1007.905	-23.9
1008.105	-23.55
1008.305	-23.68
1008.504	-23.44
1008.704	-19.66
1008.903	-19.05
1009.103	-17.9
1009.303	-18.86
1009.502	-18.62
1009.702	-19.74
1009.901	-18.6
1010.1	-21.66
1010.3	-19.88
1010.499	-19.92
1010.699	-22.03
1010.898	-23.08
1011.097	-21.08
1011.296	-21
1011.496	-21.87
1011.695	-22.67
1011.894	-25.26
1012.093	-22.6
1012.293	-23.21
1012.492	-23.62
1012.691	-23.41
1012.89	-23.5
1013.089	-25.36
1013.288	-23.27
1013.487	-22.65
1013.686	-23.34
1013.885	-26
1014.084	-24.54
1014.283	-25.76
1014.482	-26.05
1014.681	-26.02
1014.88	-29.34
1015.078	-29.62
1015.277	-31.51
1015.476	-32.74
1015.675	-32.96
1015.873	-33.79
1016.072	-36.26
1016.271	-32.41
1016.47	-35.69
1016.668	-35.07
1016.867	-35.67
1017.065	-38.27
1017.264	-39.86
1017.463	-39.48
1017.661	-38.76
1017.86	-38.05
1018.058	-37.71
1018.256	-39.13
1018.455	-39.74
1018.653	-40.14
1018.852	-39.43
1019.05	-40.92
1019.248	-41.63
1019.447	-43.73
1019.645	-44.88
1019.843	-45.4
1020.041	-42.91
1020.24	-43.78
1020.438	-41.33
1020.636	-41.14
1020.834	-44.3
1021.032	-42.14
1021.23	-42.81
1021.428	-41
1021.626	-36.71
1021.824	-35.4
1022.022	-35.06
1022.22	-32.13
1022.418	-32.16
1022.616	-32.39
1022.814	-32.9
1023.012	-32.57
1023.21	-28.83
1023.408	-28.35
1023.606	-29.53
1023.803	-25.39
1024.001	-24.66
1024.199	-27.73
1024.397	-25.73
1024.594	-25.56
1024.792	-27.65
1024.99	-27.68
1025.187	-27.99
1025.385	-23.24
1025.582	-22.58
1025.78	-22.87
1025.977	-22.44
1026.175	-22.93
1026.372	-22.32
1026.57	-23.68
1026.767	-23.53
1026.965	-22.2
1027.162	-21.43
1027.359	-21.45
1027.557	-20.62
1027.754	-24.12
1027.951	-25.28
1028.148	-24.73
1028.346	-27.13
1028.543	-30.47
1028.74	-32.18
1028.937	-34.92
1029.134	-34.45
1029.331	-35.99
1029.528	-35.63
1029.725	-36.27
1029.923	-39.72
1030.12	-37.4
1030.317	-35.61
1030.513	-34.22
1030.71	-34.34
1030.907	-31.71
1031.104	-31.76
1031.301	-33.16
1031.498	-35.6
1031.695	-35.64
1031.892	-35.17
1032.088	-35.05
1032.285	-36.17
1032.482	-36.15
1032.678	-38.44
1032.875	-38.33
1033.072	-37.29
1033.268	-37.62
1033.465	-37.49
1033.662	-40.56
1033.858	-41.05
1034.055	-41.31
1034.251	-38.47
1034.448	-39.18
1034.644	-38.24
1034.84	-35.28
1035.037	-32.93
1035.233	-34.16
1035.43	-32.47
1035.626	-33.4
1035.822	-31.52
1036.019	-32.39
1036.215	-35.16
1036.411	-35.08
1036.607	-38.75
1036.803	-39.42
1037	-40.37
1037.196	-41.65
1037.392	-41.92
1037.588	-43.07
1037.784	-41.11
1037.98	-42.37
1038.176	-42.1
1038.372	-41.15
1038.568	-39.63
1038.764	-37.98
1038.96	-36.33
1039.156	-36.63
1039.352	-38.6
1039.547	-37.41
1039.743	-37.52
1039.939	-35.49
1040.135	-35.22
1040.331	-37.07
1040.526	-33.6
1040.722	-34.31
1040.918	-35.34
1041.113	-38.69
1041.309	-38.64
1041.505	-41.95
1041.7	-40.99
1041.896	-41.67
1042.091	-41.54
1042.287	-41.07
1042.482	-40.6
1042.678	-39.73
1042.873	-39.56
1043.069	-39.63
1043.264	-38.89
1043.459	-36
1043.655	-35.15
1043.85	-37.75
1044.045	-35.75
1044.24	-36.15
1044.436	-35.27
1044.631	-37.17
1044.826	-37.11
1045.021	-40.22
1045.216	-40.62
