Data from FLMT021711__17__17-56-32-130.txt Node

Date: Tue Nov 05 17:56:32 CET 2024
User: Etudiants TP
Spectrometer: FLMT02171
Trigger mode: 0
Integration Time (sec): 1,000000E-1
Scans to average: 5
Electric dark correction enabled: true
Nonlinearity correction enabled: false
Boxcar width: 15
XAxis mode: Wavelengths
Number of Pixels in Spectrum: 3648
>>>>>Begin Spectral Data<<<<<
194,658	-67,93
194,923	-65,59
195,188	-56,55
195,453	-57,36
195,717	-52
195,982	-50,82
196,247	-48,91
196,512	-52,26
196,777	-49,48
197,042	-47,63
197,307	-47,58
197,572	-43,53
197,837	-44,54
198,101	-41,77
198,366	-38,61
198,631	-37,46
198,896	-32,19
199,161	-23,66
199,425	-14,73
199,69	-4,58
199,955	-5,86
200,22	-10,23
200,484	-10,85
200,749	-11,12
201,014	-9,69
201,278	-9,02
201,543	-6,88
201,807	-8,3
202,072	-5,8
202,337	-5,31
202,601	-7,49
202,866	-10,57
203,13	-9,88
203,395	-12,39
203,659	-11,59
203,924	-13,01
204,189	-11,68
204,453	-10,67
204,717	-6,56
204,982	-6,37
205,246	-5,43
205,511	-3,88
205,775	-4,65
206,04	2,19
206,304	1,72
206,568	2,93
206,833	5,07
207,097	6,2
207,361	7,39
207,626	9,62
207,89	9,8
208,154	12,03
208,419	14,87
208,683	14,13
208,947	16,52
209,211	16,55
209,476	15,52
209,74	15,56
210,004	15,49
210,268	14,58
210,532	17,54
210,796	20,11
211,061	21,78
211,325	23,68
211,589	21,52
211,853	22,33
212,117	22,91
212,381	23,01
212,645	22,63
212,909	21,29
213,173	18,37
213,437	19,37
213,701	20,91
213,965	22,58
214,229	17,2
214,493	18,11
214,757	17,32
215,021	14,88
215,285	20,83
215,549	23,39
215,813	21,11
216,077	19,65
216,34	20,78
216,604	20,25
216,868	21,57
217,132	22,5
217,396	22,14
217,659	23,3
217,923	18,69
218,187	19,71
218,451	19,87
218,714	16,85
218,978	16,86
219,242	18,24
219,505	18,19
219,769	19,62
220,033	20,52
220,296	22,53
220,56	22,73
220,824	21,33
221,087	22,72
221,351	23,87
221,614	24,43
221,878	24,46
222,142	22,04
222,405	20,84
222,669	21,89
222,932	18,13
223,196	17,25
223,459	13,11
223,722	12,8
223,986	13,72
224,249	14,27
224,513	14,7
224,776	14,75
225,04	13,85
225,303	13,77
225,566	13,65
225,83	14,39
226,093	17,96
226,356	15,83
226,62	14,34
226,883	15,4
227,146	14,65
227,409	14,21
227,673	13,15
227,936	11,9
228,199	11,89
228,462	8,16
228,725	6,25
228,989	6,23
229,252	7,22
229,515	12,55
229,778	9,59
230,041	8,53
230,304	7,35
230,567	8,81
230,83	7,03
231,093	9,71
231,356	10,09
231,619	14,89
231,882	12,31
232,145	11,57
232,408	8,77
232,671	8,06
232,934	8,17
233,197	6,48
233,46	4,9
233,723	6,42
233,986	5,6
234,249	2,75
234,512	4,87
234,775	7,47
235,037	7,86
235,3	8,79
235,563	8,77
235,826	8,26
236,089	11,67
236,351	10,76
236,614	12,89
236,877	14,19
237,14	16,55
237,402	14,72
237,665	7,99
237,928	7,32
238,19	5,78
238,453	8,55
238,716	8,34
238,978	9,01
239,241	7,09
239,503	9,47
239,766	5,18
240,029	4,62
240,291	8,11
240,554	8,97
240,816	7,76
241,079	6,6
241,341	7,77
241,604	5,13
241,866	1,74
242,129	1,47
242,391	2,64
242,653	1,55
242,916	1,88
243,178	0,77
243,441	1,49
243,703	1,29
243,965	-1,09
244,228	-1,18
244,49	-1,15
244,752	0,06
245,015	0,67
245,277	2,17
245,539	0,91
245,801	3,88
246,064	3,53
246,326	2,43
246,588	1,13
246,85	4,55
247,112	4,66
247,374	7,18
247,637	8,66
247,899	8,97
248,161	9,66
248,423	6,23
248,685	7,24
248,947	7,21
249,209	7,68
249,471	9,5
249,733	12,36
249,995	10,7
250,257	11,18
250,519	10,22
250,781	12,64
251,043	9,87
251,305	11,91
251,567	13,8
251,829	13,69
252,091	13,97
252,353	9,54
252,615	9,78
252,876	7,28
253,138	5,49
253,4	1,07
253,662	2,14
253,924	3,18
254,185	4,73
254,447	5,35
254,709	5,4
254,971	4,89
255,232	6,7
255,494	4,79
255,756	2,03
256,017	3,24
256,279	3,52
256,541	2,32
256,802	3,37
257,064	4,12
257,326	3,11
257,587	4,19
257,849	4,34
258,11	8
258,372	8,4
258,633	9,98
258,895	9,46
259,156	9,24
259,418	7,47
259,679	1,95
259,941	-1,19
260,202	2,17
260,464	4,1
260,725	3,44
260,987	2,91
261,248	3,76
261,509	4,45
261,771	3,73
262,032	4,91
262,293	4,5
262,555	4,75
262,816	3,5
263,077	1,29
263,338	-2,29
263,6	-1,38
263,861	-1,09
264,122	-2,76
264,383	-0,16
264,645	1,91
264,906	-0,87
265,167	-0,25
265,428	-0,18
265,689	-0,36
265,95	-1,74
266,211	-0,32
266,473	-1,19
266,734	-5,26
266,995	-8,64
267,256	-8,27
267,517	-6,57
267,778	-1,29
268,039	1,69
268,3	-0,05
268,561	-1,07
268,822	2,04
269,083	0,25
269,344	-1,46
269,604	-0,59
269,865	0,97
270,126	-3,82
270,387	-3,68
270,648	-2,73
270,909	-4,14
271,17	-3,77
271,43	-6,46
271,691	-10,25
271,952	-11,47
272,213	-9,47
272,473	-12,95
272,734	-12,74
272,995	-10,45
273,256	-10,75
273,516	-8,35
273,777	-11,97
274,038	-10,44
274,298	-13,7
274,559	-13,81
274,82	-6,99
275,08	-4,46
275,341	-2,58
275,601	-4,05
275,862	-7,25
276,122	-7,59
276,383	-7,09
276,643	-5,41
276,904	-6,13
277,164	-2,53
277,425	-2,78
277,685	0,67
277,946	1,09
278,206	3,47
278,467	6,34
278,727	7,12
278,987	7,57
279,248	6,43
279,508	9,28
279,768	11,85
280,029	14,52
280,289	11,69
280,549	10,51
280,81	11,19
281,07	10,35
281,33	11,7
281,59	9,04
281,851	11,44
282,111	9,99
282,371	10,28
282,631	12,5
282,891	10,15
283,151	7,97
283,412	5,53
283,672	5,3
283,932	4,85
284,192	6,03
284,452	3,9
284,712	-0,25
284,972	-2,47
285,232	-4,97
285,492	-2,1
285,752	-5,92
286,012	-0,67
286,272	0,63
286,532	-2,33
286,792	-2,72
287,052	-1,05
287,312	-0,7
287,571	-2,24
287,831	-1,14
288,091	-4,82
288,351	-3,87
288,611	0,61
288,871	-0,55
289,13	-0,88
289,39	-5,58
289,65	-3,93
289,91	-5,7
290,17	-1,46
290,429	0,64
290,689	-2,75
290,949	-5,54
291,208	-3,62
291,468	-0,51
291,728	1,49
291,987	4,14
292,247	2,5
292,506	5,78
292,766	9,56
293,026	9,93
293,285	11,27
293,545	13,46
293,804	13,78
294,064	11,86
294,323	8,04
294,583	9,92
294,842	9,98
295,102	10,1
295,361	10,16
295,621	10
295,88	11,43
296,139	11,5
296,399	10,71
296,658	5,67
296,917	5,87
297,177	3,35
297,436	6,02
297,695	5,61
297,955	7,74
298,214	4,22
298,473	5,15
298,732	7,89
298,992	11,39
299,251	11,12
299,51	8,44
299,769	9,23
300,028	8,68
300,287	9,06
300,547	9,01
300,806	8,03
301,065	10,01
301,324	11,56
301,583	7,52
301,842	4,75
302,101	1,41
302,36	3,09
302,619	2,18
302,878	2,95
303,137	1,55
303,396	3,77
303,655	6,65
303,914	2,93
304,173	3,72
304,432	5,69
304,691	8,76
304,95	6,06
305,208	11,55
305,467	12
305,726	11,18
305,985	12,03
306,244	14,73
306,503	14,86
306,761	12,79
307,02	8,58
307,279	9,42
307,537	10,22
307,796	6,51
308,055	3,89
308,314	5,31
308,572	2,4
308,831	3,6
309,09	5,09
309,348	5,89
309,607	5,86
309,865	10,79
310,124	11,24
310,382	13,97
310,641	13,88
310,9	11,59
311,158	12,12
311,417	10,18
311,675	10,79
311,933	12,55
312,192	13,97
312,45	12,46
312,709	12,13
312,967	12,17
313,226	10,81
313,484	8,97
313,742	8,77
314,001	6,43
314,259	4,81
314,517	4,28
314,776	6,46
315,034	8,97
315,292	7,2
315,55	4,03
315,809	4,16
316,067	3,95
316,325	1,71
316,583	2,7
316,841	1,27
317,1	-2,23
317,358	-6,16
317,616	-7,65
317,874	-9,42
318,132	-10,53
318,39	-12,05
318,648	-12,03
318,906	-11,93
319,164	-11,82
319,422	-11,76
319,68	-14,4
319,938	-14,75
320,196	-14,63
320,454	-13
320,712	-13,33
320,97	-11,93
321,228	-14,02
321,486	-9,72
321,744	-9,36
322,002	-6,66
322,26	-8,93
322,517	-9,31
322,775	-11,72
323,033	-13,43
323,291	-11,16
323,549	-8,37
323,806	-6,12
324,064	-4,85
324,322	-2,99
324,58	-2,82
324,837	-0,34
325,095	-1,97
325,353	0,58
325,61	3,27
325,868	2,65
326,126	4,64
326,383	4,03
326,641	2,25
326,898	4,21
327,156	3,61
327,413	3,5
327,671	4,37
327,928	6,68
328,186	5,91
328,443	3,47
328,701	7,29
328,958	6,75
329,216	8,01
329,473	4,91
329,731	6,89
329,988	6,13
330,245	9,41
330,503	10,49
330,76	10,09
331,017	13,8
331,275	10,1
331,532	9,55
331,789	6,62
332,047	6,66
332,304	3,59
332,561	2,58
332,818	-0,33
333,076	2,33
333,333	2,99
333,59	2,95
333,847	3,72
334,104	1,32
334,361	-0,07
334,618	-1,07
334,876	-3
335,133	-2,33
335,39	-4,03
335,647	-1,95
335,904	-5,95
336,161	-8,89
336,418	-6,83
336,675	-11,65
336,932	-10,61
337,189	-12,26
337,446	-11,73
337,703	-14,62
337,96	-18,45
338,216	-19,13
338,473	-22,27
338,73	-21,1
338,987	-22,99
339,244	-19,44
339,501	-21,51
339,757	-19,72
340,014	-18,91
340,271	-18,35
340,528	-17,58
340,785	-12,83
341,041	-12,71
341,298	-16,71
341,555	-16,32
341,811	-16,54
342,068	-18,15
342,325	-17,06
342,581	-13,6
342,838	-12,24
343,094	-12,23
343,351	-11,56
343,608	-15,24
343,864	-13,08
344,121	-10,93
344,377	-12,17
344,634	-12,43
344,89	-13,12
345,147	-13,35
345,403	-14,81
345,66	-13,2
345,916	-10,92
346,172	-11,24
346,429	-11,44
346,685	-12,95
346,942	-11,64
347,198	-15,21
347,454	-13,16
347,711	-13,61
347,967	-16,47
348,223	-14,32
348,48	-14,28
348,736	-10,87
348,992	-12,81
349,248	-8,59
349,504	-8,95
349,761	-8,92
350,017	-7,61
350,273	-7,93
350,529	-10,02
350,785	-10,36
351,041	-10,36
351,297	-8,93
351,554	-9,65
351,81	-11,97
352,066	-12,49
352,322	-11,99
352,578	-9,78
352,834	-10,67
353,09	-10,5
353,346	-10,34
353,602	-14,08
353,858	-14,86
354,114	-17,73
354,369	-15,01
354,625	-12,67
354,881	-15,33
355,137	-13,03
355,393	-13,74
355,649	-13,19
355,905	-11,43
356,16	-12,9
356,416	-12,28
356,672	-20,56
356,928	-19,25
357,183	-21,01
357,439	-21,29
357,695	-23,61
357,951	-20,31
358,206	-22,18
358,462	-22,16
358,718	-23,58
358,973	-23,76
359,229	-22,84
359,484	-21,89
359,74	-19,56
359,996	-18,95
360,251	-16,1
360,507	-17,49
360,762	-17,32
361,018	-15,21
361,273	-16,1
361,529	-13,6
361,784	-14,03
362,04	-11,62
362,295	-13,43
362,55	-12,89
362,806	-9,39
363,061	-9,49
363,316	-8,4
363,572	-8,12
363,827	-7,01
364,082	-8,37
364,338	-9,67
364,593	-8,24
364,848	-6,54
365,104	-6,17
365,359	-4,06
365,614	-2,22
365,869	-3,39
366,124	-1,78
366,38	-1,2
366,635	-0,15
366,89	1,55
367,145	2,14
367,4	6,2
367,655	7,9
367,91	8,25
368,165	5,28
368,42	2,93
368,675	3,98
368,93	4,65
369,185	2,99
369,44	3,25
369,695	6,45
369,95	6,55
370,205	5,95
370,46	3,46
370,715	3,17
370,97	4,94
371,225	4,44
371,48	4,6
371,734	3,85
371,989	5,05
372,244	5,8
372,499	7,01
372,754	5,74
373,008	2,25
373,263	-1,75
373,518	-0,41
373,773	-3,54
374,027	-5,03
374,282	-3,5
374,537	-1,95
374,791	-1,71
375,046	-4,51
375,301	-6,91
375,555	-9,7
375,81	-8,38
376,064	-6,36
376,319	-3,7
376,573	-4,83
376,828	-8,21
377,082	-3,75
377,337	-5,83
377,591	-8,78
377,846	-8,46
378,1	-5,79
378,355	-4,45
378,609	-6,49
378,863	-9,72
379,118	-8,72
379,372	-8,85
379,627	-10,75
379,881	-12,16
380,135	-12,07
380,389	-12,47
380,644	-12,49
380,898	-11,55
381,152	-9,89
381,407	-9,57
381,661	-6,12
381,915	-3,55
382,169	-3,35
382,423	-5,41
382,677	-9,28
382,932	-7,35
383,186	-6,47
383,44	-5,78
383,694	-3,25
383,948	-5,35
384,202	-6,58
384,456	-4,4
384,71	-2,1
384,964	-3,78
385,218	-0,94
385,472	-0,61
385,726	-1,32
385,98	-2,01
386,234	-2,46
386,488	-4,23
386,742	-2,76
386,996	-5,2
387,249	-4,77
387,503	-0,97
387,757	0,41
388,011	1,35
388,265	1,11
388,518	2,44
388,772	6,34
389,026	8,32
389,28	4,49
389,533	2,64
389,787	5,24
390,041	3,01
390,295	3,54
390,548	4,44
390,802	6,45
391,055	5,18
391,309	5,26
391,563	1,8
391,816	2,05
392,07	1,73
392,323	3,12
392,577	4,02
392,83	4,87
393,084	10,54
393,337	14,48
393,591	15,24
393,844	15,75
394,098	19,64
394,351	23,21
394,604	25,31
394,858	29,2
395,111	29,32
395,364	25,89
395,618	27,28
395,871	24,37
396,124	23,84
396,378	22,38
396,631	20,63
396,884	18,16
397,137	18,59
397,391	19,68
397,644	15,79
397,897	18,05
398,15	18,44
398,403	21,24
398,657	19,64
398,91	18,54
399,163	19
399,416	18,85
399,669	17,15
399,922	16,32
400,175	14,54
400,428	13,07
400,681	14,53
400,934	9,24
401,187	7,44
401,44	7,98
401,693	6,48
401,946	2,91
402,199	-1,62
402,452	-4,12
402,704	-8,95
402,957	-9,59
403,21	-6,62
403,463	-7,72
403,716	-5,22
403,969	-2,79
404,221	-3,07
404,474	-0,37
404,727	0,48
404,98	4,59
405,232	5,37
405,485	7,16
405,738	5,8
405,99	7
406,243	9,16
406,496	11,7
406,748	12,84
407,001	11,46
407,253	12,17
407,506	13,09
407,759	14,1
408,011	10,58
408,264	10,73
408,516	10,47
408,769	8,2
409,021	8,68
409,274	8,32
409,526	9,26
409,778	7,82
410,031	11,52
410,283	12,64
410,536	17,87
410,788	15,03
411,04	12,64
411,293	14,77
411,545	15,09
411,797	14,58
412,049	12,89
412,302	13,08
412,554	15,2
412,806	13,22
413,058	10,75
413,311	10,99
413,563	11,24
413,815	9,85
414,067	6,01
414,319	4,68
414,571	4,67
414,823	2,29
415,075	0,26
415,328	0,52
415,58	4,36
415,832	6,71
416,084	7,26
416,336	5,61
416,588	9,41
416,84	7,11
417,091	8,35
417,343	5,27
417,595	8,12
417,847	8,44
418,099	8,92
418,351	9,09
418,603	13,06
418,855	14,84
419,106	14,54
419,358	14,9
419,61	14,62
419,862	16,49
420,114	13,46
420,365	12,62
420,617	13,16
420,869	12,12
421,12	11,12
421,372	12,45
421,624	13,01
421,875	13,77
422,127	9,79
422,379	10,25
422,63	13,37
422,882	12,88
423,133	12,94
423,385	11,43
423,636	10,82
423,888	13,27
424,139	15,23
424,391	12,33
424,642	10,52
424,894	9,67
425,145	10,48
425,396	8,33
425,648	11,17
425,899	7,93
426,151	7,01
426,402	5,87
426,653	6,09
426,905	3,25
427,156	1,12
427,407	0,09
427,658	-0,4
427,91	-3,6
428,161	-5,37
428,412	-4,4
428,663	-3,44
428,914	-2,01
429,166	-1,88
429,417	-3,32
429,668	-4,28
429,919	-6,2
430,17	-7,82
430,421	-6,44
430,672	-3,1
430,923	-1,92
431,174	-3,58
431,425	-1,73
431,676	-2,04
431,927	-5,68
432,178	-2,98
432,429	-0,83
432,68	-2,58
432,931	1,31
433,182	4,91
433,433	1,64
433,683	3,75
433,934	3,12
434,185	2,62
434,436	1,8
434,687	3,93
434,937	6,12
435,188	4,28
435,439	3,91
435,69	7,44
435,94	8,32
436,191	8,44
436,442	8,16
436,692	7,16
436,943	3,88
437,194	4,37
437,444	6,81
437,695	10,79
437,945	12,03
438,196	10,32
438,447	9,31
438,697	8,45
438,948	7,21
439,198	3,84
439,449	-0,93
439,699	1,48
439,949	0,18
440,2	-1,37
440,45	0,21
440,701	-2,5
440,951	-4,99
441,201	-4,11
441,452	-5,15
441,702	-6,56
441,952	-5,92
442,203	-6,11
442,453	-8,09
442,703	-7,93
442,953	-5,78
443,204	-4,94
443,454	-6,89
443,704	-7,38
443,954	-9,97
444,204	-8,94
444,455	-8,77
444,705	-6,56
444,955	-7,46
445,205	-8,33
445,455	-10,74
445,705	-11,05
445,955	-11,04
446,205	-12,8
446,455	-12,74
446,705	-10,57
446,955	-9,19
447,205	-7,39
447,455	-6,58
447,705	-10,1
447,955	-10,31
448,205	-9,3
448,454	-10,15
448,704	-7,69
448,954	-9,23
449,204	-7,59
449,454	-5,97
449,704	-6,6
449,953	-7,18
450,203	-3,77
450,453	-6,78
450,703	-5,65
450,952	-6,37
451,202	-5,43
451,452	-5,7
451,701	-3,39
451,951	0,12
452,201	-0,81
452,45	-2,05
452,7	-0,42
452,949	-2,13
453,199	-1,41
453,448	0,23
453,698	0,81
453,947	1,29
454,197	1,32
454,446	-0,27
454,696	2,04
454,945	1
455,195	-0,46
455,444	2,76
455,693	6,14
455,943	3,76
456,192	5,05
456,442	3,91
456,691	5,44
456,94	3,9
457,189	1,89
457,439	3,22
457,688	5,66
457,937	3,43
458,186	4,75
458,436	3,6
458,685	5,14
458,934	5,67
459,183	5,11
459,432	7,57
459,681	7,52
459,93	8,49
460,179	8,89
460,429	6,98
460,678	10,04
460,927	12,11
461,176	12,34
461,425	12,07
461,674	14,87
461,923	14,74
462,172	14,06
462,42	14,09
462,669	16,94
462,918	15,89
463,167	15,13
463,416	13,51
463,665	14,97
463,914	14,82
464,162	13,11
464,411	13
464,66	14,32
464,909	13,7
465,158	14,28
465,406	14,3
465,655	16,82
465,904	19,51
466,152	20,78
466,401	20,14
466,65	20,64
466,898	19,01
467,147	14,17
467,395	13,6
467,644	13,92
467,893	14,34
468,141	13,89
468,39	10,47
468,638	8,15
468,887	6,48
469,135	6,32
469,384	5,19
469,632	6,96
469,88	7,2
470,129	7,63
470,377	4,64
470,626	8,59
470,874	10,79
471,122	11,36
471,371	10,05
471,619	7,46
471,867	9,79
472,115	9,1
472,364	9,06
472,612	11,45
472,86	9,3
473,108	8,55
473,356	8,41
473,605	6,38
473,853	4,18
474,101	3,02
474,349	0,98
474,597	5,32
474,845	3,84
475,093	1,97
475,341	0,55
475,589	-0,55
475,837	2
476,085	5,13
476,333	4,3
476,581	5,34
476,829	4,22
477,077	7,43
477,325	5,67
477,573	7,74
477,821	6,13
478,069	7,91
478,317	5,34
478,564	7,12
478,812	5,83
479,06	4,84
479,308	6,05
479,555	6,43
479,803	4,79
480,051	4,18
480,299	3,42
480,546	4,2
480,794	2,09
481,042	2,94
481,289	2,21
481,537	3,28
481,784	2,86
482,032	6,89
482,28	4,41
482,527	5,42
482,775	5,87
483,022	7,3
483,27	10,1
483,517	13,08
483,765	12,06
484,012	13,09
484,259	10,45
484,507	12,85
484,754	12,85
485,002	11,8
485,249	10,19
485,496	12,33
485,744	11,27
485,991	10,7
486,238	8,71
486,486	10,61
486,733	13,22
486,98	15,92
487,227	13,95
487,474	17,79
487,722	21,29
487,969	19,75
488,216	19,78
488,463	19,88
488,71	16,88
488,957	16,71
489,204	17,34
489,451	17,79
489,699	16,95
489,946	15,77
490,193	16,44
490,44	16,03
490,687	15,74
490,934	12,04
491,18	7,37
491,427	7,82
491,674	10,59
491,921	11,34
492,168	10,7
492,415	7,89
492,662	10,33
492,909	12,29
493,155	11,53
493,402	10,15
493,649	10,02
493,896	9,56
494,142	5,97
494,389	4,42
494,636	2,9
494,883	1,36
495,129	-1,26
495,376	-3,32
495,623	-1,05
495,869	0,42
496,116	1,3
496,362	2,55
496,609	4,48
496,855	8,53
497,102	9,93
497,348	9,22
497,595	11,37
497,841	14,15
498,088	13,16
498,334	13,92
498,581	13,71
498,827	14,41
499,074	16,43
499,32	16,97
499,566	20,78
499,813	21,15
500,059	20,15
500,305	20
500,552	19,62
500,798	18,63
501,044	23,3
501,29	21,18
501,537	19,3
501,783	23,06
502,029	25,22
502,275	22,87
502,521	21,51
502,767	21,1
503,013	24
503,26	21,51
503,506	18,33
503,752	20,26
503,998	19,34
504,244	20,31
504,49	16,52
504,736	16,56
504,982	17,19
505,228	18,82
505,474	19,56
505,72	20,72
505,966	19,25
506,211	22,83
506,457	23,34
506,703	19,03
506,949	16,69
507,195	15,26
507,441	11,51
507,686	12,93
507,932	12,37
508,178	14,14
508,424	12,56
508,669	9,91
508,915	12,59
509,161	15,46
509,406	16,38
509,652	17,28
509,898	21,24
510,143	22,3
510,389	23,22
510,634	19,95
510,88	24,31
511,125	26,39
511,371	26,43
511,616	28,25
511,862	25,32
512,107	24,11
512,353	25,36
512,598	24,85
512,844	23,16
513,089	20,66
513,335	22,33
513,58	21,85
513,825	21,96
514,071	21,24
514,316	23,12
514,561	25,68
514,806	24,98
515,052	29,49
515,297	29,18
515,542	29,29
515,787	29,5
516,033	32,99
516,278	34,28
516,523	34,69
516,768	34,2
517,013	31,21
517,258	30,75
517,503	31,06
517,748	32,9
517,993	32,83
518,238	31,91
518,483	30,81
518,728	31,77
518,973	29,73
519,218	29,47
519,463	32,1
519,708	31,3
519,953	29,84
520,198	30,65
520,443	33,21
520,688	36,06
520,933	34,63
521,177	35,92
521,422	33
521,667	37,6
521,912	37,1
522,157	32,89
522,401	37,11
522,646	36,57
522,891	39,33
523,135	41,82
523,38	42,13
523,625	41,9
523,869	45,16
524,114	45,53
524,358	44,44
524,603	45,21
524,848	41,63
525,092	40,41
525,337	42,84
525,581	45,37
525,826	49,86
526,07	49,99
526,315	51,25
526,559	51,75
526,803	50,33
527,048	53,72
527,292	55,53
527,537	56,73
527,781	56,09
528,025	53,62
528,269	56,09
528,514	58,34
528,758	58,45
529,002	60,29
529,247	63,51
529,491	63,86
529,735	69,93
529,979	68,3
530,223	71,11
530,467	66,75
530,712	64,85
530,956	65,25
531,2	65,77
531,444	62,27
531,688	64,79
531,932	65,48
532,176	67,48
532,42	71,44
532,664	73,16
532,908	71,21
533,152	69,75
533,396	68,98
533,64	67,58
533,884	65,41
534,128	66
534,371	68,5
534,615	68,89
534,859	68,79
535,103	68,59
535,347	69,58
535,59	71,61
535,834	68,24
536,078	69,46
536,322	70,87
536,565	74,37
536,809	70,69
537,053	73,03
537,296	69,72
537,54	70,19
537,784	68,9
538,027	72,15
538,271	72,55
538,514	70,3
538,758	71,95
539,001	71,18
539,245	70,83
539,488	71,73
539,732	73,62
539,975	72,89
540,219	75,55
540,462	76,82
540,706	78,15
540,949	78,01
541,192	80,12
541,436	87
541,679	92,77
541,922	94,11
542,166	90,01
542,409	90,68
542,652	91,84
542,895	94,63
543,139	94,78
543,382	99,26
543,625	98,07
543,868	98,33
544,111	98,32
544,354	97,09
544,598	95,23
544,841	97,93
545,084	97,64
545,327	97,96
545,57	99,24
545,813	100,46
546,056	101,37
546,299	100,49
546,542	104,01
546,785	106,47
547,028	107,89
547,271	107,54
547,514	109,61
547,756	106,69
547,999	107,84
548,242	109,62
548,485	107,51
548,728	107,55
548,971	101,87
549,213	101,2
549,456	100,19
549,699	101,84
549,942	103,01
550,184	103,04
550,427	102,09
550,67	103,79
550,912	98,84
551,155	100,44
551,398	100,44
551,64	98,76
551,883	100,79
552,125	101,14
552,368	100,88
552,61	98,34
552,853	99,77
553,095	99,09
553,338	100,7
553,58	102,38
553,823	100,95
554,065	103,06
554,308	100,21
554,55	97,85
554,792	96,48
555,035	93,26
555,277	92,23
555,519	92,51
555,762	90,33
556,004	91,86
556,246	90,5
556,488	93,16
556,731	89,95
556,973	92
557,215	91,5
557,457	92,44
557,699	95,46
557,941	92,76
558,183	91,88
558,426	96,19
558,668	92,64
558,91	94,71
559,152	96,26
559,394	95,23
559,636	97,53
559,878	99,2
560,12	99,32
560,362	101,49
560,604	101,58
560,845	100,96
561,087	99,46
561,329	102,34
561,571	99,24
561,813	100,38
562,055	100,87
562,297	101,54
562,538	105,46
562,78	109,89
563,022	107,71
563,264	110,17
563,505	111,73
563,747	112,77
563,989	110,56
564,23	110,95
564,472	109,5
564,714	113,31
564,955	114,63
565,197	111,27
565,438	114,47
565,68	118,39
565,921	116,29
566,163	119,83
566,404	119,17
566,646	121,35
566,887	125,36
567,129	127,07
567,37	126,74
567,612	131,03
567,853	128,16
568,094	130,26
568,336	130,27
568,577	133,1
568,818	134,52
569,06	134,95
569,301	133,39
569,542	134,61
569,783	136,71
570,025	135,31
570,266	135,58
570,507	138,76
570,748	138,96
570,989	140,11
571,23	143,56
571,472	144,08
571,713	144,31
571,954	146,58
572,195	144,18
572,436	146,43
572,677	149,54
572,918	152,3
573,159	150,71
573,4	149,79
573,641	148,57
573,882	149,86
574,123	147,54
574,364	142,71
574,604	144,04
574,845	142,97
575,086	144,01
575,327	145,8
575,568	145,16
575,809	145,27
576,049	144,22
576,29	141,9
576,531	147,02
576,771	151,88
577,012	155,37
577,253	157,37
577,494	158,1
577,734	158,77
577,975	160,66
578,215	161,16
578,456	158,31
578,697	157,68
578,937	160,98
579,178	161,38
579,418	160,45
579,659	161,05
579,899	158,83
580,14	159,13
580,38	157,73
580,62	158,44
580,861	162,93
581,101	164,18
581,342	164,25
581,582	161,12
581,822	165,34
582,063	163,84
582,303	166,07
582,543	164,84
582,783	167,71
583,024	169,64
583,264	173,28
583,504	172,99
583,744	175,61
583,984	172,75
584,224	172,66
584,465	170,54
584,705	169,86
584,945	170,98
585,185	170,65
585,425	170,16
585,665	169,16
585,905	171,11
586,145	172,97
586,385	171,89
586,625	175,12
586,865	174,33
587,105	174,85
587,345	174,99
587,585	175,58
587,824	175,49
588,064	175,28
588,304	173,78
588,544	173,79
588,784	172,63
589,024	176,37
589,263	174,93
589,503	174,25
589,743	176,16
589,982	176,09
590,222	174,35
590,462	173,09
590,701	170,89
590,941	174,5
591,181	173,04
591,42	173,08
591,66	175,29
591,899	179,59
592,139	179,76
592,378	181,14
592,618	181,44
592,857	182,59
593,097	185,37
593,336	186,19
593,576	185,5
593,815	187,89
594,055	187,03
594,294	188,76
594,533	188,98
594,773	188,94
595,012	190,9
595,251	193,14
595,491	197,47
595,73	200,15
595,969	202,29
596,208	205,05
596,447	210,45
596,687	212,2
596,926	214,34
597,165	211,52
597,404	215,53
597,643	215,75
597,882	215,84
598,121	217,03
598,36	217,89
598,599	220,83
598,838	221,12
599,077	218,3
599,316	218,93
599,555	218,21
599,794	220,51
600,033	223,24
600,272	224,74
600,511	223,29
600,75	225,11
600,989	227,12
601,228	225,44
601,466	226,02
601,705	228,62
601,944	229,27
602,183	233,54
602,422	231,71
602,66	230,18
602,899	227,57
603,138	227,92
603,376	228,88
603,615	228,52
603,854	226,98
604,092	227,34
604,331	228,37
604,569	230,22
604,808	228,15
605,047	229,87
605,285	229,78
605,524	230,96
605,762	228,62
606	230,6
606,239	232,02
606,477	232,42
606,716	227,1
606,954	227,76
607,193	224,51
607,431	219,62
607,669	217,04
607,908	216,33
608,146	217,69
608,384	215,44
608,622	216,39
608,861	217,03
609,099	214,31
609,337	213,43
609,575	210,44
609,813	211,02
610,052	210,13
610,29	205,3
610,528	202,97
610,766	200,38
611,004	199,33
611,242	196,58
611,48	194,36
611,718	191,26
611,956	191,18
612,194	189,69
612,432	187,38
612,67	186,2
612,908	186,04
613,146	184,89
613,384	183,24
613,621	182,95
613,859	183,42
614,097	183,54
614,335	183,43
614,573	184,59
614,811	186,77
615,048	185,65
615,286	186,03
615,524	183,88
615,761	181,01
615,999	180,55
616,237	178,47
616,474	179,82
616,712	180,42
616,95	179
617,187	177,87
617,425	178,51
617,662	180,97
617,9	179,36
618,137	177,68
618,375	176,84
618,612	174,78
618,85	177,19
619,087	179,11
619,325	177,6
619,562	175,33
619,799	173,38
620,037	172,78
620,274	172,27
620,511	172,99
620,749	169,34
620,986	165,1
621,223	162,09
621,461	162,63
621,698	163,01
621,935	160,94
622,172	159,25
622,409	161,37
622,647	160,99
622,884	159,17
623,121	161,85
623,358	158,84
623,595	159,07
623,832	159,76
624,069	158,16
624,306	159,67
624,543	161,65
624,78	162,4
625,017	161,82
625,254	163,47
625,491	163,95
625,728	165,09
625,965	165,39
626,202	163,9
626,438	161,72
626,675	161,22
626,912	163,68
627,149	164,01
627,386	163,84
627,622	161,58
627,859	160,34
628,096	160,38
628,333	161,44
628,569	161,48
628,806	161,69
629,043	160,31
629,279	161,5
629,516	162,98
629,752	159,07
629,989	158,08
630,225	156,27
630,462	155,52
630,699	155,97
630,935	154,72
631,171	150,82
631,408	150,8
631,644	147,47
631,881	144,34
632,117	141,51
632,354	141,85
632,59	139,98
632,826	139,69
633,063	137,35
633,299	138,94
633,535	136,75
633,771	136,39
634,008	138,26
634,244	138,49
634,48	138,06
634,716	139,19
634,953	138,08
635,189	137,97
635,425	139,16
635,661	142,18
635,897	140,92
636,133	140,13
636,369	137,62
636,605	133,18
636,841	132,19
637,077	133,25
637,313	132,19
637,549	132,68
637,785	132,25
638,021	131,91
638,257	132,04
638,493	133,26
638,729	131,63
638,965	134,62
639,2	134,84
639,436	134,39
639,672	132,64
639,908	129,66
640,144	133,17
640,379	137,13
640,615	135,15
640,851	136,25
641,086	136,64
641,322	133,49
641,558	132,14
641,793	132,15
642,029	127,87
642,264	127,22
642,5	127,13
642,736	122,44
642,971	120,66
643,207	118,14
643,442	115,35
643,678	116,48
643,913	117,68
644,148	115,41
644,384	116,33
644,619	116,13
644,855	116,07
645,09	115,36
645,325	115,61
645,561	114,26
645,796	111,39
646,031	114,21
646,266	111,03
646,502	111,14
646,737	111,5
646,972	110,1
647,207	110,9
647,442	106,68
647,678	102,87
647,913	104,21
648,148	105,65
648,383	103,46
648,618	103,76
648,853	103,04
649,088	104,24
649,323	108,63
649,558	108,54
649,793	107,97
650,028	108,86
650,263	105,68
650,498	107,78
650,733	107,24
650,968	105,01
651,202	106,15
651,437	103,89
651,672	100,38
651,907	99,65
652,142	99,63
652,376	98,83
652,611	100,25
652,846	100,55
653,081	101,17
653,315	98,81
653,55	98,75
653,785	95,75
654,019	96,57
654,254	95,69
654,488	96,69
654,723	94,93
654,958	91,31
655,192	89,16
655,427	83,9
655,661	85,75
655,896	87,52
656,13	89,49
656,364	86,08
656,599	81,17
656,833	88,47
657,068	89,15
657,302	89,02
657,536	87,47
657,771	88,78
658,005	89,89
658,239	91
658,474	87,9
658,708	88,85
658,942	88,53
659,176	85,81
659,41	82,61
659,645	81,54
659,879	80,25
660,113	76,72
660,347	75,74
660,581	74,32
660,815	73,55
661,049	73,08
661,283	71,24
661,517	69,26
661,751	66,95
661,985	65,53
662,219	67,17
662,453	64,61
662,687	66,6
662,921	62,39
663,155	60,86
663,389	53,58
663,622	52,63
663,856	56,03
664,09	48,29
664,324	48,19
664,558	48,88
664,791	47,57
665,025	45,29
665,259	44,22
665,492	42,58
665,726	45,01
665,96	44,19
666,193	43,21
666,427	44,36
666,661	43,83
666,894	42,25
667,128	39,6
667,361	42,97
667,595	42,01
667,828	40,69
668,062	38,89
668,295	38,41
668,529	39,01
668,762	40,05
668,995	39,18
669,229	42,93
669,462	43,53
669,695	44,47
669,929	41,93
670,162	42,52
670,395	39,4
670,629	42,17
670,862	43,44
671,095	38,88
671,328	37,79
671,561	34,18
671,795	34,6
672,028	37,1
672,261	38,07
672,494	39,6
672,727	38,39
672,96	40,41
673,193	39,63
673,426	43,09
673,659	43,9
673,892	43,93
674,125	45,01
674,358	44,67
674,591	41,31
674,824	40,56
675,057	39,56
675,29	39,39
675,523	41,68
675,755	38,46
675,988	39,32
676,221	41,32
676,454	39,05
676,687	39,69
676,919	38,42
677,152	39,29
677,385	39,01
677,617	40,84
677,85	39,85
678,083	37,24
678,315	39,88
678,548	38,12
678,78	36,82
679,013	36,14
679,246	35,19
679,478	37
679,711	34,42
679,943	37,3
680,175	32,22
680,408	35,73
680,64	30,61
680,873	30,81
681,105	32
681,338	34,28
681,57	33,29
681,802	35
682,034	35,84
682,267	39,17
682,499	39,76
682,731	36,27
682,964	35,31
683,196	32,89
683,428	30,24
683,66	29,52
683,892	31,4
684,124	33,46
684,356	35,22
684,589	35,23
684,821	32,09
685,053	31,67
685,285	31,91
685,517	33,17
685,749	33,58
685,981	35,47
686,213	35,01
686,445	35,27
686,676	30,81
686,908	30,65
687,14	28,47
687,372	29,03
687,604	24,68
687,836	27,06
688,068	26,89
688,299	25,24
688,531	21,62
688,763	26,23
688,995	24,76
689,226	26,82
689,458	24,48
689,69	23,34
689,921	21,85
690,153	21,95
690,384	22,67
690,616	22,56
690,848	22,26
691,079	18,91
691,311	17,33
691,542	14,99
691,774	13,28
692,005	16,94
692,237	20,26
692,468	18,93
692,699	16,79
692,931	16,68
693,162	13,36
693,393	11,34
693,625	9,81
693,856	11,03
694,087	11,24
694,319	12,68
694,55	12,63
694,781	11,6
695,012	11,78
695,243	9,66
695,475	9,47
695,706	9,49
695,937	7,82
696,168	6,96
696,399	4,37
696,63	3,48
696,861	4,29
697,092	10,19
697,323	12,99
697,554	14,63
697,785	15,65
698,016	16,37
698,247	13,67
698,478	13,6
698,709	14,06
698,94	17,15
699,171	17,23
699,401	13,28
699,632	15,2
699,863	12,51
700,094	12,13
700,325	15,73
700,555	18,26
700,786	20,75
701,017	20,11
701,247	20,12
701,478	19,45
701,709	19,54
701,939	19,71
702,17	20,83
702,401	23,53
702,631	24,46
702,862	22,7
703,092	19,7
703,323	22,3
703,553	23,45
703,784	24,42
704,014	23,49
704,244	16,44
704,475	14,47
704,705	14,31
704,936	14,04
705,166	12,42
705,396	15,04
705,627	14,23
705,857	15,03
706,087	13,68
706,317	9,14
706,548	7,71
706,778	7,85
707,008	8,6
707,238	9,28
707,468	6,78
707,698	3,24
707,928	0,19
708,158	-0,87
708,389	-1,28
708,619	-3,88
708,849	-5,17
709,079	-3,75
709,309	-7,15
709,539	-10,53
709,768	-10,85
709,998	-7,33
710,228	-7,61
710,458	-9,41
710,688	-12
710,918	-12,88
711,148	-13,98
711,378	-10,88
711,607	-11,51
711,837	-10,6
712,067	-10,73
712,297	-9,83
712,526	-10,53
712,756	-7,13
712,986	-10,49
713,215	-11,68
713,445	-9,99
713,674	-7,47
713,904	-8,98
714,134	-5,05
714,363	-5,44
714,593	-5,91
714,822	-4,44
715,052	-4,39
715,281	-3,08
715,511	-4,58
715,74	-4,72
715,969	-4,76
716,199	-6,38
716,428	-5,65
716,657	-4,54
716,887	-3,02
717,116	-6,88
717,345	-4,14
717,575	-3,73
717,804	-3,67
718,033	-4,44
718,262	-3,59
718,492	-4,45
718,721	-3,38
718,95	-4,98
719,179	-6,94
719,408	-6,6
719,637	-8,58
719,866	-11,61
720,095	-8,59
720,324	-9,23
720,553	-12,34
720,782	-14,86
721,011	-14,9
721,24	-18,07
721,469	-19,62
721,698	-18,35
721,927	-19,25
722,156	-19,54
722,385	-20,42
722,613	-16,85
722,842	-14,96
723,071	-11,34
723,3	-9,31
723,529	-10,24
723,757	-10,06
723,986	-13,72
724,215	-14,05
724,443	-15,21
724,672	-13,49
724,901	-11,8
725,129	-10,25
725,358	-8,42
725,586	-11,67
725,815	-11,88
726,043	-12,05
726,272	-13,92
726,5	-14,54
726,729	-14,11
726,957	-16,7
727,186	-18,75
727,414	-17,16
727,642	-15,21
727,871	-12,25
728,099	-12,19
728,327	-12,15
728,556	-8,72
728,784	-8,32
729,012	-10,48
729,241	-7,89
729,469	-8,36
729,697	-11,28
729,925	-11,3
730,153	-12,9
730,381	-13,33
730,61	-13,15
730,838	-16,63
731,066	-14,88
731,294	-14,02
731,522	-15,67
731,75	-19,94
731,978	-21,38
732,206	-22,04
732,434	-22,88
732,662	-19,75
732,89	-21,02
733,118	-22,38
733,346	-21
733,573	-19,91
733,801	-19,37
734,029	-14,19
734,257	-14,14
734,485	-11
734,712	-9,15
734,94	-12,76
735,168	-8,5
735,396	-7,71
735,623	-10,4
735,851	-10,02
736,078	-6,89
736,306	-7,37
736,534	-8,16
736,761	-6,53
736,989	-8,56
737,216	-10,58
737,444	-11,5
737,671	-10,77
737,899	-4,53
738,126	-4,84
738,354	-3,58
738,581	-3,28
738,809	-1,79
739,036	-3,42
739,263	-3,94
739,491	-6,49
739,718	-5,76
739,945	-0,79
740,173	1,07
740,4	1,54
740,627	0,15
740,854	0,03
741,081	-1,74
741,309	-2,67
741,536	-6,39
741,763	-8,24
741,99	-4,62
742,217	-5,54
742,444	-7,28
742,671	-5,08
742,898	-4,79
743,125	-7,44
743,352	-10,09
743,579	-10,02
743,806	-11,18
744,033	-8,6
744,26	-8,49
744,487	-9,46
744,714	-9,24
744,941	-11,47
745,167	-8,63
745,394	-10,65
745,621	-11,01
745,848	-10,97
746,075	-8,53
746,301	-4,29
746,528	1,58
746,755	-1,18
746,981	-3,08
747,208	-1,39
747,435	0,28
747,661	-0,6
747,888	0,28
748,114	-2,03
748,341	0,37
748,567	1,84
748,794	0,34
749,02	-1,43
749,247	-3,44
749,473	-3,3
749,7	-4,18
749,926	-5,79
750,152	-1,57
750,379	-1,29
750,605	-0,58
750,831	-1,3
751,058	-2,77
751,284	-3,12
751,51	-0,36
751,737	1,63
751,963	0,46
752,189	-0,8
752,415	-1,01
752,641	-1,66
752,867	-2,85
753,094	-4,03
753,32	-4,91
753,546	-8,46
753,772	-6,78
753,998	-7,98
754,224	-8,93
754,45	-10,3
754,676	-11,03
754,902	-11,77
755,128	-11,39
755,354	-11,98
755,579	-11,08
755,805	-7,9
756,031	-8,61
756,257	-10,67
756,483	-11,46
756,709	-12,05
756,934	-10,94
757,16	-13,97
757,386	-12,41
757,612	-14,19
757,837	-14,77
758,063	-12,05
758,289	-9,65
758,514	-10,91
758,74	-14,47
758,965	-15,26
759,191	-14,63
759,416	-13,43
759,642	-11,07
759,868	-9,67
760,093	-8,23
760,318	-11,43
760,544	-12,3
760,769	-12,16
760,995	-13,22
761,22	-14,46
761,445	-12,41
761,671	-9,57
761,896	-6,58
762,121	-5,5
762,347	-6,18
762,572	-9,83
762,797	-11,43
763,022	-10,61
763,248	-4,81
763,473	-2,75
763,698	-4,46
763,923	-4,16
764,148	-2,86
764,373	-4,21
764,598	-2,3
764,823	-0,97
765,048	-4,14
765,273	-7,24
765,498	-8,21
765,723	-7,78
765,948	-7,54
766,173	-8,34
766,398	-8,4
766,623	-11,2
766,848	-11,27
767,073	-13,11
767,298	-12,72
767,522	-12,14
767,747	-11,4
767,972	-11,02
768,197	-10,43
768,421	-12,39
768,646	-15,14
768,871	-20,15
769,095	-20,55
769,32	-18,74
769,545	-16,82
769,769	-15,2
769,994	-15,59
770,218	-20,04
770,443	-20,23
770,667	-18,62
770,892	-18,85
771,116	-21,49
771,341	-19,73
771,565	-20,89
771,79	-19,74
772,014	-19,79
772,238	-20,61
772,463	-18,91
772,687	-18,27
772,911	-20,41
773,136	-21,85
773,36	-19,95
773,584	-18,1
773,808	-20,76
774,033	-20,67
774,257	-20,71
774,481	-22,15
774,705	-23,41
774,929	-23,17
775,153	-22,81
775,377	-20,81
775,602	-20,34
775,826	-17,55
776,05	-15,6
776,274	-16,75
776,498	-17,72
776,722	-19,87
776,945	-18,11
777,169	-17,24
777,393	-18,71
777,617	-19,42
777,841	-19,12
778,065	-17,31
778,289	-18,76
778,512	-20,12
778,736	-20,25
778,96	-20,93
779,184	-19,6
779,407	-20,83
779,631	-20,57
779,855	-19,64
780,078	-18,96
780,302	-22,15
780,526	-23,74
780,749	-22,46
780,973	-19,8
781,196	-19,55
781,42	-19,34
781,643	-18,91
781,867	-18,45
782,09	-20,52
782,314	-21,95
782,537	-22,84
782,76	-23,49
782,984	-21,93
783,207	-23,47
783,431	-23,65
783,654	-22,81
783,877	-26,77
784,1	-29,06
784,324	-29,04
784,547	-29,1
784,77	-32,59
784,993	-33,25
785,216	-34,06
785,44	-32,34
785,663	-34,72
785,886	-32,7
786,109	-32,36
786,332	-31,18
786,555	-30,94
786,778	-29,65
787,001	-29,2
787,224	-26,19
787,447	-25,55
787,67	-24,05
787,893	-25
788,116	-24,72
788,339	-24,39
788,561	-25,19
788,784	-29,8
789,007	-30,3
789,23	-30,45
789,453	-29,92
789,675	-31,43
789,898	-34,1
790,121	-35,55
790,344	-35,73
790,566	-36,57
790,789	-35,37
791,012	-33,45
791,234	-30,81
791,457	-28,21
791,679	-25,81
791,902	-26,28
792,124	-26,48
792,347	-27,17
792,569	-26,94
792,792	-28,84
793,014	-26,24
793,237	-24,78
793,459	-24,19
793,681	-23,12
793,904	-23,13
794,126	-25,29
794,348	-25,16
794,571	-25,05
794,793	-25,69
795,015	-24,35
795,237	-24,96
795,46	-22,79
795,682	-20,21
795,904	-18,28
796,126	-20,69
796,348	-22,1
796,57	-19,25
796,792	-18,8
797,014	-14,47
797,237	-12,2
797,459	-9,1
797,681	-6,73
797,903	-8,85
798,124	-8,54
798,346	1,8
798,568	2,96
798,79	8,62
799,012	10,87
799,234	12,1
799,456	13,44
799,678	15,03
799,899	12,79
800,121	9,62
800,343	7,95
800,565	6,56
800,786	6,36
801,008	7,93
801,23	8,2
801,451	9,49
801,673	6,28
801,895	3,53
802,116	4,7
802,338	3,87
802,559	3,71
802,781	1,13
803,002	3,72
803,224	6,99
803,445	3,64
803,667	4,11
803,888	0,79
804,109	0,06
804,331	-1,49
804,552	-3,68
804,773	-1,21
804,995	-4,3
805,216	-17,03
805,437	-19,48
805,658	-23,17
805,88	-25,93
806,101	-25,42
806,322	-25,42
806,543	-26,93
806,764	-29,11
806,985	-27,74
807,207	-26,85
807,428	-26,16
807,649	-29,95
807,87	-30,83
808,091	-30,01
808,312	-29,55
808,533	-22,86
808,754	-19,05
808,975	-20,33
809,195	-18,09
809,416	-17,5
809,637	-17,54
809,858	-19,39
810,079	-22,7
810,3	-20,38
810,52	-20,89
810,741	-20,67
810,962	-21,94
811,183	-22,93
811,403	-21,23
811,624	-21,75
811,845	-19,56
812,065	-17,73
812,286	-17,19
812,506	-18,02
812,727	-16,52
812,948	-15,89
813,168	-14,18
813,389	-13,57
813,609	-12,51
813,83	-12,5
814,05	-13,27
814,27	-12,41
814,491	-7,64
814,711	-8,7
814,931	-12,5
815,152	-13,54
815,372	-15,73
815,592	-17,55
815,813	-17,83
816,033	-20,04
816,253	-19,43
816,473	-19,36
816,694	-17,92
816,914	-15,49
817,134	-13,88
817,354	-15,27
817,574	-14,92
817,794	-14,54
818,014	-16,32
818,234	-16,73
818,454	-17,63
818,674	-20,39
818,894	-23,87
819,114	-21,62
819,334	-20,23
819,554	-17,76
819,774	-15,21
819,994	-18,24
820,214	-19,9
820,433	-17,58
820,653	-18,02
820,873	-14,31
821,093	-14,28
821,312	-16,49
821,532	-15,15
821,752	-11,68
821,972	-12,76
822,191	-11,45
822,411	-13,35
822,63	-12,9
822,85	-11,95
823,07	-14,46
823,289	-13,79
823,509	-14,46
823,728	-13,16
823,948	-15,44
824,167	-16,88
824,387	-17,11
824,606	-16,39
824,825	-15,68
825,045	-15,87
825,264	-16,84
825,483	-14,4
825,703	-12,47
825,922	-15,09
826,141	-17,11
826,361	-18,01
826,58	-22,15
826,799	-22,46
827,018	-21,78
827,237	-21,95
827,456	-20,34
827,676	-22,18
827,895	-22,74
828,114	-21,42
828,333	-20,46
828,552	-20,81
828,771	-20,16
828,99	-22,95
829,209	-21,94
829,428	-19,87
829,647	-20
829,866	-18,27
830,084	-17,41
830,303	-18,09
830,522	-19,02
830,741	-18,69
830,96	-15,87
831,179	-15,73
831,397	-18,33
831,616	-18,16
831,835	-19
832,053	-17,29
832,272	-17,48
832,491	-15,33
832,709	-15,3
832,928	-14,72
833,147	-13,87
833,365	-13,48
833,584	-9,97
833,802	-6,95
834,021	-8,64
834,239	-9,26
834,458	-10,45
834,676	-13,12
834,894	-13,97
835,113	-15,76
835,331	-16,86
835,55	-17,73
835,768	-16,25
835,986	-15,08
836,204	-17,45
836,423	-17,45
836,641	-17,73
836,859	-19,51
837,077	-18,44
837,296	-17,81
837,514	-19,39
837,732	-21,79
837,95	-23,18
838,168	-19,88
838,386	-21
838,604	-18,8
838,822	-18,95
839,04	-19,81
839,258	-20,07
839,476	-18,71
839,694	-17,89
839,912	-20,56
840,13	-20,28
840,348	-18,19
840,566	-21,69
840,783	-19,04
841,001	-20,63
841,219	-18,74
841,437	-17,33
841,655	-15,48
841,872	-15,16
842,09	-14,99
842,308	-13,46
842,525	-14,73
842,743	-14,34
842,961	-14,9
843,178	-16,97
843,396	-13,09
843,613	-12,33
843,831	-10,96
844,048	-11,72
844,266	-11,37
844,483	-10,84
844,701	-11,12
844,918	-11,45
845,136	-10,28
845,353	-11,52
845,57	-11,14
845,788	-8,52
846,005	-11,62
846,222	-12,75
846,439	-11,14
846,657	-11,31
846,874	-11,3
847,091	-14,78
847,308	-12,36
847,526	-13,55
847,743	-13,09
847,96	-15,48
848,177	-16,09
848,394	-17,01
848,611	-18,02
848,828	-18,59
849,045	-20,4
849,262	-20,67
849,479	-21,4
849,696	-21,26
849,913	-22,53
850,13	-27,75
850,347	-24,31
850,564	-25,41
850,78	-26,92
850,997	-27,88
851,214	-27,22
851,431	-25,67
851,647	-29,28
851,864	-28,98
852,081	-26,84
852,298	-29,81
852,514	-32,14
852,731	-30,03
852,948	-27,4
853,164	-27,09
853,381	-26,71
853,597	-27,17
853,814	-28,78
854,03	-32,09
854,247	-30,64
854,463	-30,73
854,68	-31,16
854,896	-29,39
855,113	-29,1
855,329	-26,55
855,545	-23,81
855,762	-22,75
855,978	-24,24
856,194	-26,23
856,411	-22,45
856,627	-20,26
856,843	-19,86
857,059	-18,73
857,275	-20,59
857,492	-19,75
857,708	-15,78
857,924	-14,29
858,14	-11,44
858,356	-10,44
858,572	-10,91
858,788	-12,91
859,004	-10,76
859,22	-11,09
859,436	-11,04
859,652	-12,42
859,868	-15
860,084	-15,1
860,3	-16,16
860,516	-16,85
860,731	-16,33
860,947	-19,78
861,163	-18,09
861,379	-16,96
861,595	-16,39
861,81	-16,39
862,026	-18,32
862,242	-18,5
862,457	-19,14
862,673	-17,75
862,889	-16,49
863,104	-17,51
863,32	-16,98
863,535	-16,11
863,751	-20,37
863,966	-16,2
864,182	-15,06
864,397	-17,1
864,613	-19,19
864,828	-21,58
865,044	-20,95
865,259	-18,2
865,474	-19,01
865,69	-16,54
865,905	-17,2
866,12	-19,35
866,336	-20,42
866,551	-19,96
866,766	-20,03
866,981	-19,89
867,196	-18,86
867,412	-17,27
867,627	-15,46
867,842	-16,52
868,057	-16,59
868,272	-17,66
868,487	-18,26
868,702	-18,91
868,917	-19,97
869,132	-19,65
869,347	-18,99
869,562	-20,5
869,777	-20,85
869,992	-21,53
870,207	-20,74
870,422	-21,93
870,636	-25,11
870,851	-26,05
871,066	-28,23
871,281	-28,01
871,495	-29,76
871,71	-26,15
871,925	-30,13
872,14	-29,8
872,354	-33,47
872,569	-35,2
872,783	-32,81
872,998	-32,53
873,213	-32,38
873,427	-29,88
873,642	-29,08
873,856	-28,37
874,071	-28,03
874,285	-30,83
874,5	-32
874,714	-33,16
874,928	-34,02
875,143	-35,88
875,357	-35,93
875,571	-37,3
875,786	-35,95
876	-33,23
876,214	-31,11
876,429	-34,46
876,643	-33,8
876,857	-32,31
877,071	-30,58
877,285	-31,41
877,499	-34,03
877,714	-30,79
877,928	-28,61
878,142	-28,82
878,356	-31,28
878,57	-30,11
878,784	-30,23
878,998	-30,54
879,212	-26,71
879,426	-30,05
879,639	-27,77
879,853	-29,45
880,067	-29,32
880,281	-30,21
880,495	-28,94
880,709	-27,48
880,922	-25,65
881,136	-23,98
881,35	-22,15
881,564	-21,84
881,777	-22,32
881,991	-21,44
882,205	-18,04
882,418	-17,92
882,632	-21,71
882,845	-22,41
883,059	-20,07
883,273	-20,09
883,486	-22,05
883,7	-19,55
883,913	-19,46
884,126	-18,19
884,34	-20,88
884,553	-24,1
884,767	-20,69
884,98	-20,46
885,193	-20,69
885,407	-20,86
885,62	-19,16
885,833	-19,45
886,046	-15,9
886,26	-18,68
886,473	-18,26
886,686	-19,77
886,899	-16,88
887,112	-18,48
887,326	-21,68
887,539	-21,71
887,752	-21,38
887,965	-23,98
888,178	-22,2
888,391	-22,22
888,604	-21,84
888,817	-24,41
889,03	-24,86
889,243	-25,68
889,455	-27,8
889,668	-28,43
889,881	-25,79
890,094	-26,67
890,307	-29
890,52	-27,79
890,732	-25,9
890,945	-26,91
891,158	-25,45
891,37	-27,74
891,583	-28,61
891,796	-26,74
892,008	-27,94
892,221	-28,73
892,434	-31,8
892,646	-33,91
892,859	-33,55
893,071	-31,11
893,284	-30,24
893,496	-32,44
893,709	-32,3
893,921	-31,84
894,133	-32,16
894,346	-32,99
894,558	-31,94
894,771	-32,29
894,983	-29,67
895,195	-29,27
895,407	-28,85
895,62	-30,79
895,832	-29,7
896,044	-27,37
896,256	-28,77
896,468	-31,73
896,681	-29,02
896,893	-28,65
897,105	-28,1
897,317	-30,19
897,529	-27,52
897,741	-27,64
897,953	-24,85
898,165	-26,41
898,377	-29,07
898,589	-27,05
898,801	-26,94
899,013	-24,22
899,224	-21,46
899,436	-20,25
899,648	-22,33
899,86	-23,49
900,072	-20,07
900,283	-18,7
900,495	-17,24
900,707	-16,46
900,919	-17,94
901,13	-17,1
901,342	-18,76
901,554	-19,77
901,765	-19,37
901,977	-21,08
902,188	-21,25
902,4	-21,96
902,611	-22,67
902,823	-22,56
903,034	-24,1
903,246	-27,46
903,457	-28,23
903,669	-29,55
903,88	-27,86
904,091	-28,84
904,303	-28,37
904,514	-30,63
904,725	-27,74
904,936	-26,6
905,148	-26,16
905,359	-23,73
905,57	-24,79
905,781	-26,96
905,992	-27,6
906,204	-27,44
906,415	-26,55
906,626	-30,29
906,837	-27,91
907,048	-28,73
907,259	-29
907,47	-29,87
907,681	-30,97
907,892	-27,75
908,103	-29,02
908,314	-31,77
908,525	-29,75
908,735	-29,98
908,946	-30,33
909,157	-31,69
909,368	-29,43
909,579	-27,52
909,789	-29,02
910	-31,62
910,211	-28,76
910,421	-30,47
910,632	-28,1
910,843	-30,07
911,053	-26,79
911,264	-24,37
911,475	-24,35
911,685	-24,44
911,896	-25,14
912,106	-24,43
912,317	-26,34
912,527	-24,17
912,737	-25,02
912,948	-24,72
913,158	-23,76
913,369	-27,21
913,579	-25,4
913,789	-24,14
914	-20,65
914,21	-21,01
914,42	-23,47
914,63	-22,63
914,841	-20,57
915,051	-19,44
915,261	-18,5
915,471	-16,2
915,681	-15,1
915,891	-14,73
916,101	-15,82
916,311	-13,87
916,521	-11,18
916,731	-10,65
916,941	-7,94
917,151	-10,12
917,361	-6,97
917,571	-11,42
917,781	-14,91
917,991	-17,24
918,201	-18,35
918,411	-21,09
918,621	-22,86
918,83	-21,27
919,04	-23,47
919,25	-20,88
919,46	-20,04
919,669	-22,11
919,879	-22,14
920,089	-23,42
920,298	-25,2
920,508	-26,6
920,717	-26,41
920,927	-26,31
921,136	-25,82
921,346	-28,52
921,555	-31,41
921,765	-30,82
921,974	-33,46
922,184	-35,9
922,393	-37,36
922,603	-38,74
922,812	-37,05
923,021	-37,68
923,23	-39,78
923,44	-42,9
923,649	-43,56
923,858	-45,34
924,067	-44,88
924,277	-46,43
924,486	-43,7
924,695	-43,21
924,904	-41,38
925,113	-39,51
925,322	-37,04
925,531	-37,52
925,74	-39,82
925,949	-41,22
926,158	-38,28
926,367	-38,29
926,576	-37,29
926,785	-38,14
926,994	-38,83
927,203	-36,76
927,412	-36,98
927,621	-37,93
927,83	-34,87
928,038	-35,15
928,247	-35,96
928,456	-34,54
928,665	-31,78
928,873	-29,73
929,082	-28,12
929,291	-27,72
929,499	-26,31
929,708	-28,24
929,916	-26,92
930,125	-27,91
930,333	-29,02
930,542	-25,56
930,75	-21,73
930,959	-21,01
931,167	-21,6
931,376	-22,63
931,584	-21,54
931,793	-22,46
932,001	-21,12
932,209	-22,86
932,418	-25,58
932,626	-28,39
932,834	-29,6
933,042	-33,14
933,251	-33,31
933,459	-31,68
933,667	-33,47
933,875	-34,68
934,083	-32,82
934,291	-31,8
934,499	-30,7
934,707	-30,84
934,915	-31,71
935,123	-29,82
935,331	-31,02
935,539	-32,56
935,747	-33,47
935,955	-34,54
936,163	-34,29
936,371	-34,17
936,579	-31,47
936,787	-30,19
936,995	-32,4
937,202	-35,23
937,41	-36,5
937,618	-36,93
937,826	-35,61
938,033	-39,89
938,241	-42,01
938,449	-39,93
938,656	-36,96
938,864	-35,92
939,071	-36,52
939,279	-33,73
939,486	-29,71
939,694	-28,84
939,901	-30,84
940,109	-29,81
940,316	-28,42
940,524	-29,81
940,731	-32,39
940,939	-31,25
941,146	-31,09
941,353	-32,19
941,561	-33,69
941,768	-34,34
941,975	-32,18
942,182	-32,45
942,39	-31,49
942,597	-26,63
942,804	-26,46
943,011	-26,61
943,218	-26,46
943,425	-27,11
943,632	-25,74
943,839	-25,62
944,046	-27,19
944,253	-27,41
944,46	-25,63
944,667	-21,8
944,874	-23,3
945,081	-22,32
945,288	-20,43
945,495	-17,27
945,702	-17,16
945,909	-20,07
946,115	-18,85
946,322	-19,59
946,529	-21,42
946,736	-22,47
946,942	-20,61
947,149	-20,3
947,356	-22,41
947,562	-24,81
947,769	-23,16
947,976	-25,06
948,182	-23,68
948,389	-24,25
948,595	-24,2
948,802	-24,55
949,008	-26,31
949,215	-25,84
949,421	-27,86
949,628	-30,03
949,834	-28,98
950,04	-29,95
950,247	-27,24
950,453	-24,71
950,659	-26,14
950,865	-25,46
951,072	-29,72
951,278	-28,01
951,484	-28,89
951,69	-32,94
951,896	-33,75
952,103	-35,13
952,309	-33,86
952,515	-34,1
952,721	-32,68
952,927	-31,45
953,133	-31,77
953,339	-33,21
953,545	-34,33
953,751	-32,21
953,957	-28,67
954,163	-30,72
954,369	-29,7
954,574	-30,88
954,78	-31,5
954,986	-30,76
955,192	-29,11
955,398	-31,05
955,603	-33,5
955,809	-31,93
956,015	-30,06
956,22	-29,89
956,426	-29,52
956,632	-31,93
956,837	-31,75
957,043	-30,74
957,248	-29,68
957,454	-28,98
957,66	-31,93
957,865	-32,51
958,07	-29,35
958,276	-30,9
958,481	-31,78
958,687	-33,73
958,892	-34,33
959,097	-33,84
959,303	-33,39
959,508	-32,95
959,713	-33,38
959,919	-31,27
960,124	-32,04
960,329	-31,1
960,534	-27,32
960,739	-25,72
960,945	-23,98
961,15	-24,5
961,355	-26,84
961,56	-30,03
961,765	-30,24
961,97	-29,97
962,175	-27,35
962,38	-30,46
962,585	-29,88
962,79	-31,56
962,995	-33,24
963,2	-34,14
963,404	-33,86
963,609	-36,39
963,814	-37,52
964,019	-39,26
964,224	-41,56
964,428	-40,11
964,633	-38,13
964,838	-37,51
965,042	-36,4
965,247	-37,28
965,452	-37,04
965,656	-36,02
965,861	-35,27
966,066	-35,43
966,27	-34,78
966,475	-31,19
966,679	-34,61
966,884	-34,25
967,088	-36,3
967,292	-37,59
967,497	-34,92
967,701	-33,83
967,906	-32,45
968,11	-28,94
968,314	-25,08
968,518	-26,85
968,723	-24,47
968,927	-23,64
969,131	-20,77
969,335	-18,4
969,539	-18,8
969,744	-17,68
969,948	-14,47
970,152	-12
970,356	-10,75
970,56	-10,58
970,764	-13,19
970,968	-10,48
971,172	-10,32
971,376	-9,27
971,58	-7,5
971,784	-7,16
971,988	-8,56
972,192	-6,2
972,395	-6,49
972,599	-9,16
972,803	-10,85
973,007	-9,47
973,21	-10,31
973,414	-10
973,618	-10,08
973,822	-10,81
974,025	-10,28
974,229	-9,24
974,432	-14,43
974,636	-16,21
974,84	-15,78
975,043	-16,09
975,247	-18,43
975,45	-19,94
975,654	-18,14
975,857	-17,07
976,06	-18,54
976,264	-20,74
976,467	-19,26
976,671	-19,61
976,874	-16,15
977,077	-15,76
977,28	-17,71
977,484	-20,15
977,687	-21,21
977,89	-19,95
978,093	-19,73
978,297	-18,58
978,5	-21,26
978,703	-19,89
978,906	-18,37
979,109	-20,12
979,312	-19,87
979,515	-20,6
979,718	-20,8
979,921	-21,51
980,124	-24,52
980,327	-25,93
980,53	-27,57
980,733	-25,41
980,936	-23,64
981,138	-26,48
981,341	-24,62
981,544	-24
981,747	-25,57
981,949	-27,29
982,152	-26,16
982,355	-26,91
982,558	-23,82
982,76	-28,09
982,963	-27,72
983,165	-28,85
983,368	-27,67
983,571	-28,41
983,773	-24,35
983,976	-23,12
984,178	-23,71
984,381	-23,34
984,583	-25,89
984,785	-26,45
984,988	-25,16
985,19	-22,93
985,392	-24
985,595	-25,83
985,797	-25,5
985,999	-23,22
986,202	-20,73
986,404	-20,3
986,606	-16,85
986,808	-17,08
987,01	-15,58
987,212	-16,55
987,415	-16,84
987,617	-17,12
987,819	-17,62
988,021	-15,83
988,223	-17,97
988,425	-18,86
988,627	-19,04
988,829	-23,5
989,031	-20,99
989,232	-21,88
989,434	-20,74
989,636	-21,89
989,838	-23,16
990,04	-22,73
990,242	-24,27
990,443	-26,46
990,645	-26,74
990,847	-24,91
991,048	-24,09
991,25	-25,77
991,452	-26,89
991,653	-26,95
991,855	-27,4
992,057	-28,26
992,258	-27,81
992,46	-29,02
992,661	-27,78
992,863	-29,26
993,064	-28,6
993,265	-29,63
993,467	-32,45
993,668	-29,59
993,87	-29,53
994,071	-29,51
994,272	-29,75
994,473	-28,2
994,675	-26,5
994,876	-25,55
995,077	-25,16
995,278	-23,7
995,48	-23,87
995,681	-24,95
995,882	-23,36
996,083	-22,64
996,284	-26,68
996,485	-26,12
996,686	-26,29
996,887	-27,6
997,088	-31,13
997,289	-32,72
997,49	-32,17
997,691	-32,06
997,892	-31,79
998,092	-27,62
998,293	-28,18
998,494	-28,94
998,695	-29,8
998,896	-28,06
999,096	-28,58
999,297	-27,62
999,498	-30,28
999,698	-30,56
999,899	-32,88
1000,1	-34
1000,3	-34,12
1000,501	-34,9
1000,701	-34,57
1000,902	-37,09
1001,102	-36,85
1001,303	-34,66
1001,503	-37,65
1001,704	-36,45
1001,904	-37,09
1002,105	-38,1
1002,305	-37,63
1002,505	-37,16
1002,706	-38,3
1002,906	-38,58
1003,106	-39,34
1003,306	-36,1
1003,507	-32,81
1003,707	-34,23
1003,907	-32,95
1004,107	-32,73
1004,307	-33,37
1004,507	-30,99
1004,707	-30,76
1004,907	-31,35
1005,107	-32,04
1005,308	-32,45
1005,507	-34,4
1005,707	-30,32
1005,907	-30,98
1006,107	-28,39
1006,307	-26,94
1006,507	-28,52
1006,707	-26
1006,907	-25,5
1007,106	-25,48
1007,306	-26,32
1007,506	-26,03
1007,706	-25,64
1007,905	-28,87
1008,105	-30,05
1008,305	-30,22
1008,504	-28,57
1008,704	-24,3
1008,903	-21,94
1009,103	-19,85
1009,303	-20,86
1009,502	-21,4
1009,702	-22,98
1009,901	-22,21
1010,1	-25,66
1010,3	-23,06
1010,499	-25,04
1010,699	-27,8
1010,898	-30,18
1011,097	-28,52
1011,296	-28,61
1011,496	-28,86
1011,695	-28,4
1011,894	-31,33
1012,093	-27,2
1012,293	-27,24
1012,492	-28
1012,691	-27,84
1012,89	-29,07
1013,089	-32,77
1013,288	-30,78
1013,487	-29,23
1013,686	-29,53
1013,885	-30,55
1014,084	-28,21
1014,283	-27,94
1014,482	-28,52
1014,681	-30,13
1014,88	-34,35
1015,078	-33,73
1015,277	-36,87
1015,476	-38,08
1015,675	-37,95
1015,873	-37,9
1016,072	-39,5
1016,271	-36,23
1016,47	-40,38
1016,668	-38,54
1016,867	-38,85
1017,065	-39,48
1017,264	-40,79
1017,463	-40,15
1017,661	-39,66
1017,86	-40,41
1018,058	-38,2
1018,256	-39,42
1018,455	-41,73
1018,653	-40,81
1018,852	-39,63
1019,05	-41,32
1019,248	-41,33
1019,447	-44,13
1019,645	-45,82
1019,843	-47
1020,041	-45,99
1020,24	-47,28
1020,438	-42,78
1020,636	-43,27
1020,834	-45,43
1021,032	-43,57
1021,23	-45,48
1021,428	-41,68
1021,626	-36,35
1021,824	-35,49
1022,022	-36,3
1022,22	-35,04
1022,418	-34,32
1022,616	-34,59
1022,814	-35,73
1023,012	-36,1
1023,21	-34,88
1023,408	-34,28
1023,606	-35,48
1023,803	-29,99
1024,001	-28,76
1024,199	-32,33
1024,397	-31,8
1024,594	-29,93
1024,792	-32,37
1024,99	-31,51
1025,187	-31,02
1025,385	-26,29
1025,582	-25,39
1025,78	-24,79
1025,977	-23,31
1026,175	-22,26
1026,372	-20,73
1026,57	-23,83
1026,767	-21,38
1026,965	-21,17
1027,162	-20,06
1027,359	-18,51
1027,557	-19,35
1027,754	-24,28
1027,951	-26,28
1028,148	-24,69
1028,346	-25,98
1028,543	-28,34
1028,74	-28,31
1028,937	-31,51
1029,134	-30,39
1029,331	-30,21
1029,528	-30,79
1029,725	-31,67
1029,923	-36,83
1030,12	-33,98
1030,317	-32,2
1030,513	-31,71
1030,71	-31,17
1030,907	-28,22
1031,104	-28,68
1031,301	-30,33
1031,498	-31,24
1031,695	-32,04
1031,892	-31,65
1032,088	-31,4
1032,285	-33,28
1032,482	-34,67
1032,678	-36,12
1032,875	-37,54
1033,072	-36,12
1033,268	-35,47
1033,465	-37,26
1033,662	-39,65
1033,858	-37
1034,055	-36,38
1034,251	-33,55
1034,448	-34,69
1034,644	-33,93
1034,84	-31,14
1035,037	-28,49
1035,233	-28,24
1035,43	-27,29
1035,626	-27,83
1035,822	-26,92
1036,019	-27,69
1036,215	-31,95
1036,411	-32,54
1036,607	-34,45
1036,803	-37,53
1037	-37,87
1037,196	-39,32
1037,392	-38,2
1037,588	-40,22
1037,784	-38,16
1037,98	-39,51
1038,176	-41,83
1038,372	-42,29
1038,568	-39,32
1038,764	-38,56
1038,96	-36,48
1039,156	-37,96
1039,352	-41,21
1039,547	-39,39
1039,743	-38,92
1039,939	-37,45
1040,135	-36,65
1040,331	-38,8
1040,526	-35,5
1040,722	-37,24
1040,918	-37,79
1041,113	-40,18
1041,309	-39,82
1041,505	-42,34
1041,7	-41,67
1041,896	-41,12
1042,091	-40,11
1042,287	-38,05
1042,482	-37
1042,678	-36,53
1042,873	-35,02
1043,069	-36,79
1043,264	-35,59
1043,459	-34,72
1043,655	-33,31
1043,85	-34,59
1044,045	-33,02
1044,24	-31,28
1044,436	-28,45
1044,631	-30,11
1044,826	-29,72
1045,021	-32,91
1045,216	-30,93
