Data from FLMT021711__0__17-53-08-159.txt Node

Date: Tue Nov 05 17:53:08 CET 2024
User: Etudiants TP
Spectrometer: FLMT02171
Trigger mode: 0
Integration Time (sec): 1.000000E-1
Scans to average: 5
Electric dark correction enabled: true
Nonlinearity correction enabled: false
Boxcar width: 15
XAxis mode: Wavelengths
Number of Pixels in Spectrum: 3648
>>>>>Begin Spectral Data<<<<<
194.658	-60.26
194.923	-59.08
195.188	-53.63
195.453	-52.51
195.717	-47.18
195.982	-45.38
196.247	-44.75
196.512	-47.45
196.777	-46.59
197.042	-45.58
197.307	-45.17
197.572	-40.32
197.837	-41.35
198.101	-37.86
198.366	-35.75
198.631	-33.8
198.896	-27.84
199.161	-21.22
199.425	-14.44
199.69	-3.59
199.955	-4.5
200.22	-8.36
200.484	-8.8
200.749	-10.05
201.014	-7.72
201.278	-6.94
201.543	-5.3
201.807	-6.16
202.072	-4.51
202.337	-5.74
202.601	-6.23
202.866	-7.77
203.13	-6.22
203.395	-7.61
203.659	-7.68
203.924	-8.53
204.189	-7.69
204.453	-5.59
204.717	-2.53
204.982	-0.63
205.246	1.27
205.511	2.8
205.775	2.23
206.04	9.2
206.304	9.25
206.568	11.3
206.833	12.12
207.097	13.43
207.361	14.07
207.626	16.72
207.89	17.7
208.154	18.88
208.419	22.19
208.683	22.39
208.947	24.5
209.211	23.28
209.476	22.73
209.74	22.33
210.004	23.61
210.268	23.76
210.532	25.72
210.796	26.74
211.061	27.8
211.325	28.99
211.589	27.66
211.853	28.95
212.117	27.78
212.381	27.34
212.645	26.99
212.909	26.67
213.173	24.17
213.437	23.8
213.701	24.19
213.965	24.85
214.229	19.91
214.493	18.79
214.757	17.86
215.021	16.94
215.285	20.25
215.549	22.24
215.813	21.46
216.077	19.37
216.34	21.13
216.604	20.1
216.868	20.57
217.132	19.37
217.396	18.81
217.659	19.01
217.923	14.87
218.187	14.43
218.451	13.4
218.714	11.62
218.978	11.13
219.242	13.41
219.505	13.63
219.769	16.04
220.033	16.33
220.296	18.21
220.56	19.34
220.824	17.03
221.087	17.93
221.351	17.34
221.614	17.65
221.878	18.08
222.142	16.08
222.405	15.4
222.669	17.24
222.932	13.2
223.196	10.9
223.459	7.8
223.722	8.89
223.986	6.86
224.249	5.92
224.513	5.37
224.776	4.9
225.04	4.67
225.303	5.12
225.566	4.84
225.83	6.76
226.093	10.73
226.356	8.14
226.62	7.41
226.883	9.98
227.146	10.87
227.409	10.25
227.673	7.62
227.936	6.29
228.199	5.8
228.462	4.1
228.725	3.22
228.989	3.79
229.252	5.02
229.515	11.14
229.778	9.1
230.041	7.78
230.304	5.05
230.567	7.09
230.83	5.73
231.093	8.21
231.356	8.89
231.619	14.31
231.882	12.48
232.145	14.81
232.408	13.48
232.671	13.19
232.934	12.83
233.197	11.84
233.46	10.91
233.723	12.6
233.986	11.28
234.249	8.76
234.512	12.03
234.775	16.36
235.037	14.15
235.3	13.71
235.563	12.63
235.826	14.88
236.089	16.69
236.351	15.92
236.614	19.24
236.877	19.78
237.14	21.57
237.402	20.77
237.665	13.52
237.928	13.71
238.19	13.13
238.453	16.06
238.716	14.83
238.978	14.64
239.241	13.13
239.503	14.78
239.766	9.98
240.029	8.57
240.291	11.65
240.554	11.05
240.816	10.29
241.079	11.04
241.341	10.36
241.604	9.58
241.866	6.6
242.129	7.7
242.391	10.01
242.653	8.47
242.916	6.97
243.178	7.04
243.441	7.83
243.703	6.86
243.965	4.42
244.228	4.74
244.49	4.94
244.752	4.7
245.015	4.87
245.277	7.37
245.539	6.62
245.801	9.03
246.064	8.85
246.326	8.68
246.588	9.36
246.85	10.92
247.112	11.34
247.374	13.04
247.637	16.44
247.899	15.98
248.161	17.24
248.423	12.27
248.685	15.02
248.947	15.49
249.209	16.01
249.471	16.29
249.733	17.51
249.995	15.03
250.257	14.16
250.519	11.66
250.781	14.96
251.043	12.88
251.305	15.02
251.567	15.38
251.829	17.77
252.091	18.14
252.353	12.9
252.615	13.42
252.876	10.07
253.138	9.6
253.4	5.45
253.662	5.42
253.924	7.49
254.185	8.96
254.447	8.85
254.709	8.52
254.971	9.39
255.232	11.22
255.494	10.11
255.756	6.75
256.017	6.44
256.279	7.92
256.541	8.27
256.802	7.88
257.064	8.78
257.326	7.15
257.587	9.09
257.849	10.31
258.11	14.74
258.372	15.54
258.633	18.2
258.895	16.94
259.156	16.52
259.418	14.6
259.679	11.35
259.941	8.9
260.202	10.12
260.464	13.54
260.725	12.23
260.987	12.63
261.248	10.85
261.509	12.19
261.771	10.83
262.032	11.95
262.293	11.48
262.555	11.61
262.816	9.43
263.077	7.2
263.338	5.16
263.6	5.57
263.861	5.11
264.122	5.06
264.383	7.02
264.645	8.1
264.906	6.5
265.167	5.67
265.428	5.22
265.689	6.49
265.95	4.43
266.211	5.16
266.473	4.57
266.734	0.76
266.995	-1.17
267.256	-0.21
267.517	3.1
267.778	6.63
268.039	6.82
268.3	6.54
268.561	5.48
268.822	9.54
269.083	8.43
269.344	8.08
269.604	6.5
269.865	8.42
270.126	3.95
270.387	5.03
270.648	6.11
270.909	6.07
271.17	4.87
271.43	0.41
271.691	-1.41
271.952	-1.63
272.213	0.23
272.473	-3.38
272.734	-2.36
272.995	-0.45
273.256	0.34
273.516	3.48
273.777	0.37
274.038	2.16
274.298	-0.62
274.559	-0.79
274.82	3.74
275.08	5.38
275.341	7
275.601	4.51
275.862	3.6
276.122	4.63
276.383	5.2
276.643	5.77
276.904	4
277.164	6.67
277.425	7.22
277.685	11.19
277.946	11.62
278.206	14.7
278.467	15.93
278.727	15.81
278.987	14.31
279.248	14.66
279.508	17.6
279.768	20.05
280.029	21.24
280.289	18.93
280.549	17.99
280.81	17.8
281.07	16.99
281.33	18.68
281.59	16.95
281.851	18.83
282.111	17.56
282.371	18.59
282.631	19.29
282.891	16.47
283.151	14.34
283.412	11.87
283.672	11.22
283.932	11.16
284.192	12.22
284.452	10.72
284.712	8.63
284.972	7.04
285.232	3.39
285.492	6.15
285.752	3.27
286.012	7.98
286.272	8.93
286.532	5.4
286.792	6.44
287.052	9.44
287.312	9.49
287.571	8.22
287.831	8.01
288.091	4.98
288.351	5.05
288.611	8.42
288.871	8.59
289.13	8.37
289.39	3.48
289.65	5.37
289.91	2.79
290.17	5.29
290.429	6.51
290.689	4.47
290.949	2.69
291.208	5.37
291.468	8.58
291.728	9.99
291.987	11.1
292.247	9.61
292.506	11.31
292.766	14.1
293.026	13.83
293.285	16.05
293.545	17.87
293.804	18.89
294.064	14.34
294.323	11.9
294.583	14.51
294.842	14.37
295.102	15.28
295.361	16.45
295.621	17.41
295.88	18.03
296.139	18.49
296.399	20.01
296.658	14.95
296.917	13.63
297.177	10.71
297.436	13.55
297.695	10.93
297.955	13.42
298.214	11.65
298.473	12.63
298.732	15.37
298.992	19.26
299.251	17.63
299.51	14.24
299.769	15.82
300.028	14.81
300.287	15.1
300.547	15.21
300.806	13.99
301.065	16.85
301.324	18.25
301.583	13.08
301.842	9.97
302.101	9.36
302.36	10.9
302.619	9.22
302.878	8.82
303.137	6.28
303.396	6.96
303.655	8.5
303.914	5.38
304.173	6.17
304.432	5.45
304.691	9.6
304.95	8.61
305.208	13.59
305.467	13.32
305.726	13.51
305.985	14.18
306.244	16.22
306.503	15.82
306.761	13.67
307.02	10.28
307.279	10.13
307.537	10.49
307.796	6.92
308.055	5.39
308.314	6.37
308.572	4.18
308.831	5.11
309.09	5.22
309.348	5.56
309.607	6.06
309.865	9.38
310.124	8.34
310.382	8.9
310.641	10.11
310.9	8.07
311.158	9.51
311.417	8.51
311.675	8.86
311.933	10.61
312.192	11.31
312.45	11.45
312.709	9.98
312.967	9.62
313.226	8.92
313.484	8.99
313.742	7.67
314.001	5.6
314.259	3.61
314.517	4.12
314.776	7.44
315.034	10.29
315.292	9.93
315.55	8.7
315.809	8.8
316.067	9.33
316.325	7.46
316.583	8.59
316.841	7.08
317.1	4.78
317.358	2.07
317.616	1.14
317.874	-0.04
318.132	-0.22
318.39	-0.61
318.648	-1.38
318.906	-0.82
319.164	-1.21
319.422	-0.78
319.68	-2.62
319.938	-2.89
320.196	-3.38
320.454	-1.86
320.712	-1.7
320.97	-2.62
321.228	-5.01
321.486	-3.99
321.744	-2.37
322.002	0.85
322.26	-0.21
322.517	-0.27
322.775	-4.73
323.033	-6.57
323.291	-5.29
323.549	-3.88
323.806	-2.8
324.064	-1.93
324.322	-0.98
324.58	-2.3
324.837	-0.22
325.095	-1.99
325.353	0.28
325.61	3.13
325.868	2.64
326.126	4.98
326.383	3.74
326.641	3.42
326.898	5.2
327.156	5.22
327.413	5.02
327.671	5.9
327.928	8.82
328.186	10.04
328.443	8.15
328.701	12.12
328.958	15.13
329.216	16.45
329.473	15.78
329.731	16.77
329.988	15.06
330.245	16.9
330.503	17.27
330.76	17.84
331.017	19.77
331.275	17.69
331.532	18.56
331.789	16.62
332.047	15.86
332.304	12.59
332.561	14.31
332.818	13.6
333.076	15.23
333.333	15.02
333.59	14.97
333.847	16.29
334.104	15.23
334.361	14
334.618	12.96
334.876	10.2
335.133	10.12
335.39	8.26
335.647	9.1
335.904	5.77
336.161	2.89
336.418	3.62
336.675	0.4
336.932	0.75
337.189	-1.12
337.446	-0.66
337.703	-2.13
337.96	-5.44
338.216	-5.13
338.473	-7.33
338.73	-5.57
338.987	-6.54
339.244	-2.76
339.501	-6.42
339.757	-4.05
340.014	-2.7
340.271	-0.01
340.528	-0.49
340.785	3.01
341.041	3.13
341.298	1.77
341.555	0.85
341.811	0.25
342.068	-3.15
342.325	-2.76
342.581	0.03
342.838	1.93
343.094	2.19
343.351	2.63
343.608	-0.55
343.864	1.45
344.121	3.94
344.377	2.78
344.634	1.44
344.89	-0.26
345.147	0.91
345.403	-0.96
345.66	-1.47
345.916	1.29
346.172	-0.73
346.429	-1.13
346.685	-2.76
346.942	-1.43
347.198	-5.07
347.454	-1.93
347.711	-2.26
347.967	-5.31
348.223	-4.04
348.48	-5.11
348.736	-2.73
348.992	-3.27
349.248	-2.01
349.504	-2.12
349.761	-1.41
350.017	0.67
350.273	1.32
350.529	0.05
350.785	-0.45
351.041	-1.48
351.297	0.68
351.554	1.24
351.81	-0.87
352.066	-2.93
352.322	-1.82
352.578	-1.14
352.834	-0.69
353.09	-0.52
353.346	0.68
353.602	-0.19
353.858	-1.16
354.114	-1.21
354.369	0.6
354.625	2.16
354.881	-0.94
355.137	1.4
355.393	1.33
355.649	2.09
355.905	2.96
356.16	1.61
356.416	2.15
356.672	-5.18
356.928	-4.67
357.183	-4.82
357.439	-4.58
357.695	-6.9
357.951	-2.38
358.206	-2.59
358.462	-3.38
358.718	-5.47
358.973	-5.34
359.229	-5.62
359.484	-5.63
359.74	-2.03
359.996	-1.3
360.251	1.3
360.507	1.12
360.762	0.04
361.018	2.26
361.273	0.18
361.529	1.67
361.784	1.75
362.04	2.55
362.295	0.59
362.55	1.41
362.806	5.42
363.061	5.96
363.316	6.68
363.572	5.93
363.827	7.62
364.082	5.37
364.338	6.23
364.593	7.74
364.848	8.98
365.104	8.93
365.359	10.15
365.614	11.31
365.869	8.29
366.124	9.15
366.38	8.37
366.635	10.06
366.89	10.93
367.145	9.41
367.4	12.9
367.655	11.97
367.91	12.54
368.165	9.77
368.42	7.75
368.675	9.41
368.93	8.89
369.185	7
369.44	5.91
369.695	7.66
369.95	7.32
370.205	7.97
370.46	6.79
370.715	5.55
370.97	5.66
371.225	4.47
371.48	5.75
371.734	5.57
371.989	8.55
372.244	8.31
372.499	10.38
372.754	9.27
373.008	5.96
373.263	3.45
373.518	5.39
373.773	3.22
374.027	0.28
374.282	3.06
374.537	4.34
374.791	6.23
375.046	6.36
375.301	4.77
375.555	2.65
375.81	3.91
376.064	5.14
376.319	8.26
376.573	6.87
376.828	3.71
377.082	7.57
377.337	5.31
377.591	2.14
377.846	2.64
378.1	4.51
378.355	4
378.609	3.86
378.863	0.49
379.118	2.27
379.372	0.72
379.627	-0.29
379.881	-3.72
380.135	-3.16
380.389	-4.4
380.644	-3.83
380.898	-2.7
381.152	-1.89
381.407	-3.16
381.661	-1.22
381.915	1.67
382.169	1.69
382.423	-0.32
382.677	-3.55
382.932	-2.59
383.186	-1.63
383.44	-1.23
383.694	1.32
383.948	-1.57
384.202	-3.58
384.456	-1.38
384.71	0.46
384.964	-0.14
385.218	2.58
385.472	4.1
385.726	2.99
385.98	2.04
386.234	2.91
386.488	-1.04
386.742	1.12
386.996	-1.13
387.249	0.55
387.503	2.64
387.757	4.91
388.011	5.96
388.265	7.4
388.518	8.8
388.772	10.96
389.026	11.77
389.28	9.3
389.533	8.74
389.787	11.4
390.041	9.36
390.295	11
390.548	10.4
390.802	12.33
391.055	11.87
391.309	12.13
391.563	9.16
391.816	11.05
392.07	11.53
392.323	12.36
392.577	11.91
392.83	12.98
393.084	18.5
393.337	21.15
393.591	22.89
393.844	24.31
394.098	26.89
394.351	31.67
394.604	33.01
394.858	35.03
395.111	34.32
395.364	31.32
395.618	32.48
395.871	29.5
396.124	28.01
396.378	26.38
396.631	24.78
396.884	22.9
397.137	23.64
397.391	25.35
397.644	21.27
397.897	22.13
398.15	23.1
398.403	27.37
398.657	25.76
398.91	24.31
399.163	25.18
399.416	24.35
399.669	23.7
399.922	22.21
400.175	19.37
400.428	19.63
400.681	19.36
400.934	14.21
401.187	12.85
401.44	12.39
401.693	9.62
401.946	6.16
402.199	2.18
402.452	0.93
402.704	-2.9
402.957	-3.56
403.21	-1.66
403.463	-2.33
403.716	-1.38
403.969	0
404.221	-0.75
404.474	1.63
404.727	4.59
404.98	7.91
405.232	8.12
405.485	10.58
405.738	11.4
405.99	11.5
406.243	10.67
406.496	14.47
406.748	14.95
407.001	13.48
407.253	14
407.506	13.49
407.759	15.39
408.011	12.8
408.264	13.47
408.516	13.08
408.769	12.43
409.021	14.24
409.274	13.65
409.526	16.18
409.778	16.68
410.031	20.02
410.283	20.23
410.536	25.36
410.788	24.49
411.04	24.45
411.293	24.77
411.545	25.64
411.797	23.64
412.049	23.23
412.302	24.22
412.554	25.36
412.806	23.03
413.058	20.17
413.311	19.62
413.563	19.02
413.815	18.14
414.067	15.99
414.319	13.85
414.571	14.04
414.823	11.83
415.075	11.58
415.328	11.35
415.58	14.17
415.832	17.87
416.084	18.81
416.336	18.29
416.588	21.59
416.84	19.39
417.091	23.14
417.343	18.93
417.595	19.05
417.847	18.66
418.099	19.25
418.351	18.21
418.603	20.29
418.855	20.94
419.106	22.01
419.358	21.84
419.61	22.32
419.862	24.19
420.114	21.94
420.365	21.33
420.617	21.7
420.869	21.11
421.12	21.39
421.372	21.85
421.624	21.37
421.875	23.01
422.127	19.78
422.379	21.14
422.63	25.1
422.882	23.92
423.133	25.34
423.385	23.96
423.636	24.52
423.888	25.7
424.139	27.85
424.391	24.87
424.642	24.39
424.894	21.8
425.145	23.3
425.396	22.99
425.648	25.71
425.899	23.58
426.151	24.11
426.402	23.03
426.653	23.24
426.905	22.61
427.156	21.27
427.407	20.78
427.658	19.98
427.91	18.43
428.161	17.86
428.412	19.54
428.663	20.57
428.914	21.12
429.166	22.38
429.417	23.5
429.668	22.78
429.919	20.41
430.17	18.5
430.421	17.93
430.672	21.27
430.923	21.32
431.174	20.58
431.425	20.12
431.676	19.6
431.927	16.05
432.178	17.73
432.429	18.74
432.68	19.42
432.931	22.76
433.182	24.95
433.433	22.41
433.683	25.47
433.934	24.8
434.185	23.58
434.436	22.78
434.687	23.79
434.937	26
435.188	25.62
435.439	25.92
435.69	27.55
435.94	25.89
436.191	26.31
436.442	27.18
436.692	25.73
436.943	23.41
437.194	21.96
437.444	23.72
437.695	29.04
437.945	31.27
438.196	30.38
438.447	28.62
438.697	28.63
438.948	27.62
439.198	25.74
439.449	22.79
439.699	25.79
439.949	26.11
440.2	25.59
440.45	26.81
440.701	25.21
440.951	25.23
441.201	26.3
441.452	24.34
441.702	24.61
441.952	27.61
442.203	28.37
442.453	27.03
442.703	27.09
442.953	28.35
443.204	30.03
443.454	29.07
443.704	31.68
443.954	29.94
444.204	31.25
444.455	34.07
444.705	36.83
444.955	38.24
445.205	37.76
445.455	36.31
445.705	36.3
445.955	37.62
446.205	38.36
446.455	39.56
446.705	42.3
446.955	44.11
447.205	45.71
447.455	48.4
447.705	47.81
447.955	47.9
448.205	47.4
448.454	49.01
448.704	51.44
448.954	51.3
449.204	52.75
449.454	54.08
449.704	52.93
449.953	54.22
450.203	58.09
450.453	58.16
450.703	61.38
450.952	61.18
451.202	63.68
451.452	63.49
451.701	68.34
451.951	71.82
452.201	71.8
452.45	71.59
452.7	73.58
452.949	74.09
453.199	74.59
453.448	77.51
453.698	80.14
453.947	80.55
454.197	81.63
454.446	80.86
454.696	84.18
454.945	85.97
455.195	84.08
455.444	84.94
455.693	89.84
455.943	90.3
456.192	90.34
456.442	91.2
456.691	90.8
456.94	90.33
457.189	89.14
457.439	92.71
457.688	94.89
457.937	92.8
458.186	93.74
458.436	93.45
458.685	94.73
458.934	93.57
459.183	93.64
459.432	93.82
459.681	93.22
459.93	92.15
460.179	92.24
460.429	91.55
460.678	94.86
460.927	99
461.176	97.86
461.425	96.41
461.674	99.07
461.923	99.42
462.172	98.5
462.42	97.96
462.669	99.63
462.918	98.98
463.167	99.34
463.416	96.03
463.665	96.22
463.914	95.79
464.162	92.52
464.411	94.57
464.66	98.14
464.909	96.96
465.158	95.81
465.406	95.35
465.655	98.65
465.904	100.46
466.152	101.46
466.401	101.14
466.65	103.93
466.898	102.2
467.147	98.93
467.395	99.15
467.644	101.17
467.893	100.74
468.141	99.04
468.39	95.84
468.638	92.54
468.887	90.03
469.135	88.67
469.384	88.56
469.632	89.44
469.88	89.01
470.129	89.9
470.377	86.28
470.626	89.24
470.874	91.51
471.122	91.96
471.371	90.41
471.619	90.26
471.867	93.72
472.115	93.34
472.364	91.04
472.612	94.11
472.86	92.3
473.108	91.56
473.356	90.64
473.605	89.65
473.853	85.86
474.101	84.87
474.349	83.09
474.597	86.47
474.845	84.94
475.093	82.77
475.341	80.41
475.589	80.3
475.837	82.32
476.085	83.61
476.333	82.33
476.581	84.71
476.829	85.25
477.077	87.1
477.325	85.62
477.573	88.21
477.821	86.13
478.069	88.54
478.317	87.2
478.564	89.33
478.812	86.82
479.06	85.98
479.308	85.33
479.555	84.17
479.803	82.9
480.051	84.22
480.299	82.86
480.546	84.19
480.794	82.06
481.042	81.61
481.289	80.35
481.537	81.95
481.784	82.46
482.032	85.03
482.28	84.3
482.527	83.92
482.775	83.72
483.022	85.26
483.27	86.5
483.517	89.1
483.765	87.06
484.012	86.6
484.259	84.78
484.507	88
484.754	87.09
485.002	87.09
485.249	86.71
485.496	89.1
485.744	87.18
485.991	86.05
486.238	83.25
486.486	86.52
486.733	88.72
486.98	91.63
487.227	90.68
487.474	92.93
487.722	95.38
487.969	94
488.216	94.24
488.463	95.13
488.71	94.76
488.957	93.81
489.204	93.94
489.451	94.89
489.699	94.35
489.946	91.02
490.193	91.7
490.44	93.92
490.687	95.67
490.934	93.81
491.18	90.51
491.427	93.72
491.674	96.88
491.921	98.99
492.168	98.9
492.415	98.04
492.662	100
492.909	101.84
493.155	101.19
493.402	101.82
493.649	102.75
493.896	104.18
494.142	102.49
494.389	101.6
494.636	100.6
494.883	98.62
495.129	97.52
495.376	96.87
495.623	101.28
495.869	103.5
496.116	105
496.362	106.36
496.609	110.1
496.855	115.67
497.102	115.79
497.348	115.63
497.595	119.04
497.841	123.99
498.088	122.18
498.334	122.07
498.581	122.89
498.827	123.99
499.074	125.15
499.32	127.73
499.566	131.66
499.813	130.9
500.059	128.93
500.305	129.59
500.552	129.43
500.798	129.99
501.044	133.6
501.29	132.85
501.537	130.78
501.783	133.49
502.029	138.57
502.275	138.38
502.521	140.18
502.767	141.15
503.013	144
503.26	140.58
503.506	138.67
503.752	141.97
503.998	141.05
504.244	142.46
504.49	140.65
504.736	142.3
504.982	142.85
505.228	145.13
505.474	145.86
505.72	148.02
505.966	148.32
506.211	151.47
506.457	152.45
506.703	150.84
506.949	149.58
507.195	147.51
507.441	146.17
507.686	150.45
507.932	150.58
508.178	152.15
508.424	151.23
508.669	150.02
508.915	151.84
509.161	154.43
509.406	156.39
509.652	154.58
509.898	157.04
510.143	157.12
510.389	156.38
510.634	152.31
510.88	157.35
511.125	159.58
511.371	158.55
511.616	160.75
511.862	158.96
512.107	157.38
512.353	158.93
512.598	159.17
512.844	157.6
513.089	154.63
513.335	156.96
513.58	155.79
513.825	156.23
514.071	156.07
514.316	155.28
514.561	155.55
514.806	154.54
515.052	156.2
515.297	155.43
515.542	156.81
515.787	158.11
516.033	160.54
516.278	162.25
516.523	162.59
516.768	162.96
517.013	161.65
517.258	163.36
517.503	163.42
517.748	166.14
517.993	167.34
518.238	169.14
518.483	167.11
518.728	167.22
518.973	167.11
519.218	167.13
519.463	167.65
519.708	166.44
519.953	165.43
520.198	166.61
520.443	169.36
520.688	173.86
520.933	172.8
521.177	173.41
521.422	170.91
521.667	174.11
521.912	176.02
522.157	172.99
522.401	177.44
522.646	179.17
522.891	180.84
523.135	181.19
523.38	180.64
523.625	179.46
523.869	181.53
524.114	182.66
524.358	182.56
524.603	182.4
524.848	180.3
525.092	180.38
525.337	181.43
525.581	184.03
525.826	184.46
526.07	186.31
526.315	187.91
526.559	187.97
526.803	186.46
527.048	191
527.292	193.41
527.537	194.1
527.781	194.55
528.025	192.2
528.269	193.78
528.514	194.87
528.758	193.35
529.002	195.05
529.247	197.9
529.491	197.82
529.735	203.81
529.979	202.76
530.223	203.48
530.467	201.04
530.712	199.1
530.956	199.58
531.2	200.79
531.444	198.84
531.688	201.06
531.932	200.51
532.176	203.33
532.42	204.57
532.664	205.18
532.908	204.5
533.152	201.8
533.396	202.62
533.64	201.07
533.884	199.01
534.128	198.15
534.371	200.32
534.615	200.8
534.859	199.05
535.103	198.42
535.347	198.77
535.59	199.78
535.834	195.27
536.078	196.69
536.322	200.15
536.565	204.35
536.809	203.19
537.053	205
537.296	203.93
537.54	204.05
537.784	203.13
538.027	204.88
538.271	205.34
538.514	203.62
538.758	204.87
539.001	203.37
539.245	203.18
539.488	204.34
539.732	204.81
539.975	204.81
540.219	206.54
540.462	206.43
540.706	209.82
540.949	208.71
541.192	209.82
541.436	216.03
541.679	220.79
541.922	222.87
542.166	218.79
542.409	219.97
542.652	221.56
542.895	222.43
543.139	223.71
543.382	229
543.625	227.86
543.868	227.29
544.111	225.77
544.354	223.63
544.598	223.53
544.841	224.16
545.084	223.58
545.327	224.04
545.57	225.74
545.813	228.45
546.056	230.05
546.299	229.54
546.542	233.37
546.785	236.04
547.028	237.23
547.271	236.6
547.514	236.78
547.756	235.03
547.999	235.53
548.242	236.87
548.485	236.02
548.728	237.51
548.971	233.59
549.213	234.36
549.456	233.17
549.699	235.38
549.942	236.92
550.184	236.6
550.427	236.61
550.67	238.04
550.912	232.99
551.155	235.59
551.398	235.61
551.64	235.92
551.883	237.47
552.125	236.49
552.368	236.89
552.61	234.12
552.853	236.23
553.095	236.02
553.338	236.62
553.58	237.12
553.823	237.03
554.065	238.87
554.308	235.08
554.55	233.55
554.792	232
555.035	231.69
555.277	231.35
555.519	232.02
555.762	229.69
556.004	231.7
556.246	229.66
556.488	231.73
556.731	229.56
556.973	231.84
557.215	229.81
557.457	231.16
557.699	232.93
557.941	229.83
558.183	228.96
558.426	233.06
558.668	230.66
558.91	232.29
559.152	232.06
559.394	231.72
559.636	234.65
559.878	236.18
560.12	238.35
560.362	240.74
560.604	240.39
560.845	239.82
561.087	239.33
561.329	241.77
561.571	239.52
561.813	241.11
562.055	241.32
562.297	243.61
562.538	245.88
562.78	249.46
563.022	248.94
563.264	250.7
563.505	251.28
563.747	252.4
563.989	249.15
564.23	250.04
564.472	247.35
564.714	251.9
564.955	253.4
565.197	252.53
565.438	258.07
565.68	262.42
565.921	262.26
566.163	264.97
566.404	265.12
566.646	268.3
566.887	270.64
567.129	271.94
567.37	271.92
567.612	274.61
567.853	272.5
568.094	274.91
568.336	275.96
568.577	278.21
568.818	280.12
569.06	278.82
569.301	278.34
569.542	279.55
569.783	282.52
570.025	282.91
570.266	284.97
570.507	287.4
570.748	288.74
570.989	291.39
571.23	293.06
571.472	294.98
571.713	293.43
571.954	296.66
572.195	295.78
572.436	298.66
572.677	301.81
572.918	303.14
573.159	301.51
573.4	299.66
573.641	299.68
573.882	302.3
574.123	300.29
574.364	297.21
574.604	298.54
574.845	296.78
575.086	298.25
575.327	299.44
575.568	298.11
575.809	297.35
576.049	297.12
576.29	294.91
576.531	300.14
576.771	304.26
577.012	307.74
577.253	307.25
577.494	308.07
577.734	306.84
577.975	307.99
578.215	307.29
578.456	305.39
578.697	307.45
578.937	310.03
579.178	311.59
579.418	311.22
579.659	310.66
579.899	306.68
580.14	304.96
580.38	305.12
580.62	305.99
580.861	310.59
581.101	310.87
581.342	311.4
581.582	308.14
581.822	312.01
582.063	311.47
582.303	313.51
582.543	312.61
582.783	315
583.024	317.52
583.264	321.16
583.504	320.18
583.744	322.09
583.984	320.55
584.224	320.23
584.465	318.15
584.705	318.64
584.945	318.92
585.185	319.85
585.425	320.72
585.665	321.84
585.905	323.12
586.145	323.74
586.385	322.29
586.625	324.69
586.865	324.48
587.105	323.93
587.345	325.76
587.585	327.8
587.824	325.63
588.064	324.47
588.304	321.91
588.544	322.14
588.784	319.96
589.024	324.47
589.263	323.29
589.503	321.49
589.743	324.17
589.982	324.36
590.222	323.83
590.462	323.61
590.701	322.5
590.941	326.25
591.181	325.79
591.42	325.9
591.66	329.13
591.899	334.77
592.139	334.77
592.378	336.61
592.618	336.66
592.857	336.41
593.097	336.89
593.336	337.57
593.576	337.28
593.815	338.67
594.055	339.29
594.294	339.94
594.533	341.69
594.773	341.38
595.012	342.77
595.251	344.48
595.491	349.1
595.73	353.36
595.969	355.05
596.208	357.93
596.447	362.43
596.687	364.64
596.926	369.25
597.165	367.23
597.404	370.42
597.643	370.39
597.882	368.31
598.121	370.8
598.36	372.9
598.599	375.47
598.838	376.98
599.077	373.45
599.316	372.35
599.555	371
599.794	372.61
600.033	374.33
600.272	376.49
600.511	374.96
600.75	376.78
600.989	378.59
601.228	379.34
601.466	379.96
601.705	382.52
601.944	384.59
602.183	388.35
602.422	388.13
602.66	388.24
602.899	387.34
603.138	387.81
603.376	388.58
603.615	389.25
603.854	386.5
604.092	386.65
604.331	386.2
604.569	387.46
604.808	385.95
605.047	387.37
605.285	388.9
605.524	388.54
605.762	385.54
606	385.8
606.239	385.81
606.477	383.9
606.716	380.96
606.954	381.09
607.193	378.39
607.431	375.1
607.669	372.44
607.908	372.83
608.146	372.97
608.384	371.31
608.622	371.08
608.861	370.12
609.099	367.64
609.337	366.02
609.575	364.11
609.813	363.08
610.052	362.19
610.29	356.42
610.528	352.02
610.766	349.98
611.004	349.27
611.242	348.32
611.48	346.77
611.718	342.42
611.956	340.85
612.194	338.46
612.432	337.19
612.67	335.3
612.908	335.2
613.146	332.24
613.384	330.85
613.621	328.67
613.859	330.52
614.097	328.2
614.335	329.04
614.573	328.87
614.811	329.86
615.048	329.73
615.286	330.07
615.524	328.72
615.761	324.62
615.999	323.05
616.237	320.53
616.474	321.33
616.712	320.8
616.95	317.89
617.187	317.07
617.425	317.41
617.662	318.97
617.9	317.75
618.137	313.58
618.375	310.16
618.612	306.84
618.85	307.32
619.087	309.35
619.325	308.56
619.562	306.82
619.799	304.01
620.037	303.39
620.274	301.55
620.511	303.01
620.749	298.75
620.986	296.03
621.223	292.85
621.461	292.58
621.698	292.03
621.935	290.06
622.172	286.96
622.409	287.25
622.647	284.96
622.884	281.87
623.121	284.03
623.358	282.04
623.595	280.29
623.832	280.18
624.069	278.22
624.306	278.39
624.543	278.91
624.78	279.02
625.017	278.82
625.254	280.17
625.491	282.05
625.728	283.71
625.965	282.83
626.202	280.61
626.438	276.97
626.675	276.21
626.912	278.33
627.149	278.74
627.386	278.36
627.622	274.34
627.859	273.13
628.096	273.35
628.333	273.31
628.569	273.32
628.806	273.61
629.043	271.47
629.279	271.75
629.516	272.96
629.752	268.21
629.989	268.84
630.225	265.36
630.462	264.56
630.699	263.16
630.935	264.07
631.171	260.01
631.408	259.46
631.644	256.24
631.881	253.11
632.117	249.77
632.354	248.78
632.59	246.56
632.826	244.61
633.063	241.46
633.299	243.13
633.535	241.27
633.771	240
634.008	240.62
634.244	237.56
634.48	235.27
634.716	235.12
634.953	234.63
635.189	233.46
635.425	234.45
635.661	237.18
635.897	235.65
636.133	235.01
636.369	233.27
636.605	228.49
636.841	227.43
637.077	228.77
637.313	227.02
637.549	227.99
637.785	225.68
638.021	226.46
638.257	223.98
638.493	224.66
638.729	222.29
638.965	225.41
639.2	225.58
639.436	222.98
639.672	220.96
639.908	218.02
640.144	221.31
640.379	224.38
640.615	220.45
640.851	220.77
641.086	221.92
641.322	218.97
641.558	218.82
641.793	218.42
642.029	214.94
642.264	213.11
642.5	211.21
642.736	206.69
642.971	204.97
643.207	201.44
643.442	198.08
643.678	198.67
643.913	199.52
644.148	197.65
644.384	199.54
644.619	198.68
644.855	199.11
645.09	199.49
645.325	197.69
645.561	196.89
645.796	194.86
646.031	196.75
646.266	192.12
646.502	190.02
646.737	192.36
646.972	192.56
647.207	191.79
647.442	188.16
647.678	183.88
647.913	185.92
648.148	187.3
648.383	184.43
648.618	182.73
648.853	182.69
649.088	183.4
649.323	185.23
649.558	186.37
649.793	186.34
650.028	185.4
650.263	181.74
650.498	183.65
650.733	183.14
650.968	180.47
651.202	182.91
651.437	179.92
651.672	174.48
651.907	172.67
652.142	171.26
652.376	171.39
652.611	172.57
652.846	173.57
653.081	172.41
653.315	170.23
653.55	171.38
653.785	169.82
654.019	169.07
654.254	166.32
654.488	167.61
654.723	163.71
654.958	160.11
655.192	157.77
655.427	153.08
655.661	155.2
655.896	157.74
656.13	158.67
656.364	154.69
656.599	152.37
656.833	153.54
657.068	155.78
657.302	156.04
657.536	153.99
657.771	154.65
658.005	154.46
658.239	154.28
658.474	149.4
658.708	150.42
658.942	150.03
659.176	147.74
659.41	144.58
659.645	142.18
659.879	140.22
660.113	136.05
660.347	134.29
660.581	131.67
660.815	129.34
661.049	127.4
661.283	124.97
661.517	122.99
661.751	120.45
661.985	119.91
662.219	120.88
662.453	119.59
662.687	119.83
662.921	115.78
663.155	114.38
663.389	107.17
663.622	105.26
663.856	105.3
664.09	101.11
664.324	97.94
664.558	98.43
664.791	96.57
665.025	95.4
665.259	94.65
665.492	94.07
665.726	97.5
665.96	96.63
666.193	94.43
666.427	95.87
666.661	95.11
666.894	91.83
667.128	91.17
667.361	93.26
667.595	92.34
667.828	91.31
668.062	90.67
668.295	90.67
668.529	90.41
668.762	90.26
668.995	89.34
669.229	92.57
669.462	93.05
669.695	92.67
669.929	90.68
670.162	91.42
670.395	88.63
670.629	91.13
670.862	93.81
671.095	90.88
671.328	92.34
671.561	89.47
671.795	87.54
672.028	89.76
672.261	89.93
672.494	90.78
672.727	87.58
672.96	87.16
673.193	86.45
673.426	88.4
673.659	88.9
673.892	88.81
674.125	88.66
674.358	87.01
674.591	84
674.824	84.19
675.057	82.71
675.29	81.39
675.523	82.85
675.755	81.18
675.988	81.9
676.221	84.32
676.454	80.27
676.687	80.96
676.919	78.82
677.152	78.45
677.385	76.76
677.617	75.53
677.85	74.81
678.083	72.51
678.315	73.5
678.548	69.47
678.78	67.88
679.013	67.94
679.246	65.51
679.478	65.85
679.711	63.09
679.943	65.36
680.175	61.43
680.408	63.75
680.64	61.1
680.873	61.01
681.105	61.37
681.338	64.69
681.57	63.98
681.802	66.98
682.034	65.12
682.267	68.03
682.499	68.37
682.731	64.77
682.964	63.25
683.196	61.84
683.428	59.7
683.66	59.37
683.892	61.69
684.124	62.9
684.356	65.64
684.589	65.33
684.821	65.66
685.053	65.55
685.285	65.24
685.517	66.18
685.749	67.22
685.981	68.37
686.213	68.31
686.445	70.4
686.676	66.75
686.908	67.06
687.14	65.3
687.372	66.63
687.604	62.49
687.836	63.48
688.068	61.23
688.299	59.9
688.531	57.4
688.763	61.76
688.995	58.5
689.226	62.07
689.458	59.12
689.69	57.36
689.921	56.09
690.153	55.91
690.384	56.32
690.616	54.6
690.848	54.6
691.079	49.87
691.311	49.16
691.542	45.92
691.774	44.18
692.005	45.23
692.237	46.89
692.468	45.07
692.699	43.82
692.931	44.29
693.162	42.26
693.393	42.07
693.625	39.6
693.856	40.6
694.087	40.32
694.319	41.23
694.55	39.92
694.781	38.4
695.012	37.68
695.243	35.68
695.475	36.33
695.706	36.58
695.937	34.73
696.168	32.99
696.399	29.89
696.63	30.46
696.861	31.37
697.092	36.95
697.323	39.98
697.554	40.6
697.785	41.43
698.016	43.1
698.247	42.58
698.478	42.66
698.709	42.65
698.94	44.74
699.171	44.72
699.401	40.91
699.632	43.62
699.863	41.39
700.094	41.29
700.325	44.38
700.555	43.9
700.786	45.06
701.017	45.3
701.247	44.59
701.478	43.87
701.709	44.36
701.939	44.85
702.17	46.27
702.401	49.45
702.631	50.21
702.862	46.59
703.092	42.26
703.323	45.15
703.553	46.51
703.784	46.11
704.014	45.28
704.244	40.61
704.475	38.62
704.705	38.11
704.936	37.35
705.166	35.45
705.396	35.01
705.627	35.2
705.857	36.01
706.087	36.12
706.317	33.18
706.548	30.19
706.778	28.56
707.008	28.72
707.238	28.03
707.468	25.5
707.698	24.44
707.928	23.14
708.158	20.32
708.389	19.71
708.619	17.52
708.849	14.81
709.079	16.1
709.309	13.83
709.539	11.31
709.768	9.84
709.998	13.93
710.228	13.46
710.458	13
710.688	10.13
710.918	9.62
711.148	9.54
711.378	10.03
711.607	9.61
711.837	10.4
712.067	10.61
712.297	10.5
712.526	11.61
712.756	11.78
712.986	7.73
713.215	5.43
713.445	5.26
713.674	8.04
713.904	7.31
714.134	11.02
714.363	9.16
714.593	8.21
714.822	7.71
715.052	7.09
715.281	9.22
715.511	7.73
715.74	8.73
715.969	9.55
716.199	7.23
716.428	7.18
716.657	6.52
716.887	8.39
717.116	5.32
717.345	7.13
717.575	6.34
717.804	6.4
718.033	7.04
718.262	5.74
718.492	5.29
718.721	5.89
718.95	5.08
719.179	3.01
719.408	3.26
719.637	0.03
719.866	-1.31
720.095	1.07
720.324	0.42
720.553	-0.87
720.782	-2.06
721.011	-1.67
721.24	-4.49
721.469	-4.61
721.698	-4.31
721.927	-3.72
722.156	-3.99
722.385	-5.14
722.613	-1.22
722.842	-0.68
723.071	1.42
723.3	3.85
723.529	4
723.757	6.01
723.986	3.57
724.215	2.52
724.443	2.71
724.672	4.55
724.901	5.58
725.129	5.47
725.358	8.51
725.586	6.25
725.815	4.74
726.043	3.53
726.272	3.52
726.5	3.12
726.729	4.44
726.957	0.78
727.186	-1.04
727.414	-0.01
727.642	1.2
727.871	2.56
728.099	1.62
728.327	1.26
728.556	3.15
728.784	4.9
729.012	2.61
729.241	4.44
729.469	3.7
729.697	1.45
729.925	2.22
730.153	0.47
730.381	0.11
730.61	-0.77
730.838	-3.54
731.066	-4.01
731.294	-3.32
731.522	-5.91
731.75	-10.35
731.978	-10.51
732.206	-11.17
732.434	-13.1
732.662	-11.4
732.89	-13
733.118	-13.06
733.346	-13.14
733.573	-13.58
733.801	-14.51
734.029	-7.67
734.257	-5.66
734.485	-2.41
734.712	-0.32
734.94	-2.45
735.168	0.11
735.396	0.41
735.623	-1.09
735.851	-1.09
736.078	1.71
736.306	1.49
736.534	1.67
736.761	1.62
736.989	-1.2
737.216	-2.37
737.444	-4.39
737.671	-3.84
737.899	0.5
738.126	0.32
738.354	0.49
738.581	1.85
738.809	4.09
739.036	1.44
739.263	2.53
739.491	0.72
739.718	1.43
739.945	6.58
740.173	7.8
740.4	7.54
740.627	6.17
740.854	6.62
741.081	4.17
741.309	2.87
741.536	-0.71
741.763	-1.55
741.99	0.57
742.217	1.18
742.444	0.03
742.671	1.76
742.898	0.81
743.125	-2.5
743.352	-3.64
743.579	-3.55
743.806	-3.46
744.033	-0.98
744.26	1.01
744.487	1.1
744.714	1.54
744.941	-0.51
745.167	3.05
745.394	2.1
745.621	1.55
745.848	1.4
746.075	4.52
746.301	6.17
746.528	10.4
746.755	7.88
746.981	7.47
747.208	9.53
747.435	12.31
747.661	14.31
747.888	16.32
748.114	14.69
748.341	17.29
748.567	19.01
748.794	16.25
749.02	14.76
749.247	11.61
749.473	12.47
749.7	11.93
749.926	12.57
750.152	17.64
750.379	17.61
750.605	16.85
750.831	16.44
751.058	17.3
751.284	14.93
751.51	16.47
751.737	18.08
751.963	16.61
752.189	14.83
752.415	14.41
752.641	14.86
752.867	15.24
753.094	12.71
753.32	12.37
753.546	11.06
753.772	12.98
753.998	10.2
754.224	7.94
754.45	6.08
754.676	5.13
754.902	4.24
755.128	4.39
755.354	2.84
755.579	3.61
755.805	6.03
756.031	4.51
756.257	4.38
756.483	3.12
756.709	2.02
756.934	2.13
757.16	-0.92
757.386	-1.29
757.612	-2.53
757.837	-4.32
758.063	-4.42
758.289	-1.21
758.514	-1.59
758.74	-4.8
758.965	-7.27
759.191	-5.14
759.416	-2.88
759.642	-1.61
759.868	-2.55
760.093	0.91
760.318	-1.64
760.544	-2.82
760.769	-4.18
760.995	-4.97
761.22	-4.87
761.445	-3.42
761.671	-1.18
761.896	1.66
762.121	2.11
762.347	1.94
762.572	-1.25
762.797	-2.47
763.022	-1.15
763.248	2.99
763.473	4.33
763.698	3.09
763.923	3.36
764.148	3.32
764.373	2.73
764.598	4.27
764.823	6.54
765.048	4.39
765.273	1.8
765.498	0.06
765.723	1.6
765.948	3.33
766.173	1.66
766.398	1.79
766.623	-1.72
766.848	-1.76
767.073	-4.02
767.298	-3.54
767.522	-2.76
767.747	-0.15
767.972	0.98
768.197	1.7
768.421	-0.34
768.646	-4
768.871	-8.32
769.095	-8.39
769.32	-7.29
769.545	-6.82
769.769	-6.49
769.994	-5.43
770.218	-8.63
770.443	-8.12
770.667	-5.61
770.892	-5.81
771.116	-6.56
771.341	-4.45
771.565	-5.39
771.79	-4.49
772.014	-4.65
772.238	-6.38
772.463	-3.97
772.687	-4.28
772.911	-3.75
773.136	-6.09
773.36	-5.44
773.584	-2.59
773.808	-4.56
774.033	-4.04
774.257	-3.62
774.481	-4.73
774.705	-7.38
774.929	-6.97
775.153	-6.89
775.377	-4.24
775.602	-4.56
775.826	-2.76
776.05	-0.82
776.274	-1.66
776.498	-1.67
776.722	-1.13
776.945	0.05
777.169	-0.45
777.393	-1.3
777.617	-2.56
777.841	-2.61
778.065	-1.41
778.289	-2.95
778.512	-3.21
778.736	-2.63
778.96	-3.38
779.184	0.12
779.407	-0.81
779.631	-1.39
779.855	-2.72
780.078	0.34
780.302	-2.81
780.526	-5.9
780.749	-4.88
780.973	-4.69
781.196	-4.51
781.42	-5.42
781.643	-3.48
781.867	-2.37
782.09	-6.09
782.314	-7.19
782.537	-6.35
782.76	-7.62
782.984	-7.07
783.207	-8.43
783.431	-8.28
783.654	-9.06
783.877	-12.7
784.1	-13.54
784.324	-15.16
784.547	-16.19
784.77	-19.39
784.993	-20.67
785.216	-21.62
785.44	-20.61
785.663	-23.02
785.886	-19.9
786.109	-20.77
786.332	-21.02
786.555	-19.62
786.778	-16.97
787.001	-17.75
787.224	-14.22
787.447	-12.09
787.67	-11.06
787.893	-10.5
788.116	-9.25
788.339	-8.56
788.561	-10.01
788.784	-14.76
789.007	-16.04
789.23	-18.05
789.453	-18.22
789.675	-19.19
789.898	-21.22
790.121	-22.98
790.344	-22.75
790.566	-21.91
790.789	-21.96
791.012	-21.3
791.234	-17.83
791.457	-14.66
791.679	-14.06
791.902	-13.51
792.124	-12.96
792.347	-14.59
792.569	-14.14
792.792	-17.19
793.014	-15.29
793.237	-13.19
793.459	-13.17
793.681	-13.94
793.904	-15.68
794.126	-17.74
794.348	-18.07
794.571	-16.68
794.793	-17.68
795.015	-18.25
795.237	-17.71
795.46	-15.56
795.682	-14.06
795.904	-10.01
796.126	-9.75
796.348	-10.27
796.57	-6.82
796.792	-5.69
797.014	-1.41
797.237	-0.27
797.459	0.47
797.681	3.93
797.903	2.07
798.124	2.07
798.346	12.91
798.568	15.88
798.79	19.11
799.012	20.9
799.234	23.15
799.456	23.76
799.678	24.78
799.899	22.73
800.121	20.32
800.343	19.4
800.565	18.77
800.786	20.39
801.008	21.78
801.23	20.94
801.451	22.06
801.673	18.88
801.895	17.79
802.116	19.24
802.338	19.02
802.559	19.39
802.781	17.22
803.002	19.23
803.224	21.06
803.445	17.98
803.667	19.23
803.888	17.03
804.109	17.04
804.331	17
804.552	16.25
804.773	19.15
804.995	16.99
805.216	3.75
805.437	0.47
805.658	-2.5
805.88	-4.14
806.101	-4.88
806.322	-4.93
806.543	-5
806.764	-6.39
806.985	-5.29
807.207	-3.48
807.428	-2.17
807.649	-5.03
807.87	-7.57
808.091	-5.01
808.312	-6.08
808.533	0.04
808.754	1.78
808.975	-0.68
809.195	0.71
809.416	0.89
809.637	0.51
809.858	-1.2
810.079	-3.25
810.3	0
810.52	-2.09
810.741	-2.89
810.962	-5.36
811.183	-5.86
811.403	-5.98
811.624	-7.98
811.845	-7.68
812.065	-6.77
812.286	-5.13
812.506	-5.38
812.727	-5.27
812.948	-3.96
813.168	-2.94
813.389	-3.36
813.609	-1.8
813.83	-3.02
814.05	-4.95
814.27	-6.29
814.491	-2.98
814.711	-2.72
814.931	-6.68
815.152	-5.9
815.372	-7.8
815.592	-7.88
815.813	-8.36
816.033	-10.63
816.253	-9.48
816.473	-10.48
816.694	-9.43
816.914	-7.7
817.134	-9.44
817.354	-11.02
817.574	-9.84
817.794	-9.1
818.014	-10.76
818.234	-11.88
818.454	-12.74
818.674	-14.43
818.894	-16.63
819.114	-13.91
819.334	-13.21
819.554	-11.36
819.774	-9.36
819.994	-11.96
820.214	-12.8
820.433	-13.77
820.653	-14.05
820.873	-13.09
821.093	-11.58
821.312	-13.88
821.532	-12.2
821.752	-8.64
821.972	-12.18
822.191	-10.78
822.411	-13.53
822.63	-12.36
822.85	-11.45
823.07	-14.29
823.289	-11.33
823.509	-12.92
823.728	-11.8
823.948	-12.45
824.167	-12.72
824.387	-14.4
824.606	-13.45
824.825	-13.42
825.045	-11.75
825.264	-11.17
825.483	-9.03
825.703	-5.13
825.922	-8.03
826.141	-8.84
826.361	-9.26
826.58	-12.75
826.799	-14.11
827.018	-13.25
827.237	-12.82
827.456	-11.48
827.676	-10.63
827.895	-10.99
828.114	-10.09
828.333	-8.54
828.552	-8.49
828.771	-5.72
828.99	-8.46
829.209	-6.91
829.428	-4.76
829.647	-5.02
829.866	-3.31
830.084	-5.11
830.303	-4.92
830.522	-4.36
830.741	-4.78
830.96	-3.94
831.179	-3.1
831.397	-3.53
831.616	-3.66
831.835	-4.15
832.053	-3.18
832.272	-3.27
832.491	-4.32
832.709	-4.52
832.928	-4.27
833.147	-4.97
833.365	-4.05
833.584	-0.55
833.802	3.04
834.021	3.36
834.239	4.96
834.458	2.89
834.676	0.51
834.894	0.64
835.113	-2.3
835.331	-4.73
835.55	-5.65
835.768	-4.9
835.986	-3.49
836.204	-6.26
836.423	-5.04
836.641	-5.59
836.859	-5.9
837.077	-5.02
837.296	-5.7
837.514	-5.77
837.732	-6.33
837.95	-6.19
838.168	-3.74
838.386	-4.88
838.604	-2.09
838.822	-1.74
839.04	-2.51
839.258	-2.03
839.476	-0.08
839.694	0.67
839.912	-0.36
840.13	-1.38
840.348	0.51
840.566	-4.05
840.783	-2.26
841.001	-4.04
841.219	-2.94
841.437	-1.04
841.655	-0.87
841.872	-0.14
842.09	0.99
842.308	0.9
842.525	1.42
842.743	0.91
842.961	-0.74
843.178	-4.04
843.396	0.22
843.613	1.45
843.831	2.66
844.048	2.54
844.266	1.72
844.483	2.09
844.701	0.81
844.918	-0.74
845.136	0.02
845.353	-3.04
845.57	-2.97
845.788	-0.66
846.005	-3.18
846.222	-4.6
846.439	-4.28
846.657	-3.78
846.874	-3.35
847.091	-5.44
847.308	-2.32
847.526	-3.55
847.743	-3.66
847.96	-4.67
848.177	-5.02
848.394	-4.76
848.611	-5.23
848.828	-5.45
849.045	-6.32
849.262	-6.26
849.479	-6.29
849.696	-5.91
849.913	-6.65
850.13	-12.43
850.347	-9.91
850.564	-9.58
850.78	-12.43
850.997	-13.63
851.214	-14.74
851.431	-13.42
851.647	-15.59
851.864	-15.1
852.081	-13.89
852.298	-17.64
852.514	-18.21
852.731	-17
852.948	-15.44
853.164	-14.77
853.381	-15.62
853.597	-16.98
853.814	-18.86
854.03	-23.44
854.247	-22.3
854.463	-21.96
854.68	-22.21
854.896	-21.4
855.113	-21.81
855.329	-21.34
855.545	-19.4
855.762	-17.9
855.978	-20.6
856.194	-22.67
856.411	-19.12
856.627	-17.21
856.843	-15.17
857.059	-13.12
857.275	-15.5
857.492	-13.1
857.708	-9.92
857.924	-7.81
858.14	-6.77
858.356	-7.34
858.572	-6.97
858.788	-7.78
859.004	-5.26
859.22	-7.79
859.436	-7.76
859.652	-10.61
859.868	-11.08
860.084	-9.93
860.3	-8.8
860.516	-8.88
860.731	-8.23
860.947	-10.99
861.163	-9.42
861.379	-8.38
861.595	-7.67
861.81	-6.66
862.026	-6.15
862.242	-7.21
862.457	-9.21
862.673	-8.6
862.889	-7.58
863.104	-7.68
863.32	-7.15
863.535	-7.42
863.751	-12.09
863.966	-9.68
864.182	-8.02
864.397	-8.87
864.613	-10.7
864.828	-12.41
865.044	-10.73
865.259	-9.46
865.474	-11.01
865.69	-8.24
865.905	-6.64
866.12	-9.21
866.336	-8.24
866.551	-7.52
866.766	-9.09
866.981	-9.01
867.196	-8.71
867.412	-7.05
867.627	-7.07
867.842	-8.23
868.057	-8.09
868.272	-7.88
868.487	-8.43
868.702	-10.67
868.917	-11.42
869.132	-9.82
869.347	-9.08
869.562	-10.51
869.777	-12.37
869.992	-13.97
870.207	-13.99
870.422	-14.29
870.636	-16.2
870.851	-19.71
871.066	-22.39
871.281	-22
871.495	-22.48
871.71	-20.26
871.925	-23.08
872.14	-22.4
872.354	-25.67
872.569	-26.48
872.783	-23.27
872.998	-22.89
873.213	-24.03
873.427	-21.1
873.642	-21.11
873.856	-20.14
874.071	-20.58
874.285	-21.58
874.5	-23.22
874.714	-25.22
874.928	-26.75
875.143	-27.67
875.357	-27.08
875.571	-28.19
875.786	-27.18
876	-24.16
876.214	-21.81
876.429	-23.45
876.643	-21.36
876.857	-20.02
877.071	-19.49
877.285	-19.91
877.499	-21.67
877.714	-18.97
877.928	-17.38
878.142	-18.54
878.356	-21.24
878.57	-20.51
878.784	-19.67
878.998	-19.74
879.212	-17.42
879.426	-20.33
879.639	-17.96
879.853	-19.32
880.067	-19.82
880.281	-21.15
880.495	-20.66
880.709	-18.74
880.922	-16.44
881.136	-14.74
881.35	-12.29
881.564	-12.16
881.777	-14.44
881.991	-13.88
882.205	-11.82
882.418	-13.25
882.632	-15.94
882.845	-16.54
883.059	-16.38
883.273	-16.95
883.486	-17.88
883.7	-15.52
883.913	-15.45
884.126	-12.32
884.34	-14.98
884.553	-17.09
884.767	-14.75
884.98	-14.81
885.193	-15.21
885.407	-15.2
885.62	-13.66
885.833	-16.72
886.046	-13.77
886.26	-15.26
886.473	-16.23
886.686	-16.93
886.899	-15.17
887.112	-16.44
887.326	-18.29
887.539	-19.28
887.752	-18.73
887.965	-21.09
888.178	-20.23
888.391	-19.97
888.604	-20.26
888.817	-21.32
889.03	-19.49
889.243	-20.7
889.455	-22.33
889.668	-20.43
889.881	-17.43
890.094	-18.29
890.307	-21.2
890.52	-20.18
890.732	-20.16
890.945	-18.76
891.158	-18.39
891.37	-18.61
891.583	-17.07
891.796	-14.56
892.008	-16.96
892.221	-16.88
892.434	-18.71
892.646	-20.61
892.859	-22.55
893.071	-20.18
893.284	-18.6
893.496	-19.3
893.709	-18.86
893.921	-17.53
894.133	-16.9
894.346	-17.4
894.558	-17.33
894.771	-17.76
894.983	-14.67
895.195	-13.98
895.407	-13.17
895.62	-15.87
895.832	-15.46
896.044	-13.64
896.256	-14.61
896.468	-16.83
896.681	-13.65
896.893	-12.62
897.105	-12.85
897.317	-12.78
897.529	-12.06
897.741	-11.23
897.953	-8.29
898.165	-10.54
898.377	-13.98
898.589	-11.07
898.801	-12.63
899.013	-9.64
899.224	-6.64
899.436	-4.19
899.648	-5.22
899.86	-6.73
900.072	-4.37
900.283	-4.42
900.495	-3.82
900.707	-3.02
900.919	-6.92
901.13	-5
901.342	-8.01
901.554	-8.88
901.765	-8.47
901.977	-11.08
902.188	-11.3
902.4	-10.97
902.611	-12.46
902.823	-14.31
903.034	-17.69
903.246	-19.9
903.457	-20.91
903.669	-22.12
903.88	-23.43
904.091	-23.38
904.303	-22.03
904.514	-25.15
904.725	-22.61
904.936	-20.54
905.148	-20.81
905.359	-18.31
905.57	-19.16
905.781	-21.69
905.992	-23.01
906.204	-21.7
906.415	-21.54
906.626	-24.9
906.837	-22.27
907.048	-22.87
907.259	-24.79
907.47	-23.36
907.681	-24.79
907.892	-20.43
908.103	-21.67
908.314	-23.82
908.525	-21.35
908.735	-20.97
908.946	-22.46
909.157	-22.77
909.368	-19.76
909.579	-17.15
909.789	-18.87
910	-18.83
910.211	-16.53
910.421	-16.88
910.632	-16.06
910.843	-18.43
911.053	-13.96
911.264	-11.4
911.475	-11.83
911.685	-12.54
911.896	-11.75
912.106	-9.62
912.317	-10
912.527	-7.92
912.737	-8.78
912.948	-8.46
913.158	-6.81
913.369	-9.35
913.579	-8.23
913.789	-6.62
914	-4
914.21	-4.09
914.42	-5.45
914.63	-5.19
914.841	-3.62
915.051	-2.59
915.261	-1.2
915.471	2.01
915.681	2.98
915.891	3.55
916.101	2.56
916.311	3.19
916.521	3.67
916.731	4.35
916.941	7.09
917.151	4.94
917.361	6.95
917.571	1.98
917.781	-1.12
917.991	-3.87
918.201	-4.01
918.411	-7.19
918.621	-8.78
918.83	-8.06
919.04	-11.04
919.25	-8.87
919.46	-7.72
919.669	-9.68
919.879	-10.68
920.089	-12.6
920.298	-14.63
920.508	-13.91
920.717	-12.49
920.927	-14.82
921.136	-14.86
921.346	-17.25
921.555	-19.06
921.765	-20.6
921.974	-22.79
922.184	-26.7
922.393	-28.15
922.603	-28.68
922.812	-26.87
923.021	-28.1
923.23	-30.28
923.44	-32.75
923.649	-31.62
923.858	-33.25
924.067	-31.69
924.277	-32.91
924.486	-28.99
924.695	-28.98
924.904	-27.78
925.113	-28.07
925.322	-27.59
925.531	-26.56
925.74	-29.02
925.949	-29.78
926.158	-26.88
926.367	-25.84
926.576	-24.47
926.785	-24.57
926.994	-26.65
927.203	-26.94
927.412	-26.18
927.621	-26.05
927.83	-22.95
928.038	-23.22
928.247	-22.76
928.456	-21.14
928.665	-16.55
928.873	-14.01
929.082	-12.39
929.291	-12.31
929.499	-11.33
929.708	-11.82
929.916	-10.41
930.125	-11.07
930.333	-11.01
930.542	-9.34
930.75	-6.89
930.959	-6.22
931.167	-6.49
931.376	-6.39
931.584	-5.64
931.793	-3.65
932.001	-4.26
932.209	-6.11
932.418	-8.92
932.626	-10.77
932.834	-12.13
933.042	-14.72
933.251	-13.58
933.459	-12.62
933.667	-13.47
933.875	-12.56
934.083	-11.54
934.291	-10.21
934.499	-9.29
934.707	-9.43
934.915	-10.28
935.123	-10.51
935.331	-13.47
935.539	-15.25
935.747	-17.07
935.955	-16.87
936.163	-16.02
936.371	-16.02
936.579	-13.34
936.787	-13.39
936.995	-16.48
937.202	-18.57
937.41	-20.21
937.618	-19.88
937.826	-19.23
938.033	-23.63
938.241	-27.41
938.449	-23.78
938.656	-20.64
938.864	-19.97
939.071	-18.66
939.279	-16.37
939.486	-13.97
939.694	-15.1
939.901	-17.94
940.109	-16.72
940.316	-16.44
940.524	-17.3
940.731	-19.54
940.939	-18.51
941.146	-18.31
941.353	-19.36
941.561	-19.41
941.768	-19.62
941.975	-18.1
942.182	-18.93
942.39	-18.25
942.597	-15.46
942.804	-15.98
943.011	-17.43
943.218	-16.96
943.425	-15.64
943.632	-15.69
943.839	-17.05
944.046	-18.2
944.253	-17.74
944.46	-15.38
944.667	-10.68
944.874	-11.73
945.081	-10.7
945.288	-8.26
945.495	-7.89
945.702	-8.61
945.909	-10.87
946.115	-9.6
946.322	-9.68
946.529	-12.03
946.736	-13.14
946.942	-11.88
947.149	-12.85
947.356	-14.74
947.562	-17.39
947.769	-17.3
947.976	-18.99
948.182	-17.02
948.389	-18.68
948.595	-17.68
948.802	-17.19
949.008	-18.98
949.215	-18.91
949.421	-19.55
949.628	-20.1
949.834	-19.69
950.04	-20.09
950.247	-15.11
950.453	-14.09
950.659	-16.31
950.865	-15.11
951.072	-21.06
951.278	-19.14
951.484	-22.23
951.69	-26.08
951.896	-26.58
952.103	-26.25
952.309	-23.96
952.515	-24.08
952.721	-21.14
952.927	-19.04
953.133	-20.08
953.339	-21.11
953.545	-21.52
953.751	-20.02
953.957	-15.73
954.163	-16.38
954.369	-15.54
954.574	-18.38
954.78	-18.42
954.986	-16.67
955.192	-16.21
955.398	-17.88
955.603	-19.31
955.809	-18.13
956.015	-17.1
956.22	-17.47
956.426	-16.1
956.632	-20.57
956.837	-20.84
957.043	-20.14
957.248	-18.42
957.454	-16.49
957.66	-20.01
957.865	-18.78
958.07	-16.97
958.276	-19.07
958.481	-20.61
958.687	-21.28
958.892	-20.85
959.097	-21.5
959.303	-22.39
959.508	-21.96
959.713	-22.34
959.919	-21.97
960.124	-24.3
960.329	-24.36
960.534	-22.08
960.739	-21.38
960.945	-18.02
961.15	-17.3
961.355	-18.5
961.56	-21.09
961.765	-20.89
961.97	-21.03
962.175	-18.19
962.38	-20.51
962.585	-19.6
962.79	-21.54
962.995	-21.91
963.2	-22.99
963.404	-23.21
963.609	-25.79
963.814	-27.05
964.019	-28.68
964.224	-31.87
964.428	-30
964.633	-28.35
964.838	-27.34
965.042	-27.55
965.247	-29.27
965.452	-29.99
965.656	-27.92
965.861	-26.38
966.066	-26.38
966.27	-23.45
966.475	-18.83
966.679	-23.61
966.884	-23.77
967.088	-26.17
967.292	-26.94
967.497	-24.9
967.701	-25.63
967.906	-24.42
968.11	-23.19
968.314	-19.16
968.518	-22.1
968.723	-20
968.927	-20.27
969.131	-18.69
969.335	-15.83
969.539	-15.99
969.744	-14.59
969.948	-11.8
970.152	-10.56
970.356	-8.78
970.56	-7.44
970.764	-9.32
970.968	-6.92
971.172	-6.02
971.376	-6.75
971.58	-5.78
971.784	-5.33
971.988	-7.52
972.192	-6.38
972.395	-7.77
972.599	-10.29
972.803	-12.02
973.007	-8.78
973.21	-8.86
973.414	-8.4
973.618	-9.26
973.822	-9.68
974.025	-9.15
974.229	-10.67
974.432	-14.65
974.636	-17.02
974.84	-16.01
975.043	-16.38
975.247	-17.82
975.45	-18.81
975.654	-17.75
975.857	-14.46
976.06	-14.55
976.264	-16.33
976.467	-14.67
976.671	-16.15
976.874	-14.26
977.077	-14.52
977.28	-16.79
977.484	-18.82
977.687	-18.64
977.89	-17
978.093	-17.65
978.297	-16.06
978.5	-17.79
978.703	-16.3
978.906	-16.31
979.109	-16.75
979.312	-16.68
979.515	-16.61
979.718	-15.76
979.921	-16.03
980.124	-18.71
980.327	-20.25
980.53	-18.6
980.733	-14.48
980.936	-12.74
981.138	-13.97
981.341	-12.92
981.544	-11.54
981.747	-12
981.949	-13.48
982.152	-14.06
982.355	-15.59
982.558	-12.61
982.76	-15.3
982.963	-14.51
983.165	-15.09
983.368	-15.58
983.571	-15.73
983.773	-12.72
983.976	-12.82
984.178	-13.13
984.381	-11.77
984.583	-14.29
984.785	-13.85
984.988	-11.6
985.19	-9.49
985.392	-11.89
985.595	-13.75
985.797	-12.95
985.999	-10.24
986.202	-7.97
986.404	-8.31
986.606	-3.8
986.808	-4.82
987.01	-3.57
987.212	-5.03
987.415	-6.35
987.617	-6.17
987.819	-7.93
988.021	-6.98
988.223	-9.3
988.425	-9.85
988.627	-10.03
988.829	-13.97
989.031	-12.09
989.232	-12.35
989.434	-10.86
989.636	-10.69
989.838	-9.34
990.04	-8.58
990.242	-10.01
990.443	-11.01
990.645	-9.16
990.847	-6.86
991.048	-6.83
991.25	-8.55
991.452	-8.3
991.653	-8.23
991.855	-8.45
992.057	-10.46
992.258	-11.86
992.46	-12.24
992.661	-11.16
992.863	-13.88
993.064	-14.04
993.265	-15.5
993.467	-16.89
993.668	-14.91
993.87	-15.66
994.071	-14.76
994.272	-14.51
994.473	-12.26
994.675	-12.5
994.876	-11.72
995.077	-11.38
995.278	-10.76
995.48	-11.6
995.681	-12.66
995.882	-10.13
996.083	-11.62
996.284	-16.45
996.485	-15.7
996.686	-17.06
996.887	-19.46
997.088	-22.93
997.289	-24.45
997.49	-24.68
997.691	-25.3
997.892	-25.01
998.092	-20.11
998.293	-20.33
998.494	-20.85
998.695	-20.93
998.896	-19.56
999.096	-20.1
999.297	-19.89
999.498	-21.66
999.698	-23.38
999.899	-25.74
1000.1	-27.94
1000.3	-27.87
1000.501	-27.85
1000.701	-28.92
1000.902	-27.98
1001.102	-27.83
1001.303	-26.66
1001.503	-29.21
1001.704	-28.42
1001.904	-29.88
1002.105	-30.95
1002.305	-29.2
1002.505	-28.72
1002.706	-30.07
1002.906	-29.18
1003.106	-29.74
1003.306	-28.43
1003.507	-25.37
1003.707	-25.87
1003.907	-23.88
1004.107	-21.71
1004.307	-24.19
1004.507	-22.47
1004.707	-22.08
1004.907	-23.24
1005.107	-23.79
1005.308	-22.62
1005.507	-23.11
1005.707	-21.15
1005.907	-20.11
1006.107	-17.68
1006.307	-15.44
1006.507	-15.1
1006.707	-13.57
1006.907	-12.88
1007.106	-14.38
1007.306	-15.17
1007.506	-15.37
1007.706	-13.91
1007.905	-14.72
1008.105	-14.35
1008.305	-14.47
1008.504	-15.15
1008.704	-9.88
1008.903	-7.55
1009.103	-6.45
1009.303	-7.05
1009.502	-4.77
1009.702	-7.38
1009.901	-7.15
1010.1	-9.86
1010.3	-9.29
1010.499	-12.09
1010.699	-13.89
1010.898	-14.77
1011.097	-15.45
1011.296	-15.26
1011.496	-15.92
1011.695	-16.24
1011.894	-17.45
1012.093	-15.27
1012.293	-15.44
1012.492	-16.25
1012.691	-17.56
1012.89	-18.9
1013.089	-21.34
1013.288	-20.38
1013.487	-19.75
1013.686	-20.09
1013.885	-21.89
1014.084	-19.82
1014.283	-20.38
1014.482	-21.57
1014.681	-20.6
1014.88	-25.11
1015.078	-24.67
1015.277	-26.45
1015.476	-26.45
1015.675	-27.35
1015.873	-25.73
1016.072	-26.78
1016.271	-25.33
1016.47	-28.17
1016.668	-25
1016.867	-24.63
1017.065	-26.75
1017.264	-25.74
1017.463	-26.02
1017.661	-26.85
1017.86	-25.68
1018.058	-24.74
1018.256	-26.34
1018.455	-27.16
1018.653	-26.05
1018.852	-24.56
1019.05	-26.18
1019.248	-26.23
1019.447	-26.87
1019.645	-26.95
1019.843	-28.7
1020.041	-26.58
1020.24	-27.91
1020.438	-22.31
1020.636	-23.08
1020.834	-25.85
1021.032	-23.08
1021.23	-23.09
1021.428	-21.24
1021.626	-18.87
1021.824	-18.23
1022.022	-19.67
1022.22	-17.65
1022.418	-16.33
1022.616	-16.4
1022.814	-18.01
1023.012	-18.77
1023.21	-16.22
1023.408	-17.71
1023.606	-18.34
1023.803	-12.77
1024.001	-13.47
1024.199	-16.46
1024.397	-15.41
1024.594	-16.22
1024.792	-16.79
1024.99	-16.16
1025.187	-15.3
1025.385	-10.35
1025.582	-9.98
1025.78	-9.95
1025.977	-7.81
1026.175	-8.41
1026.372	-8.48
1026.57	-12.41
1026.767	-8.52
1026.965	-8.37
1027.162	-7.79
1027.359	-9.46
1027.557	-9.92
1027.754	-11.82
1027.951	-14.4
1028.148	-12.62
1028.346	-14.21
1028.543	-17.5
1028.74	-18.26
1028.937	-19.59
1029.134	-19.19
1029.331	-20.32
1029.528	-20.41
1029.725	-20.75
1029.923	-25.57
1030.12	-21.77
1030.317	-20.4
1030.513	-18.77
1030.71	-16.5
1030.907	-14.63
1031.104	-16.81
1031.301	-18.7
1031.498	-20.67
1031.695	-21.43
1031.892	-21.77
1032.088	-21.55
1032.285	-22.33
1032.482	-22.83
1032.678	-25.95
1032.875	-28.59
1033.072	-27.39
1033.268	-28.16
1033.465	-27.2
1033.662	-29.99
1033.858	-30.56
1034.055	-30.13
1034.251	-28.09
1034.448	-28.66
1034.644	-27.58
1034.84	-23.3
1035.037	-19.91
1035.233	-20.17
1035.43	-19.03
1035.626	-19.26
1035.822	-18.79
1036.019	-17.82
1036.215	-21.95
1036.411	-21.8
1036.607	-23.81
1036.803	-27.03
1037	-28.76
1037.196	-28.87
1037.392	-28.15
1037.588	-29.37
1037.784	-27.56
1037.98	-29.36
1038.176	-30.9
1038.372	-31.95
1038.568	-30.31
1038.764	-27.95
1038.96	-26.43
1039.156	-28.6
1039.352	-30.48
1039.547	-29.07
1039.743	-26.57
1039.939	-24.28
1040.135	-24.29
1040.331	-26.2
1040.526	-23.82
1040.722	-25.37
1040.918	-27.84
1041.113	-31.45
1041.309	-30.34
1041.505	-32.33
1041.7	-31.59
1041.896	-30.94
1042.091	-31.68
1042.287	-30.24
1042.482	-29.77
1042.678	-29.66
1042.873	-28.24
1043.069	-28.97
1043.264	-28.1
1043.459	-26.88
1043.655	-26.83
1043.85	-28.84
1044.045	-25.77
1044.24	-24.44
1044.436	-21.47
1044.631	-22.98
1044.826	-22.74
1045.021	-24.81
1045.216	-22.42
