Data from FLMT021711__23__17-57-17-276.txt Node

Date: Tue Nov 05 17:57:17 CET 2024
User: Etudiants TP
Spectrometer: FLMT02171
Trigger mode: 0
Integration Time (sec): 1.000000E-1
Scans to average: 5
Electric dark correction enabled: true
Nonlinearity correction enabled: false
Boxcar width: 15
XAxis mode: Wavelengths
Number of Pixels in Spectrum: 3648
>>>>>Begin Spectral Data<<<<<
194.658	-71.1
194.923	-67.23
195.188	-59.31
195.453	-58.44
195.717	-52.68
195.982	-50.99
196.247	-48.46
196.512	-50.83
196.777	-49.4
197.042	-46.55
197.307	-47.19
197.572	-42.34
197.837	-42.95
198.101	-41.14
198.366	-38.35
198.631	-35.9
198.896	-28.64
199.161	-20.52
199.425	-11.77
199.69	-1.61
199.955	-1.42
200.22	-5.4
200.484	-5.47
200.749	-5.96
201.014	-4.57
201.278	-4.6
201.543	-3.53
201.807	-5.79
202.072	-4.19
202.337	-5.25
202.601	-4.89
202.866	-6.04
203.13	-5.25
203.395	-7.13
203.659	-6.26
203.924	-8.06
204.189	-7.6
204.453	-6.49
204.717	-3.36
204.982	-1.91
205.246	-1.81
205.511	0.77
205.775	-0.66
206.04	6.05
206.304	7.65
206.568	8.99
206.833	8.16
207.097	9.31
207.361	10.19
207.626	14.09
207.89	15.02
208.154	15.58
208.419	18.61
208.683	19.17
208.947	22.19
209.211	20.63
209.476	20.63
209.74	21.07
210.004	22.48
210.268	23.1
210.532	26.81
210.796	27.18
211.061	27.69
211.325	27.84
211.589	25
211.853	25.45
212.117	25.07
212.381	25.98
212.645	26.28
212.909	25.74
213.173	21.9
213.437	22.53
213.701	22.48
213.965	24.72
214.229	19.58
214.493	19.1
214.757	18.55
215.021	18.29
215.285	21.62
215.549	23.79
215.813	19.87
216.077	18.91
216.34	20.8
216.604	20.09
216.868	20.92
217.132	21.82
217.396	21.48
217.659	21.35
217.923	18.49
218.187	18.83
218.451	18.56
218.714	15.34
218.978	15.21
219.242	16.57
219.505	17.18
219.769	20.8
220.033	20.08
220.296	21.85
220.56	22.2
220.824	19.43
221.087	21.38
221.351	22.77
221.614	22.33
221.878	24.87
222.142	21.35
222.405	21.12
222.669	22.71
222.932	19.52
223.196	18.58
223.459	15.88
223.722	17.03
223.986	16.56
224.249	16
224.513	14.98
224.776	14.84
225.04	13.98
225.303	12.84
225.566	11.94
225.83	13.98
226.093	17.93
226.356	15.81
226.62	13.04
226.883	14.93
227.146	16.13
227.409	16.06
227.673	14.06
227.936	11.75
228.199	12.2
228.462	10.48
228.725	8.95
228.989	9.34
229.252	8.43
229.515	14.2
229.778	12.02
230.041	9.69
230.304	7.77
230.567	8.25
230.83	6.25
231.093	8.43
231.356	7.85
231.619	13.25
231.882	11.83
232.145	14.43
232.408	13.02
232.671	12.84
232.934	10.9
233.197	9.6
233.46	9.62
233.723	12.2
233.986	11.36
234.249	7.53
234.512	9.78
234.775	14.67
235.037	14.53
235.3	14.59
235.563	14.96
235.826	16.21
236.089	18.36
236.351	18.29
236.614	20.61
236.877	21.8
237.14	23.69
237.402	23.11
237.665	15.45
237.928	16.04
238.19	13.94
238.453	17.11
238.716	16.04
238.978	16.81
239.241	15.56
239.503	18.24
239.766	13
240.029	11.3
240.291	15.11
240.554	15.11
240.816	14.55
241.079	15.28
241.341	14.5
241.604	12.1
241.866	8.58
242.129	7.51
242.391	9.46
242.653	8.52
242.916	7.29
243.178	7.52
243.441	7.49
243.703	7.12
243.965	3.95
244.228	3.78
244.49	2.87
244.752	3.4
245.015	3.87
245.277	6.16
245.539	6.1
245.801	9.12
246.064	9.01
246.326	8.77
246.588	8.68
246.85	11.73
247.112	11.72
247.374	14.19
247.637	16.26
247.899	15.95
248.161	16.61
248.423	10.32
248.685	11.43
248.947	10.29
249.209	11.57
249.471	13.24
249.733	15.51
249.995	15.9
250.257	17.39
250.519	15.66
250.781	18.62
251.043	16.55
251.305	17.45
251.567	19.5
251.829	19.54
252.091	20.92
252.353	17.02
252.615	17.24
252.876	15.81
253.138	13.67
253.4	9.62
253.662	9.88
253.924	11.78
254.185	12.09
254.447	11.34
254.709	11.39
254.971	12.28
255.232	12.51
255.494	11
255.756	8.15
256.017	9.67
256.279	10.45
256.541	12.21
256.802	11.57
257.064	13.1
257.326	10.72
257.587	12.16
257.849	12.16
258.11	13.45
258.372	13.39
258.633	14.61
258.895	13.32
259.156	12.88
259.418	11.47
259.679	6.91
259.941	5.18
260.202	7.49
260.464	11.07
260.725	11.14
260.987	8.92
261.248	9.18
261.509	10.03
261.771	8.45
262.032	10.17
262.293	10.78
262.555	12.51
262.816	9.72
263.077	7.98
263.338	6.49
263.6	5.93
263.861	6.84
264.122	5.96
264.383	7.25
264.645	7.99
264.906	7.25
265.167	8.71
265.428	8.6
265.689	9.74
265.95	6.93
266.211	9.38
266.473	9.62
266.734	6.78
266.995	4.01
267.256	4.18
267.517	6.8
267.778	11.05
268.039	11.87
268.3	11.3
268.561	8.31
268.822	11.84
269.083	11.08
269.344	9.89
269.604	8.83
269.865	10.96
270.126	6.08
270.387	7.44
270.648	8.91
270.909	11.3
271.17	9.54
271.43	6.74
271.691	4.24
271.952	2.15
272.213	4.32
272.473	1.41
272.734	1.41
272.995	4.28
273.256	4.13
273.516	6.74
273.777	2.28
274.038	5.05
274.298	2.84
274.559	2.4
274.82	8.35
275.08	10.83
275.341	13.37
275.601	10.59
275.862	7.2
276.122	7.16
276.383	7.31
276.643	9.42
276.904	7.6
277.164	11.31
277.425	12.08
277.685	17.59
277.946	17.3
278.206	19.43
278.467	20.59
278.727	19.47
278.987	18.09
279.248	18.52
279.508	19.78
279.768	21.95
280.029	22.74
280.289	18.65
280.549	19.48
280.81	19.45
281.07	16.52
281.33	17.35
281.59	15.23
281.851	18.24
282.111	16.9
282.371	15.65
282.631	17.29
282.891	14.89
283.151	12.81
283.412	9.62
283.672	9.7
283.932	11.38
284.192	12.63
284.452	10.71
284.712	7.95
284.972	5.89
285.232	2.23
285.492	4.93
285.752	0.89
286.012	6.92
286.272	9.03
286.532	6.37
286.792	6.99
287.052	9.16
287.312	9.42
287.571	9.86
287.831	9.29
288.091	8.35
288.351	10.2
288.611	13.85
288.871	12.74
289.13	13
289.39	9.78
289.65	12.04
289.91	9.25
290.17	12.45
290.429	15.19
290.689	11.81
290.949	9.62
291.208	12.5
291.468	16.2
291.728	18.1
291.987	19.92
292.247	19.15
292.506	20.18
292.766	23.02
293.026	21.25
293.285	23.75
293.545	24.77
293.804	23.93
294.064	19.75
294.323	16.5
294.583	17.19
294.842	16.85
295.102	16.69
295.361	17.39
295.621	16.85
295.88	19.16
296.139	17.87
296.399	18.98
296.658	11.87
296.917	12.53
297.177	10.4
297.436	11.66
297.695	9.97
297.955	12.11
298.214	10.61
298.473	12.8
298.732	15.7
298.992	17.87
299.251	16.23
299.51	12.47
299.769	12.48
300.028	10.87
300.287	10.61
300.547	12.6
300.806	11.41
301.065	16.17
301.324	17.21
301.583	14.79
301.842	11.74
302.101	9.59
302.36	9.43
302.619	8.93
302.878	9.36
303.137	6.16
303.396	6.47
303.655	9.55
303.914	7.49
304.173	8.8
304.432	7.45
304.691	11.17
304.95	8.47
305.208	13.29
305.467	13.66
305.726	12.85
305.985	13.99
306.244	16.2
306.503	15.04
306.761	14.59
307.02	12.01
307.279	12.27
307.537	14.05
307.796	11.67
308.055	10.33
308.314	11.47
308.572	8.52
308.831	9.24
309.09	9.02
309.348	10.44
309.607	9.16
309.865	14.34
310.124	14.39
310.382	16.12
310.641	17.36
310.9	16.17
311.158	17.87
311.417	17.84
311.675	16.26
311.933	15.4
312.192	16.42
312.45	15.28
312.709	16.29
312.967	15.51
313.226	14.79
313.484	13.77
313.742	12.22
314.001	9.77
314.259	7.08
314.517	7.7
314.776	7.37
315.034	9.85
315.292	8.51
315.55	6.31
315.809	5.75
316.067	5.44
316.325	2.47
316.583	3.95
316.841	2.92
317.1	1.78
317.358	-2.79
317.616	-2.72
317.874	-4.68
318.132	-4.7
318.39	-3.79
318.648	-5.31
318.906	-5.83
319.164	-5.46
319.422	-7.77
319.68	-7.13
319.938	-6.37
320.196	-6.32
320.454	-3.92
320.712	-4.41
320.97	-2.61
321.228	-4.51
321.486	-2.63
321.744	-0.17
322.002	1.75
322.26	-0.02
322.517	-1.88
322.775	-4.02
323.033	-6.27
323.291	-4.75
323.549	-3.68
323.806	-1.35
324.064	0.26
324.322	3.48
324.58	1.94
324.837	4.75
325.095	3.01
325.353	5.73
325.61	6.33
325.868	6.08
326.126	8.55
326.383	6.63
326.641	6.19
326.898	8.07
327.156	7.54
327.413	9.95
327.671	9.92
327.928	12.52
328.186	13.32
328.443	12.53
328.701	15.75
328.958	16.39
329.216	15.74
329.473	13.31
329.731	12.77
329.988	12.47
330.245	14.37
330.503	16.6
330.76	17.36
331.017	20.48
331.275	18.3
331.532	19.15
331.789	16.68
332.047	15.28
332.304	11.47
332.561	12.8
332.818	11.06
333.076	12.87
333.333	13.45
333.59	14.88
333.847	17.1
334.104	14.78
334.361	13.8
334.618	12.45
334.876	9.95
335.133	10.09
335.39	7.39
335.647	8.33
335.904	4.79
336.161	1.52
336.418	1.53
336.675	-3.04
336.932	-1.64
337.189	-0.71
337.446	1.24
337.703	-0.15
337.96	-3.96
338.216	-2.69
338.473	-5.88
338.73	-4.83
338.987	-4.91
339.244	-1.16
339.501	-2.99
339.757	-1.5
340.014	0.06
340.271	2.45
340.528	1.95
340.785	5.65
341.041	6.39
341.298	4.21
341.555	2.37
341.811	1.14
342.068	0.14
342.325	0.88
342.581	4.6
342.838	6.51
343.094	5.24
343.351	5.75
343.608	3.2
343.864	5.66
344.121	7.78
344.377	7.36
344.634	7.01
344.89	5.05
345.147	4.34
345.403	2.43
345.66	2.51
345.916	5.78
346.172	2.65
346.429	1.53
346.685	-1.27
346.942	-2.27
347.198	-6.32
347.454	-6.05
347.711	-7
347.967	-8.24
348.223	-7.16
348.48	-7.46
348.736	-4.31
348.992	-5.3
349.248	-3.32
349.504	-4.05
349.761	-3.89
350.017	-3.74
350.273	-3.07
350.529	-4.52
350.785	-5.04
351.041	-4.41
351.297	-3.98
351.554	-5.38
351.81	-7.25
352.066	-8.88
352.322	-8.75
352.578	-6.94
352.834	-7.81
353.09	-8.33
353.346	-8.11
353.602	-8.18
353.858	-10.55
354.114	-10.22
354.369	-8.29
354.625	-6.32
354.881	-7.27
355.137	-4.43
355.393	-4.16
355.649	-3.07
355.905	-4.8
356.16	-6
356.416	-5.06
356.672	-12.05
356.928	-11.55
357.183	-12.66
357.439	-10.68
357.695	-12.24
357.951	-7.7
358.206	-8.87
358.462	-9.42
358.718	-11.15
358.973	-10.63
359.229	-9.8
359.484	-8.15
359.74	-5.54
359.996	-4.89
360.251	-2.13
360.507	-3.62
360.762	-4.18
361.018	-1.56
361.273	-3.43
361.529	-3.48
361.784	-2.1
362.04	-0.19
362.295	-1.12
362.55	-0.64
362.806	1.23
363.061	1.32
363.316	2.31
363.572	3.39
363.827	6.06
364.082	3.65
364.338	3.38
364.593	3.91
364.848	4.77
365.104	3.92
365.359	6.76
365.614	6.67
365.869	3.39
366.124	3.73
366.38	2.83
366.635	5.64
366.89	6.4
367.145	5.83
367.4	9.36
367.655	8.76
367.91	9.17
368.165	7.25
368.42	4.24
368.675	6.41
368.93	8.2
369.185	6.93
369.44	8.06
369.695	10.33
369.95	8.6
370.205	8.82
370.46	8.56
370.715	7.73
370.97	8.46
371.225	8.32
371.48	9.49
371.734	10.06
371.989	12.25
372.244	11.61
372.499	12.67
372.754	10.66
373.008	8.33
373.263	3.33
373.518	6.3
373.773	4.01
374.027	3.95
374.282	6.94
374.537	6.9
374.791	8.41
375.046	7.57
375.301	5.98
375.555	4
375.81	6.77
376.064	7.83
376.319	12.09
376.573	10.61
376.828	6.02
377.082	10.62
377.337	8.3
377.591	5.55
377.846	7.23
378.1	9.57
378.355	9.97
378.609	9.45
378.863	5.14
379.118	6.9
379.372	4.63
379.627	1.72
379.881	0
380.135	-0.13
380.389	-0.12
380.644	0.47
380.898	2.02
381.152	4.75
381.407	4.58
381.661	7.87
381.915	9.01
382.169	7.92
382.423	6.37
382.677	2.55
382.932	4.22
383.186	5.11
383.44	5.87
383.694	6.71
383.948	3.58
384.202	2.94
384.456	5.12
384.71	6.8
384.964	5.2
385.218	8.25
385.472	7.81
385.726	5.96
385.98	5.44
386.234	4.82
386.488	2.91
386.742	4.61
386.996	1.36
387.249	2.49
387.503	4.87
387.757	5.04
388.011	5.79
388.265	6.48
388.518	7.27
388.772	8.95
389.026	7.86
389.28	4.63
389.533	3.65
389.787	5.03
390.041	3.56
390.295	3.72
390.548	4.34
390.802	6
391.055	4.21
391.309	4.64
391.563	1.23
391.816	2.28
392.07	0.46
392.323	1.79
392.577	2.26
392.83	3.67
393.084	8.51
393.337	12.97
393.591	14.33
393.844	13.66
394.098	18.04
394.351	22.46
394.604	24.03
394.858	26.28
395.111	26.75
395.364	24.27
395.618	27.2
395.871	25.95
396.124	23.58
396.378	22.6
396.631	20.88
396.884	19.22
397.137	20.18
397.391	20.78
397.644	17.44
397.897	18.71
398.15	20.11
398.403	23.46
398.657	22.37
398.91	21.19
399.163	21.47
399.416	21.03
399.669	19.97
399.922	19.6
400.175	15.54
400.428	13.96
400.681	13.24
400.934	8.73
401.187	7.48
401.44	7.88
401.693	6.97
401.946	2.45
402.199	-2.97
402.452	-3.17
402.704	-7.34
402.957	-9.07
403.21	-6.94
403.463	-7.23
403.716	-6.58
403.969	-3.27
404.221	-3.76
404.474	0.16
404.727	3.14
404.98	4.33
405.232	3.99
405.485	6.02
405.738	7.74
405.99	8.89
406.243	7.21
406.496	8.89
406.748	9.52
407.001	7.46
407.253	8.47
407.506	8.99
407.759	9.76
408.011	10.17
408.264	11.7
408.516	12.77
408.769	9.64
409.021	10.54
409.274	9.77
409.526	11.91
409.778	11.74
410.031	14.88
410.283	14.93
410.536	22.59
410.788	20.43
411.04	20.12
411.293	20.81
411.545	22
411.797	19.78
412.049	19.19
412.302	18.82
412.554	19.3
412.806	18.56
413.058	16.82
413.311	17.88
413.563	16.85
413.815	15.63
414.067	14.09
414.319	14.43
414.571	15.21
414.823	15.01
415.075	14.23
415.328	15.11
415.58	18.21
415.832	18.79
416.084	18.83
416.336	16.35
416.588	22.09
416.84	20.05
417.091	23.43
417.343	20.5
417.595	22.88
417.847	23.63
418.099	24.99
418.351	22.78
418.603	26.82
418.855	27.63
419.106	27.5
419.358	27.5
419.61	27.48
419.862	29.48
420.114	27.18
420.365	28.04
420.617	27.17
420.869	26.98
421.12	26.39
421.372	26.77
421.624	26.55
421.875	28.39
422.127	24.23
422.379	23.87
422.63	26.34
422.882	25.12
423.133	25.29
423.385	26.06
423.636	28.04
423.888	29.42
424.139	32.71
424.391	28.89
424.642	27.52
424.894	24.07
425.145	23.66
425.396	21.21
425.648	22.76
425.899	20
426.151	20.31
426.402	18.5
426.653	19.45
426.905	18.49
427.156	15.61
427.407	15.57
427.658	14.78
427.91	14.26
428.161	12.36
428.412	15.71
428.663	15.47
428.914	15.98
429.166	16.15
429.417	16.27
429.668	14.84
429.919	12.56
430.17	12.64
430.421	11.49
430.672	14.91
430.923	14.57
431.174	12.19
431.425	11.65
431.676	10.37
431.927	6.62
432.178	8.57
432.429	8.45
432.68	9.52
432.931	12.63
433.182	15
433.433	13.2
433.683	14.27
433.934	13.28
434.185	12.13
434.436	10.43
434.687	11.45
434.937	14.51
435.188	14.46
435.439	13.88
435.69	13.92
435.94	12.62
436.191	12.5
436.442	12.78
436.692	11.72
436.943	9.09
437.194	8.26
437.444	10.83
437.695	15.99
437.945	16.26
438.196	15
438.447	14.96
438.697	14.92
438.948	13.22
439.198	9.8
439.449	6.15
439.699	7.12
439.949	6.35
440.2	6.7
440.45	6.74
440.701	5.57
440.951	4.47
441.201	4.47
441.452	4.37
441.702	3.3
441.952	4.19
442.203	3.12
442.453	0.41
442.703	0.93
442.953	0.15
443.204	1.19
443.454	-0.4
443.704	0.6
443.954	-3.12
444.204	-2.76
444.455	-1.49
444.705	-0.01
444.955	-1.4
445.205	-3
445.455	-6.31
445.705	-6.35
445.955	-5.96
446.205	-7.21
446.455	-5.68
446.705	-3.51
446.955	-0.96
447.205	0.63
447.455	3.01
447.705	1.11
447.955	-0.24
448.205	0.79
448.454	0.65
448.704	1.82
448.954	-0.19
449.204	0.88
449.454	1
449.704	1.12
449.953	2.11
450.203	4.35
450.453	1.15
450.703	3.52
450.952	2.79
451.202	4.99
451.452	4.03
451.701	7.23
451.951	10.43
452.201	8.8
452.45	8.85
452.7	11.48
452.949	11.21
453.199	10.59
453.448	12.54
453.698	14.26
453.947	13.99
454.197	12.05
454.446	10.4
454.696	12.37
454.945	14.02
455.195	12.37
455.444	13.54
455.693	18.25
455.943	16.63
456.192	16.52
456.442	16.49
456.691	18.14
456.94	17.32
457.189	16.09
457.439	18.1
457.688	19.65
457.937	18.22
458.186	20.17
458.436	19.4
458.685	19.68
458.934	19
459.183	18.53
459.432	20.27
459.681	20.96
459.93	19.83
460.179	20.51
460.429	18.21
460.678	21.67
460.927	25.42
461.176	23.62
461.425	23.39
461.674	24.93
461.923	25.74
462.172	25.56
462.42	25.29
462.669	26.75
462.918	25.72
463.167	24.95
463.416	21.58
463.665	22.07
463.914	24.16
464.162	22.75
464.411	22.9
464.66	24.22
464.909	22.71
465.158	22.5
465.406	22.93
465.655	25.98
465.904	27.18
466.152	27.79
466.401	28.05
466.65	29.8
466.898	29.89
467.147	26.39
467.395	25.81
467.644	29.39
467.893	27.83
468.141	28.09
468.39	24.21
468.638	22.4
468.887	21.59
469.135	19.4
469.384	19.61
469.632	19.08
469.88	19.59
470.129	21.03
470.377	18.02
470.626	21.26
470.874	23.57
471.122	24.69
471.371	22.64
471.619	20.43
471.867	22.48
472.115	22.27
472.364	20.21
472.612	24.29
472.86	21.97
473.108	22.55
473.356	22.84
473.605	21.64
473.853	20.99
474.101	21.26
474.349	18.84
474.597	20.76
474.845	19.88
475.093	18.3
475.341	16
475.589	16.23
475.837	17.26
476.085	20.47
476.333	19.65
476.581	20.81
476.829	22.71
477.077	24.91
477.325	25.13
477.573	26.62
477.821	24.67
478.069	24.93
478.317	25.26
478.564	28.34
478.812	26.31
479.06	26.12
479.308	24.25
479.555	25.64
479.803	24.96
480.051	25.55
480.299	24.64
480.546	25.38
480.794	21.97
481.042	21.73
481.289	21.51
481.537	21.8
481.784	20.5
482.032	24.88
482.28	25.16
482.527	25.24
482.775	24.3
483.022	25.69
483.27	26.62
483.517	30.5
483.765	27.87
484.012	27.51
484.259	25.81
484.507	26.47
484.754	26.28
485.002	25.37
485.249	23.01
485.496	25.39
485.744	26.34
485.991	24.62
486.238	22.14
486.486	26.39
486.733	28.42
486.98	32.3
487.227	29.26
487.474	30.86
487.722	33.54
487.969	30.55
488.216	30.13
488.463	29.58
488.71	28.96
488.957	27.8
489.204	27.39
489.451	28.4
489.699	26.54
489.946	23.82
490.193	22.79
490.44	23.54
490.687	22.21
490.934	19.39
491.18	15.72
491.427	18.13
491.674	20.25
491.921	20.43
492.168	19.56
492.415	16.56
492.662	19.16
492.909	21.45
493.155	19.41
493.402	16.99
493.649	15.25
493.896	16.11
494.142	11.41
494.389	9.79
494.636	7.64
494.883	6.61
495.129	4.88
495.376	2.67
495.623	5.79
495.869	7.61
496.116	10.15
496.362	10.12
496.609	13.97
496.855	18.56
497.102	17.82
497.348	16.49
497.595	18.87
497.841	23.35
498.088	21.2
498.334	21.98
498.581	22.01
498.827	21.56
499.074	22.15
499.32	23.5
499.566	28.06
499.813	28.62
500.059	27.01
500.305	26.11
500.552	26.58
500.798	25.89
501.044	31.41
501.29	30.17
501.537	25.82
501.783	28.63
502.029	32.99
502.275	30.12
502.521	28.31
502.767	29.54
503.013	33.52
503.26	30.97
503.506	28.21
503.752	30.49
503.998	29.61
504.244	29.91
504.49	27.52
504.736	29.3
504.982	29.49
505.228	29.95
505.474	31.06
505.72	32.84
505.966	31.58
506.211	35.78
506.457	35.51
506.703	32.25
506.949	30.23
507.195	27.99
507.441	24.56
507.686	28.03
507.932	28.82
508.178	29.44
508.424	28.01
508.669	25.69
508.915	27.88
509.161	32.22
509.406	33.85
509.652	32.76
509.898	36.95
510.143	38.82
510.389	38.54
510.634	33.97
510.88	37.6
511.125	41.81
511.371	41.81
511.616	43.32
511.862	41.59
512.107	37.57
512.353	39.45
512.598	41.32
512.844	39.82
513.089	36.47
513.335	38.87
513.58	39.44
513.825	39.07
514.071	40.15
514.316	40.34
514.561	41.97
514.806	41.26
515.052	45.26
515.297	43.51
515.542	43.15
515.787	44.33
516.033	46.3
516.278	46.63
516.523	46.12
516.768	45.06
517.013	40.19
517.258	38.73
517.503	38.45
517.748	38.91
517.993	37.36
518.238	38.41
518.483	36.48
518.728	34.58
518.973	31.4
519.218	29.91
519.463	29.11
519.708	29.37
519.953	27.99
520.198	26.6
520.443	29.4
520.688	31.47
520.933	31.12
521.177	30.2
521.422	28.22
521.667	30.29
521.912	30.75
522.157	27.22
522.401	29.67
522.646	28.79
522.891	29.66
523.135	31.46
523.38	31.05
523.625	30.29
523.869	32.18
524.114	33.91
524.358	31.75
524.603	34.11
524.848	32.51
525.092	31.95
525.337	33.39
525.581	36.32
525.826	37.05
526.07	37.99
526.315	38.47
526.559	38.18
526.803	36.71
527.048	41.78
527.292	43.73
527.537	44.06
527.781	43.93
528.025	40.89
528.269	42.65
528.514	42.15
528.758	42.38
529.002	41.59
529.247	45
529.491	44.88
529.735	49.81
529.979	48.49
530.223	50.32
530.467	47.95
530.712	45.6
530.956	44.61
531.2	45.67
531.444	43.49
531.688	43.76
531.932	44.91
532.176	45.04
532.42	45.84
532.664	47.28
532.908	46.2
533.152	43.51
533.396	44.15
533.64	44.13
533.884	41.69
534.128	42.05
534.371	44.35
534.615	43.89
534.859	43.23
535.103	41.71
535.347	43.89
535.59	45.1
535.834	42.47
536.078	43.81
536.322	45.1
536.565	49.53
536.809	45.71
537.053	48.05
537.296	46.01
537.54	45.85
537.784	45.39
538.027	47.98
538.271	47.25
538.514	46.38
538.758	46.63
539.001	45.96
539.245	45.49
539.488	44.39
539.732	47.41
539.975	47.91
540.219	50.14
540.462	50.81
540.706	53.65
540.949	52.45
541.192	52.48
541.436	58.39
541.679	63.63
541.922	64.64
542.166	59.37
542.409	58.15
542.652	58.36
542.895	57.58
543.139	57.91
543.382	61.93
543.625	61.2
543.868	61.34
544.111	58.79
544.354	57.81
544.598	55.42
544.841	55.55
545.084	54.05
545.327	53.37
545.57	54.71
545.813	55.89
546.056	55.38
546.299	55.61
546.542	56.7
546.785	58.7
547.028	61.39
547.271	60.15
547.514	61.69
547.756	58.58
547.999	58.09
548.242	59.6
548.485	58.75
548.728	58.75
548.971	54.96
549.213	54.56
549.456	53.5
549.699	55.66
549.942	56.69
550.184	56.62
550.427	56.9
550.67	56.8
550.912	50.57
551.155	51.84
551.398	52.01
551.64	52.38
551.883	53.04
552.125	53.26
552.368	54.57
552.61	53.61
552.853	54.96
553.095	54.03
553.338	54.73
553.58	55.69
553.823	53.45
554.065	56.47
554.308	53.19
554.55	50.98
554.792	48.71
555.035	47.45
555.277	46.77
555.519	47.72
555.762	44.89
556.004	46.25
556.246	43.36
556.488	44.69
556.731	40.57
556.973	42.04
557.215	40.16
557.457	41.57
557.699	44.64
557.941	41.75
558.183	40.68
558.426	44.75
558.668	41.44
558.91	42.03
559.152	42.61
559.394	43.67
559.636	44.79
559.878	44.54
560.12	44.84
560.362	46.34
560.604	45.97
560.845	45.73
561.087	45.25
561.329	49.66
561.571	47.05
561.813	49.32
562.055	48.67
562.297	50.51
562.538	49.89
562.78	52.77
563.022	50.25
563.264	52.59
563.505	52.25
563.747	52.97
563.989	51.72
564.23	52.34
564.472	51.44
564.714	55.08
564.955	56.38
565.197	53.1
565.438	55.82
565.68	61.31
565.921	59.43
566.163	61.34
566.404	60.62
566.646	63.15
566.887	64.79
567.129	67.43
567.37	66.57
567.612	69.33
567.853	67.9
568.094	68.43
568.336	68.68
568.577	71.08
568.818	71.21
569.06	69.69
569.301	66.56
569.542	67.92
569.783	68.98
570.025	71.31
570.266	71.51
570.507	73.93
570.748	72.48
570.989	75.25
571.23	78.98
571.472	79.22
571.713	78.98
571.954	80.25
572.195	79.18
572.436	81.46
572.677	85.1
572.918	86.54
573.159	83.65
573.4	82.6
573.641	82.58
573.882	83.73
574.123	81.4
574.364	77.46
574.604	78.49
574.845	78.31
575.086	78.5
575.327	78.61
575.568	78.53
575.809	77.97
576.049	76.39
576.29	74.01
576.531	79.56
576.771	85.5
577.012	88.7
577.253	91.5
577.494	90.25
577.734	91.31
577.975	92.47
578.215	93.31
578.456	90.19
578.697	91.7
578.937	92.84
579.178	93.37
579.418	91.39
579.659	90.67
579.899	87.22
580.14	86.47
580.38	85.58
580.62	85.78
580.861	90.2
581.101	90.72
581.342	91.05
581.582	87.24
581.822	89.51
582.063	86.81
582.303	87.91
582.543	87.88
582.783	90.53
583.024	93.55
583.264	96.36
583.504	94.75
583.744	95.88
583.984	93.11
584.224	92.14
584.465	89.84
584.705	88.78
584.945	91.26
585.185	90.76
585.425	92.92
585.665	93.97
585.905	93.71
586.145	93.22
586.385	94.37
586.625	96.78
586.865	97.52
587.105	97.9
587.345	98.3
587.585	98.46
587.824	99.15
588.064	100.16
588.304	97.85
588.544	98.37
588.784	96.7
589.024	101.01
589.263	101.65
589.503	100.86
589.743	104.45
589.982	103.64
590.222	103.02
590.462	100.41
590.701	98.88
590.941	101.98
591.181	102.4
591.42	102.04
591.66	105.05
591.899	108.4
592.139	107.1
592.378	107.43
592.618	106.45
592.857	104.89
593.097	104.66
593.336	106.87
593.576	106.14
593.815	105.77
594.055	105.94
594.294	108.03
594.533	108.25
594.773	108.66
595.012	110.4
595.251	111.15
595.491	113.56
595.73	117.47
595.969	118.81
596.208	121.74
596.447	126.62
596.687	128.06
596.926	130.23
597.165	126.44
597.404	129.51
597.643	127.97
597.882	128.77
598.121	131.5
598.36	133.24
598.599	134.96
598.838	136.3
599.077	132.46
599.316	133.19
599.555	133.58
599.794	135.05
600.033	137.01
600.272	137.36
600.511	136.08
600.75	137.5
600.989	139.19
601.228	139.92
601.466	138.81
601.705	139.08
601.944	141.17
602.183	144.08
602.422	144.34
602.66	143.41
602.899	143.44
603.138	142.44
603.376	142.46
603.615	143.17
603.854	140.82
604.092	140.4
604.331	141.5
604.569	142.68
604.808	142.37
605.047	144.67
605.285	144.36
605.524	143.01
605.762	140.55
606	141.59
606.239	141.54
606.477	142.72
606.716	138.93
606.954	138.16
607.193	135.32
607.431	131.87
607.669	130.53
607.908	130.67
608.146	131.93
608.384	131.26
608.622	131.08
608.861	131.38
609.099	130.44
609.337	128.71
609.575	127.77
609.813	127.51
610.052	128.84
610.29	122.6
610.528	119.94
610.766	118.64
611.004	117.01
611.242	114.91
611.48	114.25
611.718	112.05
611.956	113.35
612.194	111.37
612.432	110.47
612.67	108.14
612.908	110.43
613.146	109.44
613.384	109.17
613.621	108.22
613.859	108.09
614.097	107.31
614.335	108.31
614.573	108.7
614.811	112.33
615.048	112.54
615.286	113.11
615.524	112.72
615.761	109.6
615.999	110.15
616.237	110.04
616.474	110.74
616.712	111.73
616.95	109.97
617.187	109.31
617.425	110.01
617.662	112.93
617.9	112.31
618.137	110.64
618.375	109.17
618.612	107.24
618.85	108.11
619.087	110.3
619.325	108.7
619.562	107.1
619.799	104.79
620.037	105.53
620.274	103.79
620.511	105.94
620.749	101.28
620.986	100.04
621.223	97.3
621.461	98.62
621.698	99.59
621.935	99.51
622.172	95.15
622.409	97.18
622.647	95.98
622.884	92.82
623.121	94.77
623.358	91.99
623.595	91.61
623.832	92.27
624.069	91.29
624.306	92.43
624.543	93.12
624.78	92.45
625.017	90.86
625.254	94.11
625.491	95.94
625.728	98.02
625.965	99.65
626.202	98.84
626.438	97.52
626.675	96.38
626.912	98.87
627.149	100.69
627.386	100.3
627.622	98.94
627.859	97.23
628.096	99.4
628.333	99.77
628.569	101.52
628.806	101.97
629.043	101.04
629.279	102.57
629.516	105.45
629.752	101.74
629.989	102.35
630.225	100.09
630.462	100.54
630.699	100.89
630.935	100.91
631.171	98.07
631.408	97.89
631.644	95.76
631.881	92.1
632.117	89.8
632.354	92.3
632.59	90.1
632.826	91.46
633.063	90.17
633.299	90.04
633.535	88.04
633.771	86.45
634.008	89.8
634.244	88.9
634.48	87.24
634.716	90.8
634.953	89.22
635.189	90.32
635.425	92.25
635.661	94.83
635.897	92.81
636.133	92.52
636.369	91.54
636.605	87.18
636.841	85.61
637.077	87.33
637.313	87.69
637.549	89.69
637.785	88.39
638.021	90.27
638.257	88.68
638.493	90.59
638.729	89.51
638.965	93.14
639.2	95.6
639.436	94.88
639.672	92.64
639.908	91.13
640.144	92.95
640.379	95.87
640.615	94.15
640.851	97.09
641.086	98.75
641.322	96.48
641.558	96.29
641.793	97.08
642.029	93.1
642.264	91.37
642.5	90.99
642.736	85.56
642.971	85.94
643.207	84.56
643.442	82.81
643.678	83.24
643.913	84.73
644.148	85.5
644.384	87.71
644.619	86.3
644.855	88.1
645.09	87.58
645.325	85.46
645.561	86.21
645.796	83.69
646.031	87
646.266	82.95
646.502	81.07
646.737	82.51
646.972	82.87
647.207	81.63
647.442	77.94
647.678	75.55
647.913	78.31
648.148	77.07
648.383	75.02
648.618	74.97
648.853	75.37
649.088	76.67
649.323	79.75
649.558	82.21
649.793	82.55
650.028	83.79
650.263	79.24
650.498	81.34
650.733	80.59
650.968	78.83
651.202	80.6
651.437	77.04
651.672	73.28
651.907	74.18
652.142	72.64
652.376	73
652.611	73.99
652.846	74.93
653.081	74.36
653.315	71.42
653.55	73.59
653.785	73.98
654.019	75.53
654.254	75.19
654.488	76.98
654.723	73.1
654.958	69.31
655.192	66.51
655.427	63.75
655.661	64.9
655.896	67.8
656.13	68.94
656.364	65.59
656.599	62.01
656.833	69.41
657.068	70.29
657.302	71.17
657.536	71.05
657.771	72.91
658.005	74.69
658.239	74.83
658.474	71.08
658.708	72.5
658.942	72.88
659.176	71.13
659.41	69.04
659.645	68.12
659.879	67.1
660.113	63.08
660.347	63.77
660.581	61.34
660.815	58.64
661.049	56.88
661.283	52.48
661.517	49.49
661.751	47.51
661.985	48.05
662.219	50.15
662.453	49.12
662.687	51.76
662.921	48.12
663.155	46.35
663.389	40.32
663.622	38.89
663.856	40.45
664.09	31.79
664.324	30.75
664.558	31.1
664.791	29.24
665.025	27.1
665.259	26.25
665.492	26.08
665.726	28.88
665.96	29.2
666.193	26.77
666.427	27.52
666.661	26.49
666.894	25.43
667.128	24.05
667.361	26.22
667.595	23.82
667.828	23.93
668.062	24.04
668.295	24.99
668.529	26.28
668.762	27.51
668.995	26.91
669.229	30.52
669.462	29.52
669.695	30.06
669.929	26.48
670.162	28.14
670.395	25.02
670.629	27.39
670.862	29.51
671.095	26.24
671.328	26.77
671.561	23.6
671.795	23.22
672.028	24.19
672.261	25.73
672.494	26.31
672.727	24.03
672.96	25.41
673.193	23.09
673.426	28.2
673.659	27.41
673.892	28.92
674.125	28.55
674.358	28.95
674.591	27.37
674.824	26.94
675.057	26.25
675.29	23.71
675.523	24.29
675.755	23.89
675.988	25.35
676.221	28.39
676.454	26.24
676.687	28.92
676.919	28.43
677.152	28.94
677.385	28.15
677.617	30.08
677.85	29.76
678.083	28.2
678.315	31.71
678.548	30.58
678.78	29.42
679.013	28.87
679.246	29.42
679.478	29.32
679.711	26.87
679.943	29.21
680.175	25.84
680.408	30.99
680.64	25.1
680.873	27.29
681.105	26.19
681.338	29.2
681.57	27.35
681.802	29.41
682.034	29.17
682.267	32.19
682.499	34.64
682.731	32.22
682.964	30.37
683.196	28.44
683.428	25.84
683.66	22.62
683.892	25.18
684.124	27.02
684.356	30.36
684.589	30.94
684.821	27.66
685.053	28.02
685.285	28.91
685.517	29.01
685.749	28.29
685.981	30.51
686.213	31.46
686.445	32.04
686.676	28.88
686.908	30.4
687.14	28.82
687.372	29.21
687.604	25.52
687.836	27.23
688.068	25.51
688.299	24.77
688.531	22.49
688.763	27.88
688.995	24.91
689.226	28.18
689.458	26.15
689.69	24.33
689.921	21.92
690.153	22.79
690.384	24.44
690.616	24.09
690.848	26.79
691.079	22.02
691.311	19
691.542	16.68
691.774	13.14
692.005	16.99
692.237	19.11
692.468	16.8
692.699	16.16
692.931	16.03
693.162	12.86
693.393	11.33
693.625	10.17
693.856	10.79
694.087	11.06
694.319	12.22
694.55	12.36
694.781	11.68
695.012	12.07
695.243	10.87
695.475	11.53
695.706	11.83
695.937	10.17
696.168	11.56
696.399	9.57
696.63	8.47
696.861	8.78
697.092	15.13
697.323	17.52
697.554	17.13
697.785	17.07
698.016	18.76
698.247	17.06
698.478	18.4
698.709	19.07
698.94	22.86
699.171	21.9
699.401	18.37
699.632	20.17
699.863	16.73
700.094	18.03
700.325	22.28
700.555	23.11
700.786	24.19
701.017	24.09
701.247	22.67
701.478	23.3
701.709	23.84
701.939	23.49
702.17	24.73
702.401	27.06
702.631	27.44
702.862	26.41
703.092	24.55
703.323	26.5
703.553	28.89
703.784	29.63
704.014	29.35
704.244	23.63
704.475	22.53
704.705	22.87
704.936	23.09
705.166	21.56
705.396	24.06
705.627	22.74
705.857	21.82
706.087	23.57
706.317	20.85
706.548	18.36
706.778	18.55
707.008	19.99
707.238	20.07
707.468	17.78
707.698	16.86
707.928	16.68
708.158	15.47
708.389	14.35
708.619	12.11
708.849	10.26
709.079	10.67
709.309	8.54
709.539	5.89
709.768	6.32
709.998	7.64
710.228	6.53
710.458	5.23
710.688	1.16
710.918	0.82
711.148	0.21
711.378	1.61
711.607	0.33
711.837	0.65
712.067	1.62
712.297	1.18
712.526	0.65
712.756	3.18
712.986	0.57
713.215	-4.44
713.445	-2.81
713.674	0.42
713.904	0.16
714.134	1.95
714.363	1.28
714.593	0.51
714.822	-0.52
715.052	-0.61
715.281	1
715.511	0.45
715.74	0.93
715.969	-0.24
716.199	-1.09
716.428	0.65
716.657	0.19
716.887	2.22
717.116	-0.27
717.345	0.75
717.575	0.02
717.804	2.14
718.033	1.51
718.262	1.92
718.492	1.65
718.721	3.31
718.95	2.77
719.179	-1.15
719.408	-1.59
719.637	-5.06
719.866	-6.32
720.095	-3.86
720.324	-1.9
720.553	-6.29
720.782	-7.7
721.011	-7.88
721.24	-9.31
721.469	-10.77
721.698	-10.66
721.927	-10.68
722.156	-12.62
722.385	-13.18
722.613	-8.78
722.842	-7.37
723.071	-4.27
723.3	-3.08
723.529	-4.42
723.757	-4.09
723.986	-8.32
724.215	-8.96
724.443	-6.53
724.672	-3.58
724.901	-3.93
725.129	-1.74
725.358	1.67
725.586	0
725.815	-1.1
726.043	-2.6
726.272	-2.15
726.5	-1.4
726.729	0.54
726.957	-3.37
727.186	-4.92
727.414	-4.65
727.642	-3.24
727.871	-2.02
728.099	-3.19
728.327	-4.97
728.556	-2.78
728.784	-1.77
729.012	-3.98
729.241	0.5
729.469	0.06
729.697	-3.66
729.925	-4.24
730.153	-5.23
730.381	-4.83
730.61	-5.51
730.838	-8.58
731.066	-6.72
731.294	-5.66
731.522	-9.58
731.75	-15.13
731.978	-15.51
732.206	-17.03
732.434	-18.02
732.662	-16.13
732.89	-17.61
733.118	-19.77
733.346	-19.66
733.573	-18.37
733.801	-18.12
734.029	-10.3
734.257	-8.83
734.485	-6.77
734.712	-3.58
734.94	-5.79
735.168	-2.93
735.396	-0.74
735.623	-2.25
735.851	-0.35
736.078	2.02
736.306	0.49
736.534	0.08
736.761	1.42
736.989	-1.61
737.216	-2.87
737.444	-5.61
737.671	-5.06
737.899	1.66
738.126	-0.02
738.354	-0.14
738.581	0.03
738.809	2.73
739.036	1.54
739.263	2.27
739.491	-0.88
739.718	-0.89
739.945	4.96
740.173	8.73
740.4	9.37
740.627	7.06
740.854	7.69
741.081	3.57
741.309	1.51
741.536	-0.82
741.763	-2.39
741.99	-0.23
742.217	0.96
742.444	0.64
742.671	2.81
742.898	0.72
743.125	-0.84
743.352	-2.71
743.579	-3.17
743.806	-3.43
744.033	1.02
744.26	2.71
744.487	2.86
744.714	3.01
744.941	2.62
745.167	7.34
745.394	6.77
745.621	5.58
745.848	5.88
746.075	7.49
746.301	9.85
746.528	13.96
746.755	12.31
746.981	9.59
747.208	11.41
747.435	13.37
747.661	13.6
747.888	14.28
748.114	12.61
748.341	15.36
748.567	16.96
748.794	15.69
749.02	14.86
749.247	12.26
749.473	10.86
749.7	9.16
749.926	9.45
750.152	12.78
750.379	12.85
750.605	13.14
750.831	13.2
751.058	10.67
751.284	8.22
751.51	11.6
751.737	13.3
751.963	11.09
752.189	9.01
752.415	8.88
752.641	10.78
752.867	10.33
753.094	8.74
753.32	7.06
753.546	5.64
753.772	8.77
753.998	7.37
754.224	6.04
754.45	5.41
754.676	4.81
754.902	4.43
755.128	5.49
755.354	4.45
755.579	5.2
755.805	7.2
756.031	5.97
756.257	4.67
756.483	3.6
756.709	3.3
756.934	2.96
757.16	0.34
757.386	-0.76
757.612	-1.68
757.837	-4.34
758.063	-1.18
758.289	3.07
758.514	0.91
758.74	-3.19
758.965	-6.92
759.191	-6.08
759.416	-4.25
759.642	-3.67
759.868	-3.94
760.093	-1.35
760.318	-2.97
760.544	-3.24
760.769	-4.86
760.995	-6.07
761.22	-6.51
761.445	-4.26
761.671	-1.18
761.896	0.91
762.121	0.45
762.347	0.62
762.572	-2.9
762.797	-3.85
763.022	-4.41
763.248	0.11
763.473	1.6
763.698	0.3
763.923	0.93
764.148	0.02
764.373	0.17
764.598	1.43
764.823	3.56
765.048	0.2
765.273	-4.83
765.498	-5.94
765.723	-3.88
765.948	-1.43
766.173	-1.76
766.398	-2.71
766.623	-4.8
766.848	-5.78
767.073	-8.04
767.298	-6.69
767.522	-7.51
767.747	-6.68
767.972	-5.51
768.197	-5.91
768.421	-8.74
768.646	-12.41
768.871	-16.94
769.095	-16.62
769.32	-16.31
769.545	-16.57
769.769	-15.63
769.994	-13
770.218	-16.38
770.443	-14.82
770.667	-12.34
770.892	-13.29
771.116	-12.96
771.341	-12.37
771.565	-14.1
771.79	-13.5
772.014	-12.51
772.238	-13.55
772.463	-10.56
772.687	-10.05
772.911	-10.25
773.136	-13.19
773.36	-10.96
773.584	-8.4
773.808	-9.14
774.033	-8.81
774.257	-9.11
774.481	-10.18
774.705	-11.97
774.929	-12.87
775.153	-13.82
775.377	-11.59
775.602	-11.82
775.826	-7.96
776.05	-5.53
776.274	-6.63
776.498	-6.16
776.722	-6.8
776.945	-5.62
777.169	-5.99
777.393	-7.32
777.617	-8.82
777.841	-7.75
778.065	-6.14
778.289	-5.44
778.512	-4.43
778.736	-5.32
778.96	-5.64
779.184	-1.92
779.407	-2.93
779.631	-3.64
779.855	-5.62
780.078	-3.56
780.302	-6.51
780.526	-9.7
780.749	-10.1
780.973	-7.77
781.196	-8.21
781.42	-10.25
781.643	-9.13
781.867	-7.06
782.09	-8.48
782.314	-10.51
782.537	-11.47
782.76	-13.39
782.984	-11.68
783.207	-13.35
783.431	-13.01
783.654	-14.29
783.877	-16.84
784.1	-16.93
784.324	-18.13
784.547	-18.42
784.77	-21.61
784.993	-22.73
785.216	-24.45
785.44	-24.82
785.663	-24.97
785.886	-24.37
786.109	-24.97
786.332	-24.5
786.555	-23.45
786.778	-20.76
787.001	-20.33
787.224	-18.34
787.447	-16.57
787.67	-14.1
787.893	-15.24
788.116	-13.67
788.339	-11.12
788.561	-12.59
788.784	-16.17
789.007	-16.94
789.23	-18.79
789.453	-18.57
789.675	-20.5
789.898	-23.79
790.121	-24.21
790.344	-23.77
790.566	-22.16
790.789	-22.04
791.012	-22.65
791.234	-18.78
791.457	-15.65
791.679	-14.17
791.902	-13.6
792.124	-12.86
792.347	-13.92
792.569	-14.44
792.792	-17.68
793.014	-14.72
793.237	-13.67
793.459	-13.15
793.681	-12.78
793.904	-13.82
794.126	-15.98
794.348	-15.8
794.571	-15.71
794.793	-16.68
795.015	-16.34
795.237	-17.31
795.46	-15.91
795.682	-15.44
795.904	-12.19
796.126	-12.15
796.348	-11.3
796.57	-6.22
796.792	-4.19
797.014	0.57
797.237	1.74
797.459	2.88
797.681	4.2
797.903	2.73
798.124	2.32
798.346	12.91
798.568	14.89
798.79	17.59
799.012	19.86
799.234	21.62
799.456	23.52
799.678	27.06
799.899	23.46
800.121	20.08
800.343	19.11
800.565	19.18
800.786	19.45
801.008	22.11
801.23	20.52
801.451	20.97
801.673	19.37
801.895	17.52
802.116	19.6
802.338	20.91
802.559	20.57
802.781	18.35
803.002	20.64
803.224	22.8
803.445	17.75
803.667	17.04
803.888	14.57
804.109	15.68
804.331	16.87
804.552	16.74
804.773	20.71
804.995	17.21
805.216	3.86
805.437	0.85
805.658	-2.57
805.88	-5.04
806.101	-3.67
806.322	-4.4
806.543	-7.27
806.764	-8.96
806.985	-7.98
807.207	-7.95
807.428	-8.22
807.649	-11.69
807.87	-13.4
808.091	-11.54
808.312	-9.95
808.533	-3.92
808.754	-2.54
808.975	-4.29
809.195	-2.12
809.416	-1.61
809.637	-0.79
809.858	-2.41
810.079	-4.87
810.3	-1.22
810.52	-1.76
810.741	-3.3
810.962	-5.46
811.183	-8.25
811.403	-7.69
811.624	-9.48
811.845	-7.06
812.065	-5.05
812.286	-3.3
812.506	-3.83
812.727	-3.49
812.948	-3.8
813.168	-1.88
813.389	-1.68
813.609	0.43
813.83	1.83
814.05	1.07
814.27	0.97
814.491	5.67
814.711	4.62
814.931	1.53
815.152	-0.1
815.372	-2.76
815.592	-2.87
815.813	-3.43
816.033	-5.35
816.253	-3.38
816.473	-4.2
816.694	-2.09
816.914	-0.9
817.134	-2.34
817.354	-3.86
817.574	-3.13
817.794	-3.74
818.014	-4.92
818.234	-6.7
818.454	-7.36
818.674	-10.3
818.894	-14.39
819.114	-11.67
819.334	-9.9
819.554	-8.81
819.774	-6.48
819.994	-9.22
820.214	-9.37
820.433	-8.03
820.653	-10.4
820.873	-7.17
821.093	-6.72
821.312	-9.94
821.532	-7.38
821.752	-4.97
821.972	-7.19
822.191	-5.47
822.411	-6.6
822.63	-5.69
822.85	-5.29
823.07	-7.54
823.289	-6.66
823.509	-9.58
823.728	-7.96
823.948	-9.86
824.167	-10.23
824.387	-11.38
824.606	-9.75
824.825	-9.74
825.045	-9.01
825.264	-9.88
825.483	-8.05
825.703	-5.58
825.922	-9.33
826.141	-10.54
826.361	-11.24
826.58	-15.69
826.799	-16.13
827.018	-15.65
827.237	-15.87
827.456	-13.55
827.676	-13.67
827.895	-12.6
828.114	-10.37
828.333	-10.36
828.552	-10.11
828.771	-7.37
828.99	-10.64
829.209	-10.62
829.428	-8.38
829.647	-10.26
829.866	-9.86
830.084	-10.69
830.303	-10.31
830.522	-11.02
830.741	-9.23
830.96	-8.94
831.179	-8.61
831.397	-10.42
831.616	-9.06
831.835	-8.97
832.053	-6.89
832.272	-5.82
832.491	-4.93
832.709	-5.04
832.928	-5.11
833.147	-4.2
833.365	-3.2
833.584	-1.6
833.802	1.79
834.021	1.02
834.239	1.88
834.458	-1.48
834.676	-7.01
834.894	-7.77
835.113	-8.66
835.331	-9.65
835.55	-10.99
835.768	-9.41
835.986	-8.96
836.204	-10.59
836.423	-8.52
836.641	-9.17
836.859	-9.62
837.077	-8.33
837.296	-8.5
837.514	-11.06
837.732	-11.76
837.95	-12.52
838.168	-9.84
838.386	-12.23
838.604	-9.74
838.822	-10.63
839.04	-12.81
839.258	-12.67
839.476	-11.14
839.694	-9.75
839.912	-10.4
840.13	-9.48
840.348	-6.94
840.566	-11.09
840.783	-8.78
841.001	-10.85
841.219	-9.5
841.437	-5.74
841.655	-4.54
841.872	-5.44
842.09	-6.2
842.308	-6.13
842.525	-6.92
842.743	-5.79
842.961	-7.75
843.178	-10.5
843.396	-7.11
843.613	-6.34
843.831	-5.73
844.048	-5.65
844.266	-4.2
844.483	-3.93
844.701	-4.74
844.918	-4.48
845.136	-3.79
845.353	-6.9
845.57	-6.07
845.788	-2.05
846.005	-3.82
846.222	-4.92
846.439	-2.94
846.657	-3.96
846.874	-4.37
847.091	-5.75
847.308	-2.85
847.526	-6
847.743	-5.81
847.96	-6.09
848.177	-6.58
848.394	-8.02
848.611	-8.25
848.828	-8.01
849.045	-8.84
849.262	-9.25
849.479	-9.82
849.696	-9.8
849.913	-11.42
850.13	-15.63
850.347	-12.58
850.564	-13.41
850.78	-15.91
850.997	-18.72
851.214	-19.78
851.431	-18.15
851.647	-22.09
851.864	-22.35
852.081	-19.72
852.298	-23.27
852.514	-24.5
852.731	-22.53
852.948	-21.67
853.164	-22.51
853.381	-22.01
853.597	-23.68
853.814	-25.52
854.03	-28.9
854.247	-26.41
854.463	-26.36
854.68	-27.34
854.896	-26.93
855.113	-26.47
855.329	-26.17
855.545	-23.53
855.762	-23.64
855.978	-25.72
856.194	-26.89
856.411	-23.34
856.627	-20.54
856.843	-18.99
857.059	-17.7
857.275	-18.43
857.492	-16.58
857.708	-10.59
857.924	-7.81
858.14	-5.17
858.356	-5.11
858.572	-4.4
858.788	-6.49
859.004	-4.1
859.22	-6.39
859.436	-6.57
859.652	-7
859.868	-8.33
860.084	-9.56
860.3	-7.98
860.516	-7.13
860.731	-7.53
860.947	-10.18
861.163	-7.98
861.379	-6.91
861.595	-6.09
861.81	-5.01
862.026	-3.91
862.242	-5.29
862.457	-5.2
862.673	-4.49
862.889	-4.02
863.104	-5.35
863.32	-5.1
863.535	-4.25
863.751	-8.59
863.966	-5.44
864.182	-3.55
864.397	-7.16
864.613	-9.76
864.828	-11.66
865.044	-9.91
865.259	-7.52
865.474	-8.46
865.69	-6.52
865.905	-5.92
866.12	-8.87
866.336	-9.18
866.551	-7.6
866.766	-7.64
866.981	-9.97
867.196	-11.54
867.412	-9.7
867.627	-8.15
867.842	-9.64
868.057	-10.53
868.272	-10.78
868.487	-12.83
868.702	-15.89
868.917	-15.91
869.132	-14.48
869.347	-13.02
869.562	-13.69
869.777	-14.25
869.992	-15.33
870.207	-15.97
870.422	-16.74
870.636	-18.64
870.851	-21.25
871.066	-21.85
871.281	-21.16
871.495	-21.44
871.71	-19.08
871.925	-22.59
872.14	-22.97
872.354	-25.68
872.569	-25.87
872.783	-24.28
872.998	-23.88
873.213	-25.37
873.427	-21.64
873.642	-20.12
873.856	-19.11
874.071	-20.33
874.285	-23.19
874.5	-24.74
874.714	-25.71
874.928	-27.18
875.143	-27.27
875.357	-25.84
875.571	-27.9
875.786	-27.64
876	-25.25
876.214	-24.22
876.429	-25.54
876.643	-25.98
876.857	-25.03
877.071	-23.03
877.285	-24.76
877.499	-27.24
877.714	-24.86
877.928	-23.29
878.142	-25.11
878.356	-28.27
878.57	-25.94
878.784	-25.28
878.998	-26.56
879.212	-24.15
879.426	-24.67
879.639	-23.26
879.853	-23.65
880.067	-24.82
880.281	-24.59
880.495	-23.13
880.709	-19.47
880.922	-17.89
881.136	-15.84
881.35	-12.89
881.564	-12.32
881.777	-14.29
881.991	-13.63
882.205	-9.45
882.418	-10.6
882.632	-13.31
882.845	-13.9
883.059	-13.46
883.273	-13.49
883.486	-14.79
883.7	-12.92
883.913	-12.61
884.126	-11.03
884.34	-14.06
884.553	-16.41
884.767	-12.28
884.98	-11.89
885.193	-14.38
885.407	-13.69
885.62	-11.48
885.833	-11.42
886.046	-10.43
886.26	-11.94
886.473	-12.67
886.686	-14.43
886.899	-13.62
887.112	-15.28
887.326	-18.52
887.539	-17.8
887.752	-18.01
887.965	-20.21
888.178	-19.12
888.391	-17.09
888.604	-18.29
888.817	-20.34
889.03	-19.14
889.243	-19.63
889.455	-22.4
889.668	-22.3
889.881	-18.09
890.094	-17.95
890.307	-20.64
890.52	-18.98
890.732	-17.43
890.945	-18.23
891.158	-17.72
891.37	-20.33
891.583	-20.19
891.796	-16.92
892.008	-19.05
892.221	-20.19
892.434	-24.86
892.646	-26.6
892.859	-26.32
893.071	-24.23
893.284	-22.59
893.496	-24.2
893.709	-24.14
893.921	-22.5
894.133	-22.73
894.346	-23.8
894.558	-24.08
894.771	-23.55
894.983	-21.46
895.195	-20.7
895.407	-20.69
895.62	-23.44
895.832	-22.44
896.044	-18.63
896.256	-18.82
896.468	-21.04
896.681	-20.02
896.893	-18.95
897.105	-19.94
897.317	-21.61
897.529	-18.52
897.741	-16.59
897.953	-14.74
898.165	-15.85
898.377	-17.61
898.589	-15.28
898.801	-15.39
899.013	-12.18
899.224	-9.31
899.436	-8.14
899.648	-10.38
899.86	-10.47
900.072	-6.53
900.283	-6.01
900.495	-5.01
900.707	-5.03
900.919	-5.57
901.13	-4.6
901.342	-7.73
901.554	-9.25
901.765	-8.35
901.977	-9.94
902.188	-9.04
902.4	-11.48
902.611	-13.87
902.823	-15.46
903.034	-18.7
903.246	-20.53
903.457	-22.57
903.669	-24.51
903.88	-24.29
904.091	-25.68
904.303	-25.48
904.514	-25.61
904.725	-23.79
904.936	-23.79
905.148	-24.28
905.359	-22.19
905.57	-22.04
905.781	-24.11
905.992	-25.07
906.204	-24.16
906.415	-23.33
906.626	-25.93
906.837	-23.98
907.048	-25.38
907.259	-26.79
907.47	-29.38
907.681	-30.35
907.892	-25.57
908.103	-26.73
908.314	-28.93
908.525	-26.35
908.735	-26.29
908.946	-25.97
909.157	-26.47
909.368	-22.6
909.579	-20.56
909.789	-22.25
910	-22.35
910.211	-19.37
910.421	-19.68
910.632	-17.23
910.843	-19.11
911.053	-15.95
911.264	-13.47
911.475	-14.01
911.685	-14.04
911.896	-13.9
912.106	-14.21
912.317	-14.77
912.527	-11.95
912.737	-12.23
912.948	-13.65
913.158	-14.23
913.369	-16.67
913.579	-13.82
913.789	-12.15
914	-7.27
914.21	-6.25
914.42	-7.58
914.63	-7.29
914.841	-5.23
915.051	-4.66
915.261	-3.59
915.471	-1.08
915.681	0.47
915.891	-0.57
916.101	-1.86
916.311	-0.36
916.521	0.22
916.731	2.36
916.941	4.64
917.151	2.14
917.361	4.03
917.571	-0.97
917.781	-2.98
917.991	-4.97
918.201	-3.53
918.411	-7
918.621	-6.4
918.83	-5.54
919.04	-9.47
919.25	-6.39
919.46	-4.94
919.669	-7.25
919.879	-6.83
920.089	-8.98
920.298	-10.18
920.508	-9.68
920.717	-9.21
920.927	-11.69
921.136	-10.37
921.346	-12.6
921.555	-15.08
921.765	-15.28
921.974	-17.2
922.184	-20.49
922.393	-21.15
922.603	-22.14
922.812	-19.58
923.021	-20.38
923.23	-23.04
923.44	-25.92
923.649	-25.1
923.858	-25.5
924.067	-26.15
924.277	-27.34
924.486	-24.46
924.695	-25.43
924.904	-22.08
925.113	-23.2
925.322	-22.23
925.531	-20.64
925.74	-24
925.949	-24.04
926.158	-21.92
926.367	-21.75
926.576	-20.47
926.785	-20.62
926.994	-22.96
927.203	-21.68
927.412	-22.11
927.621	-23.59
927.83	-21.59
928.038	-22.16
928.247	-22.01
928.456	-21.65
928.665	-19.37
928.873	-18.27
929.082	-14.33
929.291	-14.69
929.499	-12.28
929.708	-12.89
929.916	-11.15
930.125	-12.1
930.333	-12.89
930.542	-9.99
930.75	-8.32
930.959	-8.44
931.167	-10.09
931.376	-11.49
931.584	-10.27
931.793	-8.89
932.001	-9.74
932.209	-10.38
932.418	-14.04
932.626	-14.4
932.834	-17.03
933.042	-21.31
933.251	-22.01
933.459	-21.92
933.667	-22.74
933.875	-21.7
934.083	-19.37
934.291	-17.67
934.499	-16.06
934.707	-16.93
934.915	-16.66
935.123	-14.27
935.331	-14.62
935.539	-19.24
935.747	-21.06
935.955	-21.59
936.163	-20.92
936.371	-20.33
936.579	-18.53
936.787	-19.31
936.995	-21.02
937.202	-23.11
937.41	-22.7
937.618	-21.97
937.826	-21.2
938.033	-24.69
938.241	-27.95
938.449	-25.74
938.656	-24.79
938.864	-24.47
939.071	-24.58
939.279	-22.81
939.486	-19.75
939.694	-19.31
939.901	-20.4
940.109	-20.51
940.316	-18.79
940.524	-20.89
940.731	-22.88
940.939	-21.02
941.146	-20.5
941.353	-21.32
941.561	-22.42
941.768	-24.66
941.975	-20.98
942.182	-21.21
942.39	-21.24
942.597	-18.58
942.804	-18.66
943.011	-20.66
943.218	-20.19
943.425	-19.99
943.632	-19.6
943.839	-21.9
944.046	-23.01
944.253	-23.18
944.46	-23.1
944.667	-19.27
944.874	-19.78
945.081	-17.57
945.288	-14.78
945.495	-12.8
945.702	-11.17
945.909	-13.06
946.115	-10.76
946.322	-10.82
946.529	-12.68
946.736	-14.64
946.942	-13.58
947.149	-14.58
947.356	-16.6
947.562	-18.15
947.769	-17.43
947.976	-19.32
948.182	-15.84
948.389	-18.03
948.595	-17.67
948.802	-17.16
949.008	-18.88
949.215	-17.39
949.421	-16.19
949.628	-17.15
949.834	-17.13
950.04	-17.65
950.247	-12.71
950.453	-10.66
950.659	-12.53
950.865	-9.21
951.072	-14.15
951.278	-12.17
951.484	-14.38
951.69	-19.17
951.896	-20.06
952.103	-19.78
952.309	-18.63
952.515	-19.51
952.721	-18.19
952.927	-16.06
953.133	-17
953.339	-19.32
953.545	-19.14
953.751	-18.37
953.957	-15.94
954.163	-17.01
954.369	-14.98
954.574	-17.33
954.78	-17.34
954.986	-16.31
955.192	-15.21
955.398	-16.46
955.603	-20.78
955.809	-18.99
956.015	-17.17
956.22	-16.44
956.426	-14.07
956.632	-18.31
956.837	-19.24
957.043	-17.82
957.248	-17.6
957.454	-15.7
957.66	-18.45
957.865	-18.31
958.07	-15.55
958.276	-17.8
958.481	-20.95
958.687	-21.84
958.892	-22.73
959.097	-22.62
959.303	-23.05
959.508	-23.25
959.713	-21.4
959.919	-21.05
960.124	-21.33
960.329	-21.14
960.534	-17.49
960.739	-17.39
960.945	-16.47
961.15	-15.81
961.355	-16.87
961.56	-20.81
961.765	-21.2
961.97	-19.37
962.175	-18.52
962.38	-22.1
962.585	-21.11
962.79	-23.62
962.995	-23.1
963.2	-24.31
963.404	-24.8
963.609	-27.84
963.814	-28.51
964.019	-31.51
964.224	-32.71
964.428	-30.57
964.633	-28.55
964.838	-26.79
965.042	-26.31
965.247	-27.51
965.452	-27.83
965.656	-26.93
965.861	-25.96
966.066	-26.3
966.27	-23.56
966.475	-20.18
966.679	-24.14
966.884	-24.83
967.088	-26.17
967.292	-25.36
967.497	-23.52
967.701	-23.87
967.906	-21.96
968.11	-19.7
968.314	-16.38
968.518	-18.28
968.723	-15.48
968.927	-14.99
969.131	-13.19
969.335	-10.97
969.539	-10.87
969.744	-9.53
969.948	-7.56
970.152	-6.13
970.356	-4
970.56	-3.14
970.764	-5.08
970.968	-2.89
971.172	-2.55
971.376	-1.36
971.58	0
971.784	0.51
971.988	-1.3
972.192	2.38
972.395	1.36
972.599	-2.78
972.803	-4.24
973.007	-1.69
973.21	-2.94
973.414	-3.14
973.618	-4.62
973.822	-5.47
974.025	-5.48
974.229	-5.86
974.432	-10.34
974.636	-13.91
974.84	-12.71
975.043	-12.03
975.247	-13.82
975.45	-15.12
975.654	-14.47
975.857	-11.55
976.06	-12.32
976.264	-14.3
976.467	-13.61
976.671	-14.33
976.874	-14.46
977.077	-15.31
977.28	-16.45
977.484	-17.75
977.687	-17.88
977.89	-15.13
978.093	-14.77
978.297	-13.45
978.5	-16.85
978.703	-15.77
978.906	-14.44
979.109	-16.45
979.312	-15.62
979.515	-15.96
979.718	-16.64
979.921	-15.99
980.124	-19.16
980.327	-19.32
980.53	-19.51
980.733	-15.56
980.936	-11.12
981.138	-13.4
981.341	-13.27
981.544	-13.37
981.747	-14.23
981.949	-15.43
982.152	-15.88
982.355	-16.28
982.558	-12.69
982.76	-16.03
982.963	-15.82
983.165	-14.38
983.368	-12.72
983.571	-13.29
983.773	-11.76
983.976	-12.07
984.178	-13.46
984.381	-14.93
984.583	-17.76
984.785	-18.6
984.988	-16.24
985.19	-14.17
985.392	-14.82
985.595	-17.5
985.797	-16.11
985.999	-13.69
986.202	-12.85
986.404	-11.56
986.606	-7.97
986.808	-8.37
987.01	-7.61
987.212	-10.11
987.415	-11.32
987.617	-10.7
987.819	-11.12
988.021	-8.9
988.223	-10.63
988.425	-11.21
988.627	-11.17
988.829	-14.74
989.031	-12.44
989.232	-13.13
989.434	-12.68
989.636	-15.04
989.838	-14.17
990.04	-12.19
990.242	-13.19
990.443	-13.56
990.645	-11.49
990.847	-7.77
991.048	-6.22
991.25	-7.72
991.452	-8.59
991.653	-9.7
991.855	-9.77
992.057	-11.26
992.258	-11.13
992.46	-11
992.661	-10.08
992.863	-11.91
993.064	-11.67
993.265	-13.46
993.467	-14.95
993.668	-11.11
993.87	-11.39
994.071	-11.77
994.272	-12.18
994.473	-10.97
994.675	-10.39
994.876	-9.51
995.077	-9.26
995.278	-7.94
995.48	-7.33
995.681	-8.8
995.882	-4.59
996.083	-6.05
996.284	-9.66
996.485	-9.62
996.686	-12.45
996.887	-13.39
997.088	-17.35
997.289	-19.59
997.49	-20.41
997.691	-20
997.892	-19.75
998.092	-14.24
998.293	-13.98
998.494	-14.73
998.695	-15.86
998.896	-13.98
999.096	-15.12
999.297	-13.9
999.498	-15.61
999.698	-17.94
999.899	-21.92
1000.1	-24.46
1000.3	-23.18
1000.501	-24.09
1000.701	-24.85
1000.902	-24.77
1001.102	-25.19
1001.303	-22.77
1001.503	-25.07
1001.704	-24.62
1001.904	-25.17
1002.105	-26.5
1002.305	-25.28
1002.505	-27.26
1002.706	-28.47
1002.906	-26.6
1003.106	-27.22
1003.306	-25.58
1003.507	-22.71
1003.707	-23.08
1003.907	-22.02
1004.107	-20.43
1004.307	-23.8
1004.507	-21.84
1004.707	-22.06
1004.907	-23.68
1005.107	-24.57
1005.308	-23.71
1005.507	-25.63
1005.707	-22.77
1005.907	-22.77
1006.107	-19.89
1006.307	-18.31
1006.507	-20.23
1006.707	-19.23
1006.907	-17.89
1007.106	-18.86
1007.306	-19.58
1007.506	-19.99
1007.706	-19.35
1007.905	-21.72
1008.105	-21.98
1008.305	-23.68
1008.504	-24.22
1008.704	-17.86
1008.903	-15.94
1009.103	-14.01
1009.303	-15.77
1009.502	-15.84
1009.702	-16.87
1009.901	-16.33
1010.1	-18.03
1010.3	-16.54
1010.499	-17.52
1010.699	-20.42
1010.898	-21.42
1011.097	-20.53
1011.296	-20.88
1011.496	-23.19
1011.695	-22.04
1011.894	-22.81
1012.093	-18.43
1012.293	-18.62
1012.492	-19.01
1012.691	-18.68
1012.89	-19.14
1013.089	-22.14
1013.288	-21.35
1013.487	-20.12
1013.686	-20.41
1013.885	-22.67
1014.084	-20.06
1014.283	-20.49
1014.482	-19.72
1014.681	-19.07
1014.88	-24.28
1015.078	-23.53
1015.277	-27.66
1015.476	-27.82
1015.675	-27.04
1015.873	-26.84
1016.072	-27.56
1016.271	-25.24
1016.47	-29.44
1016.668	-27.7
1016.867	-28.37
1017.065	-29.58
1017.264	-30.37
1017.463	-30.01
1017.661	-27.55
1017.86	-28.42
1018.058	-28.33
1018.256	-30.7
1018.455	-32.32
1018.653	-30.63
1018.852	-29.39
1019.05	-30.86
1019.248	-32.01
1019.447	-33.24
1019.645	-34.93
1019.843	-36.97
1020.041	-33.41
1020.24	-35.42
1020.438	-31.16
1020.636	-32.08
1020.834	-34.64
1021.032	-31.47
1021.23	-33.26
1021.428	-30.84
1021.626	-26.53
1021.824	-26.58
1022.022	-27.48
1022.22	-25.16
1022.418	-25.41
1022.616	-24.86
1022.814	-25.91
1023.012	-26.96
1023.21	-24.85
1023.408	-24.64
1023.606	-25.98
1023.803	-22.09
1024.001	-21.55
1024.199	-24.36
1024.397	-23.48
1024.594	-22.96
1024.792	-25.89
1024.99	-25.57
1025.187	-25.11
1025.385	-20.92
1025.582	-19.76
1025.78	-19.31
1025.977	-17.58
1026.175	-18.88
1026.372	-18.14
1026.57	-20.84
1026.767	-18.25
1026.965	-18.26
1027.162	-17.45
1027.359	-17.4
1027.557	-16.51
1027.754	-21.23
1027.951	-23.2
1028.148	-21.66
1028.346	-24.25
1028.543	-27.23
1028.74	-26.86
1028.937	-27.53
1029.134	-26.05
1029.331	-26.96
1029.528	-25.85
1029.725	-25.98
1029.923	-30.14
1030.12	-27.35
1030.317	-25.2
1030.513	-23.22
1030.71	-23.01
1030.907	-20.58
1031.104	-21.16
1031.301	-23.13
1031.498	-23.01
1031.695	-24.46
1031.892	-24.15
1032.088	-24.6
1032.285	-25
1032.482	-24.75
1032.678	-27.99
1032.875	-31.19
1033.072	-29.89
1033.268	-31.82
1033.465	-32.66
1033.662	-34.84
1033.858	-32.78
1034.055	-31.21
1034.251	-28.1
1034.448	-28.67
1034.644	-27.31
1034.84	-25.07
1035.037	-22.93
1035.233	-23.55
1035.43	-22.3
1035.626	-22.53
1035.822	-22.51
1036.019	-22.9
1036.215	-25.67
1036.411	-26.63
1036.607	-29.45
1036.803	-31.38
1037	-31.52
1037.196	-33.46
1037.392	-34.02
1037.588	-36.16
1037.784	-34.76
1037.98	-35.47
1038.176	-35.7
1038.372	-36.55
1038.568	-35.31
1038.764	-32.5
1038.96	-28.91
1039.156	-30.03
1039.352	-29.3
1039.547	-26.5
1039.743	-25.88
1039.939	-24.5
1040.135	-25.12
1040.331	-27.24
1040.526	-24.84
1040.722	-26.71
1040.918	-28.15
1041.113	-32.04
1041.309	-32.34
1041.505	-34.28
1041.7	-34.3
1041.896	-34.11
1042.091	-34.82
1042.287	-35.06
1042.482	-34.34
1042.678	-33.92
1042.873	-32.31
1043.069	-33.57
1043.264	-31.95
1043.459	-28.71
1043.655	-27.71
1043.85	-28.74
1044.045	-27.2
1044.24	-26.84
1044.436	-25.3
1044.631	-26.34
1044.826	-26.8
1045.021	-30.36
1045.216	-29.03
