Data from FLMT021711__11__17-55-07-142.txt Node

Date: Tue Nov 05 17:55:07 CET 2024
User: Etudiants TP
Spectrometer: FLMT02171
Trigger mode: 0
Integration Time (sec): 1.000000E-1
Scans to average: 5
Electric dark correction enabled: true
Nonlinearity correction enabled: false
Boxcar width: 15
XAxis mode: Wavelengths
Number of Pixels in Spectrum: 3648
>>>>>Begin Spectral Data<<<<<
194.658	-66.25
194.923	-63.27
195.188	-55.25
195.453	-55.4
195.717	-50.77
195.982	-48.88
196.247	-46.69
196.512	-48.19
196.777	-47.09
197.042	-45.64
197.307	-45.66
197.572	-41.5
197.837	-40.79
198.101	-38.49
198.366	-36.25
198.631	-33.49
198.896	-25.81
199.161	-18.48
199.425	-11.2
199.69	-1.95
199.955	-3.67
200.22	-7.18
200.484	-7.67
200.749	-8.21
201.014	-6.67
201.278	-5.66
201.543	-5.08
201.807	-4.74
202.072	-3.02
202.337	-1.87
202.601	-3.22
202.866	-4.3
203.13	-2.84
203.395	-6.11
203.659	-5.15
203.924	-5.59
204.189	-4.89
204.453	-3.26
204.717	-1.68
204.982	0.68
205.246	2.8
205.511	5.37
205.775	4.74
206.04	8.87
206.304	9.82
206.568	11.73
206.833	10.62
207.097	11.61
207.361	13.89
207.626	18.28
207.89	19.56
208.154	20.75
208.419	22.86
208.683	23.09
208.947	25.14
209.211	25.27
209.476	25.56
209.74	25.81
210.004	25.82
210.268	26.69
210.532	29.57
210.796	30.14
211.061	30.84
211.325	30.35
211.589	29.61
211.853	30.41
212.117	30.08
212.381	30.3
212.645	29.22
212.909	28.67
213.173	26.39
213.437	25.81
213.701	26.8
213.965	26.34
214.229	22.5
214.493	21.49
214.757	20.09
215.021	20.28
215.285	23.53
215.549	26.14
215.813	23.98
216.077	23.62
216.34	25.33
216.604	23.6
216.868	25.33
217.132	26.51
217.396	24.33
217.659	24.12
217.923	21.43
218.187	20.44
218.451	19.76
218.714	15.37
218.978	15.71
219.242	17.13
219.505	18.18
219.769	20.08
220.033	19.41
220.296	20.89
220.56	21.02
220.824	19.53
221.087	21.36
221.351	20.89
221.614	20.17
221.878	20.27
222.142	20.36
222.405	20.68
222.669	22.77
222.932	20.02
223.196	18.63
223.459	15.33
223.722	15.8
223.986	14.48
224.249	13.34
224.513	12.73
224.776	13.3
225.04	11.91
225.303	10.9
225.566	12.04
225.83	13.6
226.093	16.72
226.356	15.87
226.62	14.21
226.883	15.6
227.146	15.74
227.409	15.01
227.673	13.1
227.936	11.28
228.199	12.54
228.462	9.87
228.725	9.77
228.989	9.76
229.252	10.32
229.515	15.28
229.778	15.21
230.041	14.23
230.304	11.56
230.567	12.47
230.83	10.66
231.093	12.57
231.356	12.22
231.619	18.18
231.882	15.48
232.145	18.07
232.408	17.06
232.671	16.17
232.934	16.22
233.197	14.63
233.46	13.45
233.723	14.25
233.986	12.19
234.249	9.08
234.512	11.28
234.775	14.21
235.037	14.31
235.3	14.38
235.563	14.12
235.826	14.8
236.089	17.95
236.351	16.26
236.614	19.75
236.877	20.92
237.14	22.85
237.402	23.79
237.665	16.84
237.928	16.07
238.19	13.09
238.453	16.8
238.716	15.42
238.978	15.74
239.241	15.14
239.503	17.92
239.766	13.13
240.029	11.45
240.291	14.26
240.554	14.34
240.816	13.6
241.079	13.33
241.341	13.8
241.604	14.06
241.866	11.61
242.129	12.59
242.391	15.09
242.653	13.28
242.916	14.42
243.178	12.61
243.441	12.47
243.703	11.41
243.965	10.47
244.228	10.56
244.49	11.88
244.752	11.74
245.015	11.32
245.277	12.86
245.539	11.4
245.801	13.69
246.064	13.81
246.326	13.11
246.588	11.31
246.85	14.26
247.112	14.5
247.374	16.17
247.637	16.63
247.899	13.88
248.161	15.4
248.423	9.46
248.685	10.29
248.947	10.37
249.209	10
249.471	11.02
249.733	10.87
249.995	9.59
250.257	8.9
250.519	7.17
250.781	10.85
251.043	8.56
251.305	11.58
251.567	13.9
251.829	13.6
252.091	12.88
252.353	8.8
252.615	9.37
252.876	6.96
253.138	4.47
253.4	0.89
253.662	1.59
253.924	3.3
254.185	3.62
254.447	5.05
254.709	5.86
254.971	6.51
255.232	7.71
255.494	5.84
255.756	4.14
256.017	6.46
256.279	6.84
256.541	6.84
256.802	5.97
257.064	7.87
257.326	6.54
257.587	7.84
257.849	9.08
258.11	11.5
258.372	13.08
258.633	14.66
258.895	12.57
259.156	11.39
259.418	9.05
259.679	5.03
259.941	3.52
260.202	6.49
260.464	8.75
260.725	7.4
260.987	7.05
261.248	7.62
261.509	8.71
261.771	7.43
262.032	8.54
262.293	7.59
262.555	7.48
262.816	5.71
263.077	3.02
263.338	0.87
263.6	2.34
263.861	2.66
264.122	2.52
264.383	4.26
264.645	6.13
264.906	5.33
265.167	6.51
265.428	6.63
265.689	6.67
265.95	5.11
266.211	6.93
266.473	5.55
266.734	2.23
266.995	-0.55
267.256	-1.41
267.517	2.53
267.778	6.53
268.039	9.13
268.3	6.33
268.561	4.12
268.822	6.24
269.083	3.53
269.344	2.01
269.604	0.92
269.865	0.34
270.126	-3.47
270.387	-1.73
270.648	-0.41
270.909	0.05
271.17	-0.34
271.43	-3.39
271.691	-6.41
271.952	-8.84
272.213	-7.07
272.473	-10.04
272.734	-8.36
272.995	-5.83
273.256	-6.46
273.516	-3.63
273.777	-6.08
274.038	-4.28
274.298	-7.03
274.559	-7.03
274.82	-1.79
275.08	1.51
275.341	4.55
275.601	2.78
275.862	-0.91
276.122	-1.53
276.383	0.7
276.643	2.81
276.904	1.86
277.164	5.51
277.425	7.29
277.685	12.18
277.946	12.38
278.206	14.15
278.467	16
278.727	14.73
278.987	13.89
279.248	13.17
279.508	15.09
279.768	17.95
280.029	21.09
280.289	17.83
280.549	17.44
280.81	16.35
281.07	14.76
281.33	15.84
281.59	14.41
281.851	17.36
282.111	16.02
282.371	15.83
282.631	16.15
282.891	12.84
283.151	11.42
283.412	8.46
283.672	7.45
283.932	8.64
284.192	10.33
284.452	7.69
284.712	5.51
284.972	4.09
285.232	2.37
285.492	4.56
285.752	2.08
286.012	8.37
286.272	10.08
286.532	7.48
286.792	8.77
287.052	10.16
287.312	10.15
287.571	8.8
287.831	7.76
288.091	4.81
288.351	6.21
288.611	10.08
288.871	10.08
289.13	11.04
289.39	6.24
289.65	6.85
289.91	3.29
290.17	5.48
290.429	8.25
290.689	6.77
290.949	4.98
291.208	6.2
291.468	10.18
291.728	10.97
291.987	12.42
292.247	10.03
292.506	12.95
292.766	16.26
293.026	16.58
293.285	17.66
293.545	19.01
293.804	18.67
294.064	13.95
294.323	11.55
294.583	11.56
294.842	11.71
295.102	12.48
295.361	12.84
295.621	14.69
295.88	15.89
296.139	14.63
296.399	15.25
296.658	10.58
296.917	10.62
297.177	7.72
297.436	9.7
297.695	8.87
297.955	10.69
298.214	9.08
298.473	9.49
298.732	12.52
298.992	14.5
299.251	13.9
299.51	10.56
299.769	12.24
300.028	11.91
300.287	13.3
300.547	12.19
300.806	9.55
301.065	12.02
301.324	13.23
301.583	9.16
301.842	5.61
302.101	4.76
302.36	4.77
302.619	4.16
302.878	4.49
303.137	2.18
303.396	3.52
303.655	4.52
303.914	1.55
304.173	3.54
304.432	2.62
304.691	5.26
304.95	3.96
305.208	7.02
305.467	7.56
305.726	7.03
305.985	8.23
306.244	9.82
306.503	8.92
306.761	6.53
307.02	4.5
307.279	5.02
307.537	5.51
307.796	1.52
308.055	0.02
308.314	1.54
308.572	0.56
308.831	2.23
309.09	1.91
309.348	2.79
309.607	3.37
309.865	6.74
310.124	6.4
310.382	8.37
310.641	9.51
310.9	7.63
311.158	9.54
311.417	9.68
311.675	9.67
311.933	11.09
312.192	11.71
312.45	11.71
312.709	11.99
312.967	10.4
313.226	11.09
313.484	10.15
313.742	9.12
314.001	7.91
314.259	7.32
314.517	8.29
314.776	10.55
315.034	13.2
315.292	11.39
315.55	9.33
315.809	9.49
316.067	9.27
316.325	7.52
316.583	7.86
316.841	6.03
317.1	4.78
317.358	1.06
317.616	0.98
317.874	0.33
318.132	-0.5
318.39	-0.27
318.648	-1.5
318.906	-1.42
319.164	-2.34
319.422	-3.23
319.68	-4.16
319.938	-3.56
320.196	-2.34
320.454	-1.04
320.712	-1.43
320.97	-0.79
321.228	-3.31
321.486	-0.89
321.744	0.42
322.002	1.81
322.26	-0.86
322.517	-0.96
322.775	-3.19
323.033	-4.45
323.291	-3.1
323.549	0.09
323.806	1.17
324.064	1.41
324.322	2.52
324.58	1.89
324.837	3.22
325.095	1.46
325.353	3.75
325.61	4.44
325.868	3.44
326.126	6.12
326.383	4.05
326.641	4.4
326.898	6.6
327.156	5.47
327.413	5.48
327.671	5.36
327.928	7.31
328.186	6.79
328.443	4.86
328.701	8.54
328.958	8.97
329.216	9.77
329.473	6.98
329.731	8.25
329.988	7.59
330.245	10.8
330.503	12.08
330.76	12.04
331.017	14.11
331.275	12.69
331.532	11.35
331.789	10.26
332.047	10.94
332.304	7.82
332.561	8.72
332.818	8.98
333.076	10.43
333.333	11.56
333.59	11.02
333.847	13.9
334.104	11.72
334.361	10.6
334.618	9.4
334.876	6.33
335.133	7.6
335.39	7.35
335.647	8.49
335.904	4.79
336.161	2.45
336.418	2.97
336.675	-1.41
336.932	0.25
337.189	-0.17
337.446	1.76
337.703	0.6
337.96	-2.38
338.216	-2.83
338.473	-5.92
338.73	-5.35
338.987	-6.08
339.244	-2.33
339.501	-4.22
339.757	-3.78
340.014	-2.62
340.271	-1.47
340.528	-0.84
340.785	2.57
341.041	2.81
341.298	-0.51
341.555	-0.07
341.811	-2.39
342.068	-3.19
342.325	-0.82
342.581	1.93
342.838	3.93
343.094	3.44
343.351	2.84
343.608	0.44
343.864	1.56
344.121	3.1
344.377	2.5
344.634	1.77
344.89	1.12
345.147	0.54
345.403	-0.51
345.66	-0.81
345.916	1
346.172	-1.36
346.429	-3.19
346.685	-4.27
346.942	-3.95
347.198	-8.45
347.454	-6.45
347.711	-6.69
347.967	-10
348.223	-8.47
348.48	-10.19
348.736	-6.47
348.992	-8.58
349.248	-4.56
349.504	-4.62
349.761	-4.56
350.017	-3.65
350.273	-4.83
350.529	-6.06
350.785	-6.69
351.041	-6.97
351.297	-5.3
351.554	-5.94
351.81	-7.12
352.066	-8.07
352.322	-6.79
352.578	-5.2
352.834	-6.55
353.09	-6.76
353.346	-7.27
353.602	-9
353.858	-10.32
354.114	-10.45
354.369	-7.65
354.625	-6.04
354.881	-8.66
355.137	-6.25
355.393	-6.24
355.649	-4.95
355.905	-5.42
356.16	-5.28
356.416	-3.75
356.672	-11.19
356.928	-9.22
357.183	-10.57
357.439	-11.15
357.695	-11.42
357.951	-8.25
358.206	-9.01
358.462	-10.12
358.718	-11.51
358.973	-10.97
359.229	-11.88
359.484	-11.08
359.74	-8.91
359.996	-8.09
360.251	-5.57
360.507	-7.24
360.762	-6.11
361.018	-3.32
361.273	-4.89
361.529	-3.52
361.784	-3.07
362.04	-1.27
362.295	-2.51
362.55	-3.43
362.806	-0.13
363.061	0.31
363.316	0.59
363.572	1.66
363.827	4.72
364.082	1.77
364.338	1.31
364.593	1.62
364.848	1.99
365.104	0.77
365.359	3.66
365.614	3.31
365.869	0.62
366.124	1.71
366.38	1.64
366.635	3.54
366.89	4.3
367.145	4.15
367.4	6.72
367.655	7.56
367.91	7.84
368.165	5.95
368.42	3.61
368.675	4.86
368.93	4.49
369.185	2.83
369.44	4.01
369.695	6.57
369.95	4.47
370.205	4
370.46	3.97
370.715	3.78
370.97	4.9
371.225	4.76
371.48	5.78
371.734	5.64
371.989	6.76
372.244	7.08
372.499	9.22
372.754	7.96
373.008	6.07
373.263	1.85
373.518	3.71
373.773	2.58
374.027	0.53
374.282	2.79
374.537	2.88
374.791	4.26
375.046	3.7
375.301	2.44
375.555	0.17
375.81	0.53
376.064	1.02
376.319	4.35
376.573	0.87
376.828	-1.2
377.082	3.36
377.337	-0.05
377.591	-3
377.846	-0.35
378.1	1.74
378.355	2.89
378.609	2.48
378.863	-0.9
379.118	-0.27
379.372	-1.8
379.627	-3.07
379.881	-4.68
380.135	-5.58
380.389	-6
380.644	-5.8
380.898	-5.38
381.152	-3.58
381.407	-3.85
381.661	-1.56
381.915	0.16
382.169	0.38
382.423	-0.23
382.677	-3.51
382.932	-2.1
383.186	-0.58
383.44	0.61
383.694	2.44
383.948	0.19
384.202	-0.07
384.456	3.95
384.71	4.68
384.964	3.62
385.218	6.45
385.472	7.84
385.726	6.42
385.98	7.79
386.234	7.23
386.488	3.6
386.742	5.65
386.996	2.69
387.249	4.1
387.503	5.2
387.757	7.33
388.011	7.71
388.265	6.83
388.518	7.77
388.772	9.24
389.026	10.7
389.28	8.58
389.533	6.74
389.787	9.8
390.041	8.36
390.295	8.79
390.548	9.21
390.802	12.45
391.055	11.44
391.309	11.56
391.563	9.67
391.816	10.75
392.07	9.27
392.323	9.04
392.577	11.01
392.83	12.11
393.084	17.08
393.337	19.32
393.591	19.88
393.844	19.32
394.098	23.14
394.351	27.86
394.604	28.62
394.858	32.24
395.111	31.78
395.364	29.82
395.618	32.13
395.871	30.69
396.124	30.93
396.378	31.47
396.631	31.61
396.884	28.46
397.137	28.53
397.391	30.22
397.644	26.59
397.897	26.47
398.15	27.82
398.403	31.46
398.657	27.75
398.91	25.94
399.163	25.68
399.416	25.95
399.669	25.01
399.922	23.71
400.175	22.26
400.428	20.49
400.681	19.46
400.934	15.77
401.187	13.76
401.44	13.73
401.693	12.74
401.946	8.91
402.199	3.92
402.452	1.74
402.704	-2.38
402.957	-3.57
403.21	-2.9
403.463	-4.98
403.716	-4.42
403.969	-4.79
404.221	-5.99
404.474	-4.3
404.727	-0.53
404.98	1.62
405.232	1.35
405.485	2.6
405.738	4.46
405.99	3.37
406.243	3.53
406.496	6.49
406.748	8.09
407.001	6.36
407.253	7.08
407.506	7.22
407.759	8.61
408.011	7.35
408.264	6.94
408.516	7.89
408.769	4.91
409.021	6.99
409.274	6.89
409.526	6.98
409.778	6.59
410.031	10.18
410.283	10.38
410.536	15.41
410.788	12.67
411.04	12.79
411.293	14.13
411.545	16.56
411.797	16.83
412.049	16.27
412.302	17.25
412.554	16.92
412.806	16.24
413.058	15.03
413.311	15.53
413.563	13.69
413.815	13.85
414.067	11.12
414.319	9.3
414.571	9.37
414.823	8.58
415.075	7.34
415.328	7.23
415.58	10.24
415.832	10.19
416.084	11.07
416.336	10.23
416.588	14.81
416.84	12.14
417.091	16.02
417.343	13.5
417.595	15.37
417.847	15.76
418.099	17.92
418.351	18.69
418.603	21.63
418.855	23.93
419.106	23.42
419.358	23.43
419.61	23.58
419.862	23.96
420.114	21.83
420.365	21.4
420.617	20.19
420.869	20.22
421.12	19.91
421.372	21.68
421.624	20.79
421.875	20.44
422.127	17.9
422.379	18.37
422.63	21.09
422.882	19.41
423.133	20.61
423.385	20.87
423.636	22.28
423.888	24.06
424.139	25.9
424.391	22.66
424.642	22.11
424.894	19.56
425.145	19.36
425.396	15.63
425.648	18.07
425.899	15.72
426.151	13.63
426.402	13.88
426.653	12.62
426.905	12.66
427.156	10.46
427.407	10.12
427.658	10.23
427.91	7.74
428.161	8.02
428.412	10.86
428.663	10.45
428.914	11.44
429.166	11.8
429.417	12.3
429.668	10.11
429.919	8.3
430.17	6.77
430.421	6.02
430.672	9.07
430.923	9.12
431.174	7.28
431.425	7.61
431.676	6.07
431.927	3.03
432.178	4.55
432.429	5.52
432.68	4.64
432.931	8.54
433.182	12.68
433.433	9.63
433.683	11.81
433.934	10.95
434.185	9.66
434.436	8.69
434.687	8.27
434.937	10.35
435.188	8.63
435.439	8.63
435.69	10.41
435.94	7.85
436.191	7.37
436.442	8.27
436.692	6.27
436.943	3.63
437.194	3
437.444	6.79
437.695	10.67
437.945	10.83
438.196	10.38
438.447	9.6
438.697	9.42
438.948	8.77
439.198	5.28
439.449	2.11
439.699	3.95
439.949	4.46
440.2	3.13
440.45	4.42
440.701	2.07
440.951	1.74
441.201	2.32
441.452	0.1
441.702	0.78
441.952	0.89
442.203	2.21
442.453	0.76
442.703	-0.23
442.953	1.42
443.204	2.17
443.454	0.4
443.704	2.06
443.954	0.04
444.204	-1.41
444.455	0.91
444.705	2.69
444.955	1.78
445.205	1.13
445.455	-0.4
445.705	0.68
445.955	-0.27
446.205	-1.08
446.455	-1.08
446.705	-0.7
446.955	0.9
447.205	3
447.455	3.14
447.705	0.51
447.955	-1.16
448.205	-1.17
448.454	-1.2
448.704	-1.64
448.954	-2.79
449.204	-1
449.454	-2.11
449.704	-3.35
449.953	-4.7
450.203	-1.36
450.453	-3.13
450.703	-1.55
450.952	-2.75
451.202	-1.13
451.452	-2.02
451.701	2.21
451.951	6.48
452.201	5.43
452.45	3.9
452.7	6.33
452.949	5.88
453.199	5.03
453.448	7.27
453.698	9.42
453.947	8.27
454.197	7.36
454.446	6.46
454.696	8.82
454.945	7.79
455.195	6.7
455.444	6.46
455.693	11.33
455.943	9.37
456.192	9.7
456.442	9.94
456.691	9.55
456.94	8.9
457.189	8.38
457.439	10.6
457.688	14.21
457.937	12.32
458.186	13.77
458.436	13.12
458.685	14.39
458.934	13.31
459.183	13.65
459.432	14.03
459.681	13.42
459.93	12.4
460.179	13.77
460.429	11.54
460.678	14.04
460.927	17.41
461.176	15.62
461.425	14.48
461.674	18.25
461.923	18.34
462.172	17.44
462.42	16.21
462.669	18.94
462.918	19.47
463.167	20.1
463.416	17.24
463.665	18.6
463.914	19.73
464.162	16.69
464.411	18.69
464.66	19.58
464.909	19.96
465.158	20.1
465.406	18.22
465.655	20.49
465.904	22.04
466.152	22.86
466.401	23.55
466.65	25.81
466.898	24.22
467.147	19.89
467.395	20.45
467.644	21.54
467.893	20.63
468.141	21.51
468.39	18.32
468.638	14.82
468.887	13.42
469.135	13.54
469.384	12.86
469.632	13.02
469.88	13.3
470.129	14.51
470.377	11.59
470.626	14.56
470.874	16.61
471.122	18.25
471.371	17.03
471.619	15.68
471.867	19.9
472.115	19.97
472.364	17.78
472.612	19.57
472.86	18.36
473.108	18.63
473.356	18.39
473.605	18.38
473.853	14.79
474.101	13.82
474.349	12.11
474.597	14.3
474.845	13.27
475.093	10.28
475.341	8.88
475.589	8.51
475.837	9.21
476.085	13.02
476.333	12.39
476.581	12.92
476.829	12.62
477.077	15.05
477.325	15.88
477.573	18.94
477.821	17.33
478.069	18.5
478.317	16.45
478.564	19.51
478.812	17.26
479.06	16.36
479.308	15.54
479.555	16.15
479.803	13.85
480.051	16.28
480.299	16.3
480.546	16.81
480.794	14.54
481.042	14.56
481.289	12.91
481.537	14.07
481.784	12.84
482.032	15.72
482.28	15.4
482.527	15.03
482.775	16.04
483.022	17.6
483.27	19.71
483.517	23.04
483.765	20.57
484.012	20.96
484.259	19.04
484.507	20.86
484.754	20.76
485.002	19.84
485.249	17.1
485.496	21.03
485.744	19.63
485.991	18.69
486.238	16.04
486.486	19.37
486.733	21.12
486.98	23.88
487.227	21.7
487.474	23
487.722	24.99
487.969	22.65
488.216	21.9
488.463	22.77
488.71	19.15
488.957	18.45
489.204	19.46
489.451	19.58
489.699	18.51
489.946	15.45
490.193	16.27
490.44	16.73
490.687	16.65
490.934	14.77
491.18	10.35
491.427	12.15
491.674	15.08
491.921	16.5
492.168	16.46
492.415	12.23
492.662	13.76
492.909	16.22
493.155	14.86
493.402	14.57
493.649	14.2
493.896	14.19
494.142	10.1
494.389	9.26
494.636	7.23
494.883	4.55
495.129	3.79
495.376	0.68
495.623	1.98
495.869	4.42
496.116	5.02
496.362	8.48
496.609	11.54
496.855	16.52
497.102	17.64
497.348	17.38
497.595	19.24
497.841	23.46
498.088	20.62
498.334	20.22
498.581	18.45
498.827	19.07
499.074	18.16
499.32	18.01
499.566	21.51
499.813	20.32
500.059	19.31
500.305	18.72
500.552	17.78
500.798	16.44
501.044	19.92
501.29	18.33
501.537	15.59
501.783	18.9
502.029	21.05
502.275	19.3
502.521	18.97
502.767	20.05
503.013	23.04
503.26	21.89
503.506	18.18
503.752	19.98
503.998	16.84
504.244	16.98
504.49	12.6
504.736	13.25
504.982	12.43
505.228	13.52
505.474	12.79
505.72	14.34
505.966	13.21
506.211	16.54
506.457	16.31
506.703	13.33
506.949	11.62
507.195	9.52
507.441	7.18
507.686	9.55
507.932	9.84
508.178	10.85
508.424	9.38
508.669	7.46
508.915	7.52
509.161	10.46
509.406	9.89
509.652	8.69
509.898	11.29
510.143	12.76
510.389	11.29
510.634	6.86
510.88	9.59
511.125	12.27
511.371	12.97
511.616	15.21
511.862	11.29
512.107	9.03
512.353	8.74
512.598	8.57
512.844	7.02
513.089	5.05
513.335	7.46
513.58	8.08
513.825	8.06
514.071	7.31
514.316	8.28
514.561	9.37
514.806	8.48
515.052	10.73
515.297	10.08
515.542	11.33
515.787	11.49
516.033	12.39
516.278	12.51
516.523	12.18
516.768	11.15
517.013	9.72
517.258	10.28
517.503	10.8
517.748	11.4
517.993	11.02
518.238	12.79
518.483	10.95
518.728	9.77
518.973	6.01
519.218	4.95
519.463	7.1
519.708	6.47
519.953	5.69
520.198	6.67
520.443	9.94
520.688	11.59
520.933	10.27
521.177	9.08
521.422	6.47
521.667	9.12
521.912	8.31
522.157	5.12
522.401	6.8
522.646	8.1
522.891	9.83
523.135	8.56
523.38	9.54
523.625	8.3
523.869	10.18
524.114	11.45
524.358	10.43
524.603	10.59
524.848	8.69
525.092	7
525.337	8.7
525.581	11.27
525.826	12.43
526.07	13.76
526.315	15.68
526.559	15.63
526.803	14.63
527.048	17.51
527.292	19.19
527.537	19.45
527.781	18.61
528.025	14.74
528.269	15.61
528.514	14.14
528.758	13.29
529.002	13.99
529.247	16.57
529.491	16.66
529.735	21.11
529.979	21.4
530.223	22.11
530.467	18.09
530.712	17.41
530.956	15.07
531.2	18.1
531.444	16.71
531.688	19.03
531.932	18.9
532.176	19.38
532.42	19.53
532.664	21.09
532.908	18.12
533.152	16.57
533.396	15.87
533.64	13.2
533.884	9.92
534.128	9.89
534.371	12.34
534.615	13.63
534.859	12.85
535.103	13.34
535.347	13.27
535.59	15.6
535.834	12.64
536.078	14.6
536.322	16.54
536.565	19.63
536.809	16.77
537.053	19.16
537.296	18.41
537.54	17.58
537.784	15.75
538.027	17.79
538.271	16.73
538.514	16.84
538.758	15.92
539.001	14.2
539.245	13.71
539.488	14.24
539.732	17.1
539.975	18.73
540.219	19.93
540.462	21.65
540.706	22.47
540.949	22.12
541.192	23.12
541.436	28.94
541.679	34.22
541.922	34.55
542.166	28.52
542.409	28.37
542.652	27.72
542.895	29.51
543.139	29.57
543.382	33.31
543.625	33.88
543.868	34.79
544.111	31.68
544.354	31.25
544.598	30.04
544.841	29.89
545.084	29.47
545.327	28.76
545.57	30.35
545.813	32.33
546.056	31.22
546.299	30.65
546.542	33.67
546.785	35.14
547.028	36.36
547.271	35.3
547.514	34.09
547.756	32.1
547.999	31.2
548.242	32.87
548.485	31.41
548.728	33.58
548.971	28.79
549.213	28.43
549.456	26.9
549.699	28.52
549.942	28.83
550.184	28.85
550.427	27.59
550.67	27.46
550.912	22.55
551.155	23.88
551.398	23.26
551.64	24.28
551.883	25
552.125	23.87
552.368	23.34
552.61	20.23
552.853	22.77
553.095	20.99
553.338	21.88
553.58	23.17
553.823	22.21
554.065	22.78
554.308	18.82
554.55	15.92
554.792	13.8
555.035	12.87
555.277	11.1
555.519	12.38
555.762	10.04
556.004	10.6
556.246	5.44
556.488	7.15
556.731	3.11
556.973	3.97
557.215	3.83
557.457	5.41
557.699	7.23
557.941	6.02
558.183	6.12
558.426	8.69
558.668	4.3
558.91	6.23
559.152	7.46
559.394	7.15
559.636	9.77
559.878	10.79
560.12	11.31
560.362	12.58
560.604	12.99
560.845	10.61
561.087	9.7
561.329	11.88
561.571	10.67
561.813	12.01
562.055	12.19
562.297	12.96
562.538	14.74
562.78	18.45
563.022	16.13
563.264	16.66
563.505	16.55
563.747	17.75
563.989	15.41
564.23	16.04
564.472	14.21
564.714	16.45
564.955	16.87
565.197	13.08
565.438	14.09
565.68	15.7
565.921	15.84
566.163	17.96
566.404	15.09
566.646	16.36
566.887	18.5
567.129	19.32
567.37	17.62
567.612	20.92
567.853	17.41
568.094	17.79
568.336	19.07
568.577	20.63
568.818	21.18
569.06	18.68
569.301	16.66
569.542	17.07
569.783	17.84
570.025	16.67
570.266	16.48
570.507	18.26
570.748	17.65
570.989	18.18
571.23	21.16
571.472	21.06
571.713	18.91
571.954	21.81
572.195	19.36
572.436	21.74
572.677	25.21
572.918	27.26
573.159	25.81
573.4	22.71
573.641	21.57
573.882	22.64
574.123	19.88
574.364	14.36
574.604	13.2
574.845	11.8
575.086	9.93
575.327	11.07
575.568	10.47
575.809	9.54
576.049	7.28
576.29	4.39
576.531	9.59
576.771	14.41
577.012	17.52
577.253	17.85
577.494	17.59
577.734	16.9
577.975	16.74
578.215	16.19
578.456	15.1
578.697	14.2
578.937	17.25
579.178	17.83
579.418	16.54
579.659	16.43
579.899	11.29
580.14	9.84
580.38	8.79
580.62	8.98
580.861	12.41
581.101	12.95
581.342	12.82
581.582	8.14
581.822	11.64
582.063	11.11
582.303	12.86
582.543	12.38
582.783	13.56
583.024	16.55
583.264	19.8
583.504	19.82
583.744	21.66
583.984	18.63
584.224	18.01
584.465	14.74
584.705	14.72
584.945	16.44
585.185	16.49
585.425	17.78
585.665	19.13
585.905	19.05
586.145	20.17
586.385	18.71
586.625	22.3
586.865	19.72
587.105	19.39
587.345	19.97
587.585	20.56
587.824	19.04
588.064	18.38
588.304	15.93
588.544	16.4
588.784	14.6
589.024	20.11
589.263	19.63
589.503	18.37
589.743	19.8
589.982	21.65
590.222	20.74
590.462	18.02
590.701	14.49
590.941	16.09
591.181	14.66
591.42	14.4
591.66	15.55
591.899	19.49
592.139	19.66
592.378	19.73
592.618	18.12
592.857	16.67
593.097	16.89
593.336	15.68
593.576	14.38
593.815	14.47
594.055	12.56
594.294	13.98
594.533	13.31
594.773	13.99
595.012	14.82
595.251	15.42
595.491	18.11
595.73	20.96
595.969	22.05
596.208	23.09
596.447	24.92
596.687	25.45
596.926	25.99
597.165	23.23
597.404	23.93
597.643	23.43
597.882	22.32
598.121	23.71
598.36	23.95
598.599	25.77
598.838	24.56
599.077	21.45
599.316	20.7
599.555	19.58
599.794	19.8
600.033	22.09
600.272	23.35
600.511	21.04
600.75	24.07
600.989	25.44
601.228	25.79
601.466	25.45
601.705	25.95
601.944	27.75
602.183	29.23
602.422	28.42
602.66	27.73
602.899	27.33
603.138	26.86
603.376	25.1
603.615	26.43
603.854	25.24
604.092	26.21
604.331	28.29
604.569	29.82
604.808	29.89
605.047	31.68
605.285	32.21
605.524	32.07
605.762	30.57
606	32.37
606.239	34.61
606.477	35.21
606.716	31.68
606.954	31.26
607.193	29.92
607.431	26.88
607.669	26.7
607.908	26.25
608.146	27.74
608.384	26.59
608.622	25.82
608.861	26.74
609.099	26.48
609.337	25.41
609.575	24.85
609.813	26.46
610.052	26.98
610.29	22.84
610.528	21.78
610.766	22.95
611.004	23.33
611.242	22.49
611.48	21.2
611.718	18.76
611.956	19.06
612.194	17.74
612.432	16.73
612.67	15.14
612.908	17.12
613.146	15.6
613.384	13.33
613.621	12.65
613.859	12.94
614.097	12.47
614.335	13.22
614.573	14.16
614.811	15.62
615.048	13.46
615.286	14.24
615.524	13.37
615.761	12.56
615.999	12.85
616.237	12.39
616.474	13.88
616.712	15.24
616.95	13.78
617.187	12.32
617.425	14.19
617.662	15.98
617.9	16.05
618.137	13.02
618.375	10.88
618.612	9.66
618.85	10.69
619.087	12.7
619.325	12.94
619.562	10.69
619.799	8.73
620.037	9.94
620.274	8.18
620.511	11.23
620.749	10.21
620.986	8.12
621.223	6.05
621.461	6.93
621.698	7.88
621.935	7.14
622.172	5.73
622.409	8.94
622.647	9.69
622.884	7.61
623.121	9.55
623.358	8.9
623.595	9.13
623.832	10.19
624.069	8.62
624.306	11.1
624.543	13.05
624.78	13.78
625.017	13.22
625.254	14.65
625.491	17.29
625.728	19.24
625.965	19.82
626.202	19.76
626.438	18.12
626.675	17.56
626.912	20.53
627.149	20.84
627.386	21.99
627.622	20.46
627.859	19.03
628.096	18.91
628.333	20.02
628.569	21.34
628.806	24.39
629.043	23.43
629.279	24.81
629.516	27.17
629.752	23.79
629.989	23.1
630.225	22.76
630.462	21.12
630.699	21.95
630.935	21.04
631.171	17.75
631.408	18.79
631.644	15.17
631.881	12.47
632.117	9.52
632.354	10.88
632.59	11.2
632.826	10.77
633.063	10.2
633.299	9.84
633.535	7.82
633.771	8.46
634.008	10.9
634.244	10.53
634.48	10.62
634.716	11.36
634.953	11.81
635.189	12.34
635.425	14.25
635.661	16.38
635.897	14.48
636.133	13.73
636.369	14
636.605	10.12
636.841	8.86
637.077	9.4
637.313	10.21
637.549	10.64
637.785	10.27
638.021	10.84
638.257	10.79
638.493	13.17
638.729	11.01
638.965	15.68
639.2	17.4
639.436	16.83
639.672	16.78
639.908	13.76
640.144	17.23
640.379	19.87
640.615	18.62
640.851	20.97
641.086	22.07
641.322	19.53
641.558	19.01
641.793	19.99
642.029	17.5
642.264	16.44
642.5	16.18
642.736	12.31
642.971	13.47
643.207	12.79
643.442	10.85
643.678	11.09
643.913	12.21
644.148	12.53
644.384	15.84
644.619	16.71
644.855	17.41
645.09	17.9
645.325	17.23
645.561	17.23
645.796	14.64
646.031	18.36
646.266	15.26
646.502	13.73
646.737	16.61
646.972	15.7
647.207	15.62
647.442	11.89
647.678	8.49
647.913	11.78
648.148	12.58
648.383	10.89
648.618	10.94
648.853	11.44
649.088	13.64
649.323	16.91
649.558	18.87
649.793	20.45
650.028	22.23
650.263	18.15
650.498	21.2
650.733	19.82
650.968	18.08
651.202	21.47
651.437	18.37
651.672	15.36
651.907	13.81
652.142	14.65
652.376	14.97
652.611	16.66
652.846	18.09
653.081	19.3
653.315	18.77
653.55	20.86
653.785	20.66
654.019	20.49
654.254	18.68
654.488	20.41
654.723	17.84
654.958	16.49
655.192	14
655.427	10.95
655.661	13.37
655.896	16.48
656.13	19.5
656.364	15.16
656.599	11.42
656.833	17.74
657.068	19.4
657.302	19.7
657.536	18.41
657.771	19.23
658.005	20.73
658.239	22.34
658.474	19.16
658.708	21.3
658.942	20.73
659.176	20.52
659.41	17.46
659.645	17.62
659.879	16.22
660.113	11.44
660.347	10.77
660.581	7.27
660.815	4.77
661.049	4.13
661.283	1.24
661.517	0.81
661.751	-0.35
661.985	0.63
662.219	2.84
662.453	1.43
662.687	1.93
662.921	-2.37
663.155	-3.61
663.389	-10.91
663.622	-10.82
663.856	-7.66
664.09	-15.94
664.324	-18.13
664.558	-18.69
664.791	-19.06
665.025	-19.15
665.259	-18.6
665.492	-20.37
665.726	-17.39
665.96	-17.71
666.193	-19.09
666.427	-18.77
666.661	-19.1
666.894	-21.43
667.128	-21.79
667.361	-18.12
667.595	-18.11
667.828	-16.94
668.062	-16.52
668.295	-15.23
668.529	-14.04
668.762	-14.09
668.995	-15.32
669.229	-12.37
669.462	-12.7
669.695	-12.3
669.929	-12.75
670.162	-11.88
670.395	-14.42
670.629	-12.61
670.862	-11.12
671.095	-14.18
671.328	-13.41
671.561	-14.67
671.795	-12.66
672.028	-10.67
672.261	-10.6
672.494	-9.74
672.727	-10.41
672.96	-10.38
673.193	-11.28
673.426	-6.52
673.659	-5
673.892	-3.32
674.125	-3.1
674.358	-2.36
674.591	-3.14
674.824	-3.34
675.057	-4.85
675.29	-6.61
675.523	-6.01
675.755	-7.1
675.988	-5.63
676.221	-2.48
676.454	-3.84
676.687	-2.19
676.919	-1.43
677.152	-1.77
677.385	-1.46
677.617	-0.41
677.85	1.98
678.083	0.97
678.315	3.03
678.548	3.71
678.78	2.61
679.013	1.85
679.246	2.49
679.478	3.84
679.711	2.42
679.943	4.24
680.175	3.07
680.408	7.48
680.64	2.69
680.873	2.57
681.105	2.54
681.338	5.79
681.57	4.18
681.802	5.36
682.034	5.35
682.267	8.97
682.499	10.93
682.731	8.23
682.964	8.09
683.196	7.16
683.428	5.5
683.66	3.72
683.892	6.32
684.124	9.12
684.356	11.45
684.589	12.05
684.821	11.4
685.053	10.37
685.285	11.52
685.517	12.48
685.749	11.87
685.981	12.21
686.213	12.15
686.445	11.63
686.676	8.38
686.908	8.88
687.14	8.81
687.372	8.31
687.604	4.86
687.836	7.72
688.068	6.88
688.299	6.39
688.531	5.16
688.763	9.25
688.995	7.65
689.226	10.13
689.458	8.13
689.69	6.36
689.921	6.02
690.153	6.07
690.384	7.84
690.616	6.86
690.848	7.92
691.079	4.04
691.311	0.87
691.542	-1.42
691.774	-3.17
692.005	-0.67
692.237	2.52
692.468	1.78
692.699	1.37
692.931	0.9
693.162	0.33
693.393	-0.85
693.625	-1.37
693.856	0.11
694.087	1.03
694.319	0.68
694.55	0.87
694.781	-0.07
695.012	-1.43
695.243	-2.88
695.475	-3.45
695.706	-3.73
695.937	-5.11
696.168	-5.52
696.399	-8.08
696.63	-7.59
696.861	-7.16
697.092	-1.38
697.323	2.21
697.554	2.83
697.785	4.09
698.016	5.51
698.247	4.04
698.478	6.29
698.709	7.45
698.94	10.03
699.171	8.57
699.401	4.44
699.632	5.76
699.863	2.14
700.094	2.76
700.325	5.94
700.555	8.36
700.786	9.63
701.017	9.81
701.247	8.27
701.478	8.92
701.709	8.1
701.939	7.75
702.17	10.04
702.401	12.16
702.631	13.88
702.862	13.01
703.092	10.01
703.323	12.97
703.553	13.64
703.784	13.48
704.014	14.3
704.244	8.46
704.475	6.24
704.705	7.33
704.936	6.55
705.166	4.72
705.396	6.6
705.627	5.65
705.857	6.03
706.087	5.99
706.317	4.88
706.548	2.92
706.778	1.93
707.008	3.35
707.238	3.95
707.468	1.91
707.698	-0.21
707.928	-0.12
708.158	-2.81
708.389	-2.74
708.619	-4.08
708.849	-4.36
709.079	-2.14
709.309	-5.32
709.539	-6.59
709.768	-6.81
709.998	-4.59
710.228	-4.59
710.458	-5.48
710.688	-6.49
710.918	-5.68
711.148	-6.88
711.378	-5.86
711.607	-6.85
711.837	-7.8
712.067	-6.52
712.297	-6.8
712.526	-6.66
712.756	-5.03
712.986	-7.91
713.215	-10.4
713.445	-9.05
713.674	-7.33
713.904	-7.35
714.134	-5.02
714.363	-6.02
714.593	-7.16
714.822	-8
715.052	-9.86
715.281	-8.25
715.511	-9.37
715.74	-8.96
715.969	-9.41
716.199	-10.57
716.428	-8.66
716.657	-9.47
716.887	-7.78
717.116	-8.96
717.345	-7.29
717.575	-8.3
717.804	-7.11
718.033	-9.03
718.262	-9.13
718.492	-8.47
718.721	-6.44
718.95	-7.58
719.179	-10.17
719.408	-8.99
719.637	-12.77
719.866	-16.11
720.095	-14.27
720.324	-13.96
720.553	-17.26
720.782	-17.8
721.011	-18.38
721.24	-20.75
721.469	-20.49
721.698	-20.12
721.927	-20
722.156	-20.58
722.385	-21.15
722.613	-17.72
722.842	-17.4
723.071	-14.12
723.3	-12.99
723.529	-14.67
723.757	-14.9
723.986	-18.89
724.215	-20.72
724.443	-20.04
724.672	-17.77
724.901	-17.14
725.129	-15.79
725.358	-11.66
725.586	-14.45
725.815	-16.63
726.043	-17.11
726.272	-18.95
726.5	-19.44
726.729	-17.31
726.957	-19.18
727.186	-19.62
727.414	-18
727.642	-16.58
727.871	-15.4
728.099	-14.68
728.327	-14.08
728.556	-12.92
728.784	-12.64
729.012	-13.89
729.241	-10.99
729.469	-11.95
729.697	-15.47
729.925	-15.89
730.153	-18.78
730.381	-19.35
730.61	-18.63
730.838	-19.81
731.066	-17.74
731.294	-17.13
731.522	-20.26
731.75	-24.13
731.978	-24.67
732.206	-24.8
732.434	-27.87
732.662	-26.18
732.89	-27.35
733.118	-27.29
733.346	-25.4
733.573	-25.11
733.801	-24.28
734.029	-18.21
734.257	-18.25
734.485	-14.61
734.712	-13.24
734.94	-14.97
735.168	-12.22
735.396	-11.87
735.623	-14.12
735.851	-12.64
736.078	-10.28
736.306	-9.69
736.534	-8.66
736.761	-7.27
736.989	-7.29
737.216	-7.9
737.444	-10.31
737.671	-8.96
737.899	-4.22
738.126	-5.2
738.354	-4.54
738.581	-1.54
738.809	-0.27
739.036	-2.79
739.263	-2.4
739.491	-3.41
739.718	-1.87
739.945	3.53
740.173	5.3
740.4	5.28
740.627	4.78
740.854	4.94
741.081	2.75
741.309	1.33
741.536	-3.33
741.763	-4.42
741.99	-2.11
742.217	-4.02
742.444	-5.04
742.671	-2.99
742.898	-2.39
743.125	-4.82
743.352	-8.16
743.579	-8.91
743.806	-9.5
744.033	-6.15
744.26	-3.94
744.487	-2.64
744.714	-2.57
744.941	-3.78
745.167	-0.5
745.394	-1.45
745.621	-3.16
745.848	-2.61
746.075	-0.36
746.301	2.84
746.528	6.37
746.755	2.43
746.981	0.7
747.208	1.48
747.435	3
747.661	3.6
747.888	3.75
748.114	3.47
748.341	6.21
748.567	7.78
748.794	5.89
749.02	5.04
749.247	3.52
749.473	3.41
749.7	3.78
749.926	2.46
750.152	6.8
750.379	7.07
750.605	7.5
750.831	6.74
751.058	3.75
751.284	1.88
751.51	3.29
751.737	4.31
751.963	2.95
752.189	1.51
752.415	0.74
752.641	0.88
752.867	0.89
753.094	-1.25
753.32	-3.07
753.546	-4.26
753.772	-0.79
753.998	-1.76
754.224	-1.64
754.45	-1.89
754.676	-1.86
754.902	-2.71
755.128	-3.79
755.354	-4.77
755.579	-4.34
755.805	-1.58
756.031	-2.77
756.257	-2.75
756.483	-3.7
756.709	-5.94
756.934	-6.12
757.16	-9.11
757.386	-8.27
757.612	-9.65
757.837	-10.06
758.063	-7.54
758.289	-5.04
758.514	-6.17
758.74	-9.82
758.965	-11.79
759.191	-10.6
759.416	-9.29
759.642	-8.21
759.868	-7.95
760.093	-4.35
760.318	-7.01
760.544	-7.83
760.769	-8.33
760.995	-7.06
761.22	-8.1
761.445	-6.36
761.671	-5.05
761.896	-1.86
762.121	-1.93
762.347	-1.68
762.572	-4.73
762.797	-5.71
763.022	-5.4
763.248	-1.16
763.473	0.25
763.698	-0.7
763.923	-0.4
764.148	0.07
764.373	0.12
764.598	2.02
764.823	4.58
765.048	1.37
765.273	-1.93
765.498	-0.91
765.723	-0.5
765.948	-0.24
766.173	-3.01
766.398	-1.81
766.623	-4.03
766.848	-4.75
767.073	-7.09
767.298	-6.43
767.522	-6.63
767.747	-5.21
767.972	-7.01
768.197	-7.47
768.421	-8.96
768.646	-11.92
768.871	-15.18
769.095	-14.67
769.32	-13.27
769.545	-12.86
769.769	-10.81
769.994	-8.53
770.218	-11.33
770.443	-9.84
770.667	-8.61
770.892	-7.93
771.116	-8.81
771.341	-7.54
771.565	-8.59
771.79	-9.08
772.014	-8.69
772.238	-9.82
772.463	-8.87
772.687	-8.31
772.911	-7.78
773.136	-8.49
773.36	-8.4
773.584	-6.88
773.808	-9.11
774.033	-9.08
774.257	-8.53
774.481	-8.61
774.705	-10.2
774.929	-9.47
775.153	-7.89
775.377	-8.19
775.602	-8.39
775.826	-7.47
776.05	-4.81
776.274	-6.4
776.498	-6.25
776.722	-7.11
776.945	-7.11
777.169	-7.26
777.393	-8.96
777.617	-9.69
777.841	-8.32
778.065	-6.59
778.289	-7.85
778.512	-7.66
778.736	-6.83
778.96	-7.95
779.184	-4.39
779.407	-5.5
779.631	-4.99
779.855	-5.33
780.078	-3.85
780.302	-6.15
780.526	-8.26
780.749	-7.03
780.973	-3.77
781.196	-2.63
781.42	-4.89
781.643	-4.68
781.867	-4.81
782.09	-8.21
782.314	-8.33
782.537	-9.37
782.76	-10.28
782.984	-9.8
783.207	-10.46
783.431	-10.07
783.654	-12.37
783.877	-15.07
784.1	-16.47
784.324	-17.66
784.547	-17.62
784.77	-22.6
784.993	-24.03
785.216	-24.42
785.44	-25.97
785.663	-29.32
785.886	-26.09
786.109	-26.41
786.332	-26.35
786.555	-25.44
786.778	-23.64
787.001	-22.46
787.224	-19.68
787.447	-18.41
787.67	-17.55
787.893	-19.98
788.116	-20.39
788.339	-17.72
788.561	-17.46
788.784	-20.84
789.007	-22.48
789.23	-22.61
789.453	-21.4
789.675	-21.73
789.898	-24.59
790.121	-26.92
790.344	-27
790.566	-25.61
790.789	-25.19
791.012	-23.91
791.234	-21.02
791.457	-17.29
791.679	-16.4
791.902	-16.09
792.124	-15.99
792.347	-15.75
792.569	-15.46
792.792	-18.07
793.014	-15.79
793.237	-14.9
793.459	-16.1
793.681	-15.84
793.904	-17.57
794.126	-20.27
794.348	-20.81
794.571	-19.5
794.793	-19.97
795.015	-19.03
795.237	-20.21
795.46	-19.87
795.682	-18.75
795.904	-16.53
796.126	-19.88
796.348	-18.65
796.57	-15.64
796.792	-14.78
797.014	-9.84
797.237	-7.64
797.459	-4.87
797.681	-3.69
797.903	-6.6
798.124	-6.33
798.346	3.87
798.568	6.37
798.79	9.66
799.012	10.63
799.234	11.14
799.456	13.51
799.678	14.25
799.899	11.64
800.121	9.58
800.343	11.68
800.565	12.79
800.786	14.15
801.008	17.27
801.23	18.52
801.451	19.63
801.673	17.18
801.895	14.97
802.116	17.3
802.338	17.72
802.559	18.47
802.781	18.33
803.002	22.52
803.224	22.47
803.445	19.59
803.667	20.51
803.888	18.1
804.109	17.58
804.331	15.63
804.552	16.02
804.773	19.44
804.995	18.18
805.216	5.03
805.437	2.17
805.658	-1.18
805.88	-2.74
806.101	-0.79
806.322	-0.64
806.543	-2.2
806.764	-5.73
806.985	-4.23
807.207	-5.78
807.428	-6.88
807.649	-10.49
807.87	-12.62
808.091	-12.6
808.312	-13.44
808.533	-7.92
808.754	-5.3
808.975	-8.65
809.195	-6.85
809.416	-5.46
809.637	-6.25
809.858	-8.16
810.079	-9.84
810.3	-8.1
810.52	-9.16
810.741	-10.65
810.962	-11.75
811.183	-11.54
811.403	-10.82
811.624	-12.65
811.845	-11.97
812.065	-10.2
812.286	-8.22
812.506	-7.28
812.727	-6.52
812.948	-6.35
813.168	-5.72
813.389	-6.06
813.609	-2.53
813.83	-3.53
814.05	-5.13
814.27	-5.5
814.491	-1.09
814.711	-1.41
814.931	-4.27
815.152	-4.35
815.372	-5.71
815.592	-7.13
815.813	-7
816.033	-8.98
816.253	-7.84
816.473	-9.28
816.694	-7.74
816.914	-5.63
817.134	-5.34
817.354	-6.96
817.574	-5.35
817.794	-5.76
818.014	-6.47
818.234	-8.27
818.454	-8.4
818.674	-8.59
818.894	-11.63
819.114	-9.7
819.334	-9.48
819.554	-7.59
819.774	-5.99
819.994	-8.06
820.214	-8.19
820.433	-8.73
820.653	-8.53
820.873	-6.01
821.093	-5.45
821.312	-7.45
821.532	-6.73
821.752	-3.13
821.972	-5.46
822.191	-4.83
822.411	-6.38
822.63	-5.87
822.85	-5.11
823.07	-9.24
823.289	-6.15
823.509	-7.62
823.728	-6.21
823.948	-8.27
824.167	-8.34
824.387	-9.07
824.606	-7.85
824.825	-9.8
825.045	-9.18
825.264	-9.55
825.483	-9.98
825.703	-8.86
825.922	-11.34
826.141	-12.43
826.361	-13.83
826.58	-17.78
826.799	-19.26
827.018	-15.75
827.237	-15.66
827.456	-14.52
827.676	-14.08
827.895	-13.9
828.114	-13.26
828.333	-13.76
828.552	-13
828.771	-10.91
828.99	-14.71
829.209	-14.08
829.428	-11.76
829.647	-12.8
829.866	-10.64
830.084	-11.52
830.303	-11.52
830.522	-12.81
830.741	-12.49
830.96	-11.77
831.179	-11.46
831.397	-13.21
831.616	-12.65
831.835	-12.79
832.053	-11.15
832.272	-11.08
832.491	-9.12
832.709	-9.96
832.928	-9.09
833.147	-8.47
833.365	-6.94
833.584	-4.3
833.802	-4.35
834.021	-3.73
834.239	-2.3
834.458	-3.34
834.676	-6.61
834.894	-7.35
835.113	-7.8
835.331	-10.59
835.55	-11.84
835.768	-8.19
835.986	-6.35
836.204	-8.23
836.423	-7.04
836.641	-8.79
836.859	-10.28
837.077	-9.99
837.296	-9.1
837.514	-10.81
837.732	-12.67
837.95	-13.06
838.168	-10.83
838.386	-10.81
838.604	-8.78
838.822	-9.33
839.04	-10.04
839.258	-9.52
839.476	-7.78
839.694	-7.72
839.912	-9.14
840.13	-9.76
840.348	-6.6
840.566	-10.02
840.783	-9.34
841.001	-12.08
841.219	-10.64
841.437	-8.99
841.655	-9.2
841.872	-8.91
842.09	-7.78
842.308	-6.92
842.525	-7.16
842.743	-6.14
842.961	-6.57
843.178	-8.66
843.396	-4.82
843.613	-4.16
843.831	-3.01
844.048	-3.11
844.266	-1.6
844.483	-0.83
844.701	-1.89
844.918	-1.67
845.136	-2.64
845.353	-4.88
845.57	-3.79
845.788	-0.5
846.005	-4.34
846.222	-4.52
846.439	-2.94
846.657	-3.68
846.874	-3.34
847.091	-7.22
847.308	-5.07
847.526	-5.72
847.743	-4.9
847.96	-7.2
848.177	-7.56
848.394	-7.1
848.611	-7.44
848.828	-8.23
849.045	-8.76
849.262	-10.02
849.479	-11.05
849.696	-11.88
849.913	-13.81
850.13	-18.97
850.347	-17.92
850.564	-18.75
850.78	-22
850.997	-24.76
851.214	-24.33
851.431	-23.92
851.647	-26.32
851.864	-25.71
852.081	-24.05
852.298	-27.99
852.514	-30.13
852.731	-27.59
852.948	-25.38
853.164	-24.94
853.381	-23.37
853.597	-22.96
853.814	-24.32
854.03	-27.34
854.247	-25.99
854.463	-25.48
854.68	-26.49
854.896	-25.17
855.113	-25.14
855.329	-24.88
855.545	-23.6
855.762	-24.74
855.978	-27.44
856.194	-30.57
856.411	-27.04
856.627	-24.94
856.843	-23.77
857.059	-20.14
857.275	-21.74
857.492	-20.86
857.708	-16.19
857.924	-15.04
858.14	-12.3
858.356	-14.06
858.572	-14.22
858.788	-16.28
859.004	-14.35
859.22	-15.42
859.436	-15.74
859.652	-17.33
859.868	-19.08
860.084	-19.31
860.3	-18.94
860.516	-17.43
860.731	-16.77
860.947	-19.92
861.163	-19.62
861.379	-16.49
861.595	-15.27
861.81	-13.56
862.026	-13.16
862.242	-13.92
862.457	-13.07
862.673	-11.05
862.889	-9.46
863.104	-10.83
863.32	-9.78
863.535	-8.44
863.751	-13.06
863.966	-8.71
864.182	-6.95
864.397	-8.68
864.613	-10.88
864.828	-12.64
865.044	-10.36
865.259	-7.02
865.474	-7.72
865.69	-6.27
865.905	-6.32
866.12	-7.96
866.336	-9.74
866.551	-9.35
866.766	-10.71
866.981	-12.87
867.196	-13.73
867.412	-13
867.627	-11.57
867.842	-12.15
868.057	-13.92
868.272	-15.68
868.487	-17.98
868.702	-19.58
868.917	-19.78
869.132	-17.48
869.347	-16.37
869.562	-17.46
869.777	-17.9
869.992	-18.37
870.207	-18.52
870.422	-18.19
870.636	-21.48
870.851	-22.96
871.066	-25.09
871.281	-23.99
871.495	-25.63
871.71	-23.99
871.925	-27.26
872.14	-26.96
872.354	-28.41
872.569	-29.3
872.783	-26.54
872.998	-24.85
873.213	-25.36
873.427	-22.99
873.642	-22.04
873.856	-21.18
874.071	-21.38
874.285	-22.35
874.5	-23.84
874.714	-24.8
874.928	-25.14
875.143	-24.63
875.357	-23.14
875.571	-24.6
875.786	-25.41
876	-23.67
876.214	-21.48
876.429	-23.1
876.643	-23.62
876.857	-21.57
877.071	-21.72
877.285	-21.34
877.499	-22.72
877.714	-20.13
877.928	-18.6
878.142	-19.34
878.356	-20.53
878.57	-18.73
878.784	-18.16
878.998	-20
879.212	-16.87
879.426	-19.84
879.639	-18.91
879.853	-19.28
880.067	-19.93
880.281	-20.57
880.495	-19.57
880.709	-16.19
880.922	-15.78
881.136	-13.93
881.35	-12.94
881.564	-13.13
881.777	-15.78
881.991	-16.49
882.205	-12.81
882.418	-14.12
882.632	-15.87
882.845	-16.42
883.059	-15.45
883.273	-15.74
883.486	-17.47
883.7	-15.24
883.913	-16.34
884.126	-15.16
884.34	-17.92
884.553	-19.63
884.767	-16.09
884.98	-16.56
885.193	-18.03
885.407	-17.72
885.62	-14.85
885.833	-14.67
886.046	-12.06
886.26	-13.49
886.473	-14.18
886.686	-14.76
886.899	-12.97
887.112	-14.21
887.326	-17.98
887.539	-17.01
887.752	-15.97
887.965	-17.33
888.178	-15.58
888.391	-14.35
888.604	-14.43
888.817	-15.93
889.03	-13.52
889.243	-15.4
889.455	-18.78
889.668	-17.64
889.881	-14.39
890.094	-16.11
890.307	-17.6
890.52	-16.76
890.732	-16.32
890.945	-15.35
891.158	-14.11
891.37	-15.07
891.583	-14.69
891.796	-13.18
892.008	-14.47
892.221	-15.33
892.434	-20.11
892.646	-21.61
892.859	-22.9
893.071	-21.72
893.284	-19.71
893.496	-21.13
893.709	-22.37
893.921	-20.1
894.133	-20.59
894.346	-21.12
894.558	-21.76
894.771	-22.11
894.983	-20.05
895.195	-17.96
895.407	-17.83
895.62	-21.1
895.832	-19.67
896.044	-16.7
896.256	-17.97
896.468	-20.8
896.681	-18.73
896.893	-18.14
897.105	-16.91
897.317	-17.98
897.529	-16.49
897.741	-16.82
897.953	-15.1
898.165	-16.08
898.377	-17.36
898.589	-15.66
898.801	-16.35
899.013	-13.84
899.224	-11.87
899.436	-9.37
899.648	-11.29
899.86	-11.88
900.072	-9.35
900.283	-7.93
900.495	-7.59
900.707	-6.61
900.919	-9.13
901.13	-7.79
901.342	-9.43
901.554	-10.85
901.765	-12.11
901.977	-14.49
902.188	-14.8
902.4	-16.02
902.611	-17.55
902.823	-18.97
903.034	-19.76
903.246	-21.32
903.457	-22.07
903.669	-24
903.88	-22.78
904.091	-23.75
904.303	-22.08
904.514	-24.32
904.725	-21.88
904.936	-20.58
905.148	-21.58
905.359	-18.67
905.57	-18.47
905.781	-19.38
905.992	-20.74
906.204	-18.97
906.415	-19.69
906.626	-21.22
906.837	-17.57
907.048	-17.54
907.259	-19.38
907.47	-20.5
907.681	-21.09
907.892	-18.07
908.103	-18.24
908.314	-19.43
908.525	-16.76
908.735	-15.72
908.946	-16.14
909.157	-17.02
909.368	-15.2
909.579	-14.19
909.789	-16.05
910	-17.54
910.211	-16.33
910.421	-18.15
910.632	-16.65
910.843	-19.87
911.053	-16.47
911.264	-16.11
911.475	-18.14
911.685	-17.34
911.896	-18.42
912.106	-18.28
912.317	-20.14
912.527	-17.56
912.737	-17.74
912.948	-17.98
913.158	-17.9
913.369	-21.76
913.579	-20.97
913.789	-19.54
914	-15.96
914.21	-15.12
914.42	-16.75
914.63	-17.23
914.841	-16.85
915.051	-15.89
915.261	-15.72
915.471	-12.73
915.681	-10.51
915.891	-9.97
916.101	-10.58
916.311	-8.5
916.521	-6.5
916.731	-5.39
916.941	-2.11
917.151	-3.51
917.361	-0.58
917.571	-4.9
917.781	-5.77
917.991	-8.66
918.201	-9.05
918.411	-12.84
918.621	-12.35
918.83	-12.28
919.04	-14.02
919.25	-12.41
919.46	-9.99
919.669	-12.54
919.879	-12.54
920.089	-14.24
920.298	-15.63
920.508	-15.84
920.717	-15.21
920.927	-15.46
921.136	-13.75
921.346	-13.91
921.555	-16.74
921.765	-17.31
921.974	-20.2
922.184	-22.91
922.393	-24.08
922.603	-25.39
922.812	-24.05
923.021	-25.65
923.23	-26.84
923.44	-30.2
923.649	-30.17
923.858	-30.48
924.067	-29.44
924.277	-30.59
924.486	-28.03
924.695	-28.46
924.904	-25.95
925.113	-26.27
925.322	-23.54
925.531	-23.98
925.74	-26.42
925.949	-28.28
926.158	-25.49
926.367	-25.06
926.576	-24.65
926.785	-24.46
926.994	-26.37
927.203	-25.52
927.412	-26.3
927.621	-27.44
927.83	-25.64
928.038	-25.66
928.247	-25.34
928.456	-25.19
928.665	-23.3
928.873	-21.78
929.082	-18.48
929.291	-18.07
929.499	-16.68
929.708	-18.12
929.916	-15.99
930.125	-17.22
930.333	-18.86
930.542	-17.35
930.75	-15.21
930.959	-13.81
931.167	-13.21
931.376	-12.57
931.584	-12.05
931.793	-12.26
932.001	-13.08
932.209	-14.29
932.418	-16.06
932.626	-18.56
932.834	-20.73
933.042	-23.83
933.251	-24.52
933.459	-23.97
933.667	-25.65
933.875	-25.3
934.083	-25.34
934.291	-25.03
934.499	-24.08
934.707	-24.4
934.915	-24.22
935.123	-22.22
935.331	-22.99
935.539	-25.88
935.747	-26.98
935.955	-26.49
936.163	-25.2
936.371	-24.87
936.579	-22.98
936.787	-23.47
936.995	-24.37
937.202	-26.77
937.41	-25.54
937.618	-25.92
937.826	-26.4
938.033	-29.9
938.241	-32.53
938.449	-28.64
938.656	-26.96
938.864	-27.28
939.071	-26.66
939.279	-23.32
939.486	-19.31
939.694	-19.51
939.901	-20.78
940.109	-20.13
940.316	-20.3
940.524	-19.34
940.731	-20.75
940.939	-19.08
941.146	-19.15
941.353	-19.86
941.561	-20.91
941.768	-21.13
941.975	-19.9
942.182	-21.24
942.39	-21.17
942.597	-18.05
942.804	-18.94
943.011	-19.83
943.218	-18.61
943.425	-19.01
943.632	-18.21
943.839	-19.83
944.046	-20.13
944.253	-19.49
944.46	-17.55
944.667	-13.59
944.874	-16.41
945.081	-14.88
945.288	-13.05
945.495	-10.34
945.702	-10.92
945.909	-14.54
946.115	-12.49
946.322	-12.48
946.529	-13.78
946.736	-13.52
946.942	-12.29
947.149	-12.81
947.356	-13.89
947.562	-14.41
947.769	-14.24
947.976	-15.71
948.182	-13.95
948.389	-15.61
948.595	-14.63
948.802	-14.99
949.008	-17.85
949.215	-16.27
949.421	-16.27
949.628	-17.18
949.834	-16.86
950.04	-17.52
950.247	-14.1
950.453	-13.31
950.659	-13.74
950.865	-13.06
951.072	-18.28
951.278	-16.13
951.484	-17.78
951.69	-20.57
951.896	-21.27
952.103	-22.98
952.309	-20.64
952.515	-22.26
952.721	-21.43
952.927	-19.93
953.133	-20.67
953.339	-22.38
953.545	-22.38
953.751	-22.42
953.957	-21.62
954.163	-22.12
954.369	-21.36
954.574	-23.51
954.78	-22.41
954.986	-20.91
955.192	-19.15
955.398	-19.4
955.603	-22.05
955.809	-20.11
956.015	-19.11
956.22	-18.66
956.426	-17.46
956.632	-20.73
956.837	-20.55
957.043	-20.63
957.248	-20.4
957.454	-18.61
957.66	-20.96
957.865	-21.68
958.07	-19.61
958.276	-22.38
958.481	-22.03
958.687	-23.05
958.892	-22.98
959.097	-22.35
959.303	-20.7
959.508	-21.16
959.713	-20.8
959.919	-20.87
960.124	-21.76
960.329	-19.68
960.534	-18
960.739	-16.5
960.945	-14.51
961.15	-14.52
961.355	-16.31
961.56	-19.85
961.765	-22.1
961.97	-20.79
962.175	-19.04
962.38	-21.72
962.585	-21.25
962.79	-23.72
962.995	-24.61
963.2	-26.55
963.404	-26.72
963.609	-28.81
963.814	-30.05
964.019	-31.45
964.224	-32.31
964.428	-32.21
964.633	-30.07
964.838	-28.48
965.042	-28.78
965.247	-30.13
965.452	-30.07
965.656	-29.4
965.861	-28.21
966.066	-29.01
966.27	-26.66
966.475	-22.95
966.679	-27.12
966.884	-26.27
967.088	-27.98
967.292	-29.48
967.497	-28.52
967.701	-29.65
967.906	-28.23
968.11	-24.34
968.314	-21.79
968.518	-24.33
968.723	-22.8
968.927	-21.92
969.131	-19.89
969.335	-17.02
969.539	-16.43
969.744	-14.85
969.948	-12.56
970.152	-11.33
970.356	-9.42
970.56	-8.68
970.764	-8.94
970.968	-7.59
971.172	-6.67
971.376	-6.07
971.58	-4.16
971.784	-5.16
971.988	-8.81
972.192	-7.62
972.395	-9.19
972.599	-11.15
972.803	-13.38
973.007	-10.92
973.21	-10.77
973.414	-12.73
973.618	-13.31
973.822	-13.21
974.025	-12.01
974.229	-12.13
974.432	-14.92
974.636	-17.51
974.84	-16.2
975.043	-15.88
975.247	-17.78
975.45	-18.5
975.654	-16.7
975.857	-15.01
976.06	-16.77
976.264	-17.94
976.467	-15.41
976.671	-16.07
976.874	-14.69
977.077	-15.81
977.28	-16.49
977.484	-19.77
977.687	-20.09
977.89	-18.75
978.093	-17.42
978.297	-15.94
978.5	-17.34
978.703	-16.05
978.906	-16.17
979.109	-16.32
979.312	-15.62
979.515	-15.81
979.718	-14.51
979.921	-14.54
980.124	-16.6
980.327	-16.47
980.53	-17.12
980.733	-15.49
980.936	-14.19
981.138	-15.98
981.341	-14.18
981.544	-13.73
981.747	-14.45
981.949	-17.71
982.152	-17.54
982.355	-18.6
982.558	-16.95
982.76	-19.28
982.963	-18.75
983.165	-20.11
983.368	-19.12
983.571	-19.6
983.773	-16.45
983.976	-15.89
984.178	-15.12
984.381	-16.1
984.583	-17.99
984.785	-17.71
984.988	-15.14
985.19	-14.1
985.392	-16.19
985.595	-18.75
985.797	-17.59
985.999	-15.42
986.202	-13.23
986.404	-14.17
986.606	-11.71
986.808	-11.49
987.01	-10.58
987.212	-10.23
987.415	-11.33
987.617	-12.51
987.819	-13.96
988.021	-13.41
988.223	-14.02
988.425	-15.78
988.627	-15.84
988.829	-19.34
989.031	-18.56
989.232	-20.88
989.434	-18.07
989.636	-17.43
989.838	-18.35
990.04	-16.96
990.242	-17.52
990.443	-20.01
990.645	-18.26
990.847	-16.07
991.048	-15.41
991.25	-17.74
991.452	-18.14
991.653	-19.04
991.855	-18.58
992.057	-20.26
992.258	-20.39
992.46	-19.8
992.661	-17.95
992.863	-19.17
993.064	-19.04
993.265	-20.21
993.467	-22.99
993.668	-20.9
993.87	-20.35
994.071	-19.37
994.272	-19.11
994.473	-17.63
994.675	-15.3
994.876	-14.19
995.077	-13.37
995.278	-11.61
995.48	-10
995.681	-11.68
995.882	-12.05
996.083	-12.21
996.284	-17.4
996.485	-16.42
996.686	-17.17
996.887	-18.13
997.088	-21.02
997.289	-23.88
997.49	-22.73
997.691	-23.36
997.892	-23.2
998.092	-19.6
998.293	-19.8
998.494	-19.62
998.695	-21.41
998.896	-19.17
999.096	-20.1
999.297	-19.72
999.498	-21.58
999.698	-22.43
999.899	-25.57
1000.1	-28.59
1000.3	-28.44
1000.501	-29.45
1000.701	-29.53
1000.902	-30.03
1001.102	-29.44
1001.303	-26.55
1001.503	-30.52
1001.704	-31.02
1001.904	-32.53
1002.105	-32.07
1002.305	-31.98
1002.505	-31.72
1002.706	-33.27
1002.906	-33.95
1003.106	-34.67
1003.306	-33.11
1003.507	-30.78
1003.707	-32.21
1003.907	-28.98
1004.107	-26.41
1004.307	-27.85
1004.507	-26.32
1004.707	-27.3
1004.907	-28.37
1005.107	-29.41
1005.308	-28.78
1005.507	-30.22
1005.707	-27.61
1005.907	-27.1
1006.107	-23.37
1006.307	-20.65
1006.507	-22.6
1006.707	-21.04
1006.907	-20.35
1007.106	-21.59
1007.306	-22.27
1007.506	-22.57
1007.706	-21.95
1007.905	-23.7
1008.105	-22.71
1008.305	-23.37
1008.504	-21.66
1008.704	-16.36
1008.903	-15.38
1009.103	-12.91
1009.303	-14.26
1009.502	-13.93
1009.702	-13.87
1009.901	-12.31
1010.1	-16.22
1010.3	-14.96
1010.499	-17.29
1010.699	-19.43
1010.898	-20.48
1011.097	-20.32
1011.296	-20.67
1011.496	-21.87
1011.695	-20.61
1011.894	-22.33
1012.093	-19.98
1012.293	-19.87
1012.492	-20.32
1012.691	-19.75
1012.89	-19.87
1013.089	-23.86
1013.288	-22.9
1013.487	-22.08
1013.686	-22.99
1013.885	-23.81
1014.084	-21.51
1014.283	-21.39
1014.482	-21.82
1014.681	-22.84
1014.88	-27.9
1015.078	-26.25
1015.277	-28.79
1015.476	-28.31
1015.675	-28.49
1015.873	-27.73
1016.072	-29.77
1016.271	-25.1
1016.47	-27.94
1016.668	-25.45
1016.867	-25.52
1017.065	-26.69
1017.264	-27.36
1017.463	-26.56
1017.661	-26.74
1017.86	-28.57
1018.058	-27.01
1018.256	-29.15
1018.455	-31.07
1018.653	-31.46
1018.852	-30.55
1019.05	-32.08
1019.248	-31.57
1019.447	-33.31
1019.645	-34.47
1019.843	-34.92
1020.041	-33.18
1020.24	-34.18
1020.438	-31.6
1020.636	-32.14
1020.834	-35.03
1021.032	-31.8
1021.23	-33.6
1021.428	-32.05
1021.626	-30
1021.824	-29.99
1022.022	-32.23
1022.22	-30.95
1022.418	-32.27
1022.616	-33.8
1022.814	-35
1023.012	-36.11
1023.21	-33.49
1023.408	-33.71
1023.606	-35.03
1023.803	-31.41
1024.001	-29.07
1024.199	-31.43
1024.397	-30.01
1024.594	-31.02
1024.792	-33.1
1024.99	-31.86
1025.187	-32.12
1025.385	-27.94
1025.582	-26.31
1025.78	-26.75
1025.977	-26.67
1026.175	-26.33
1026.372	-26.46
1026.57	-29.1
1026.767	-26.32
1026.965	-24.91
1027.162	-24.87
1027.359	-25.56
1027.557	-24.86
1027.754	-28.27
1027.951	-28.53
1028.148	-26.12
1028.346	-26.64
1028.543	-28.97
1028.74	-28.22
1028.937	-30.8
1029.134	-29.61
1029.331	-31.55
1029.528	-30.42
1029.725	-30.42
1029.923	-32.03
1030.12	-28.75
1030.317	-28.2
1030.513	-26.86
1030.71	-24.51
1030.907	-20.31
1031.104	-20.58
1031.301	-20.4
1031.498	-21.95
1031.695	-22.91
1031.892	-21.95
1032.088	-22.31
1032.285	-23.79
1032.482	-25.49
1032.678	-27.25
1032.875	-29.75
1033.072	-28.4
1033.268	-30.33
1033.465	-30.68
1033.662	-31.8
1033.858	-30.66
1034.055	-30.54
1034.251	-28.62
1034.448	-28.78
1034.644	-28.13
1034.84	-25.74
1035.037	-22.42
1035.233	-23.39
1035.43	-20.9
1035.626	-22.19
1035.822	-22.96
1036.019	-23.97
1036.215	-29.09
1036.411	-28.54
1036.607	-30.59
1036.803	-32.71
1037	-34.47
1037.196	-36.67
1037.392	-37.83
1037.588	-39.67
1037.784	-39.01
1037.98	-39.56
1038.176	-39.11
1038.372	-39.74
1038.568	-36.99
1038.764	-34.98
1038.96	-31.6
1039.156	-31.98
1039.352	-31.64
1039.547	-28.62
1039.743	-28.72
1039.939	-26.16
1040.135	-27.29
1040.331	-29.25
1040.526	-28.04
1040.722	-28.28
1040.918	-29.68
1041.113	-33.67
1041.309	-33.47
1041.505	-36.75
1041.7	-35.62
1041.896	-34.49
1042.091	-34.58
1042.287	-32.92
1042.482	-32.52
1042.678	-32.21
1042.873	-31.52
1043.069	-32.1
1043.264	-30.75
1043.459	-28.53
1043.655	-27.29
1043.85	-27.39
1044.045	-26.14
1044.24	-26.08
1044.436	-23.5
1044.631	-23.98
1044.826	-24.68
1045.021	-29.19
1045.216	-29.64
