Data from FLMT021711__13__17-55-37-705.txt Node

Date: Tue Nov 05 17:55:37 CET 2024
User: Etudiants TP
Spectrometer: FLMT02171
Trigger mode: 0
Integration Time (sec): 1,000000E-1
Scans to average: 5
Electric dark correction enabled: true
Nonlinearity correction enabled: false
Boxcar width: 15
XAxis mode: Wavelengths
Number of Pixels in Spectrum: 3648
>>>>>Begin Spectral Data<<<<<
194,658	-67,9
194,923	-66,22
195,188	-58,61
195,453	-57,9
195,717	-52,11
195,982	-50,91
196,247	-49,17
196,512	-52
196,777	-50,26
197,042	-48,93
197,307	-49,09
197,572	-44,92
197,837	-45,18
198,101	-42,53
198,366	-40,41
198,631	-38,72
198,896	-31,56
199,161	-23,58
199,425	-15,43
199,69	-5,21
199,955	-4,9
200,22	-7,75
200,484	-8,24
200,749	-9
201,014	-7,86
201,278	-6,54
201,543	-5,16
201,807	-6,69
202,072	-6,44
202,337	-6,25
202,601	-5,37
202,866	-7,53
203,13	-5,66
203,395	-7,91
203,659	-6,54
203,924	-7,51
204,189	-7,4
204,453	-4,99
204,717	-2,06
204,982	-1,52
205,246	0,77
205,511	2,17
205,775	1,47
206,04	7,25
206,304	8,18
206,568	10,01
206,833	10,2
207,097	11,03
207,361	12,4
207,626	16,74
207,89	17,04
208,154	18,34
208,419	19,75
208,683	19,83
208,947	22,07
209,211	22,42
209,476	21,52
209,74	23,39
210,004	24,05
210,268	25
210,532	27,56
210,796	27,05
211,061	28,67
211,325	28,88
211,589	27,91
211,853	28,37
212,117	29,16
212,381	30,05
212,645	29,5
212,909	30,01
213,173	28,64
213,437	29,42
213,701	29,46
213,965	30,12
214,229	25,56
214,493	24,19
214,757	24,2
215,021	24,33
215,285	27,99
215,549	29,16
215,813	26,23
216,077	26,94
216,34	27,61
216,604	27,56
216,868	27,8
217,132	28,92
217,396	27,57
217,659	28,77
217,923	24,44
218,187	24,96
218,451	25,31
218,714	21,58
218,978	22,23
219,242	25,16
219,505	25,36
219,769	25,99
220,033	25,44
220,296	26,01
220,56	27,24
220,824	24,76
221,087	24,85
221,351	24,84
221,614	23,63
221,878	26,13
222,142	24,5
222,405	23,91
222,669	27,41
222,932	23,1
223,196	21
223,459	16,64
223,722	18,56
223,986	17,49
224,249	14,97
224,513	14,56
224,776	13,17
225,04	13,1
225,303	11,71
225,566	11,34
225,83	12,46
226,093	15,88
226,356	13,85
226,62	10,58
226,883	13,81
227,146	14,15
227,409	12,88
227,673	11,58
227,936	11,48
228,199	10,52
228,462	8,66
228,725	6,82
228,989	7,11
229,252	9,15
229,515	14,48
229,778	12,45
230,041	11,34
230,304	9,96
230,567	11,64
230,83	8,62
231,093	11,93
231,356	13,21
231,619	19,94
231,882	17,44
232,145	18,71
232,408	18,19
232,671	16,22
232,934	16,29
233,197	13,99
233,46	13,51
233,723	15,44
233,986	13,51
234,249	11,64
234,512	12,57
234,775	16,74
235,037	15,41
235,3	15,9
235,563	14,94
235,826	15,28
236,089	15,93
236,351	17,25
236,614	19,07
236,877	21,07
237,14	22,87
237,402	21,24
237,665	15,13
237,928	15,03
238,19	13,3
238,453	15,33
238,716	13,83
238,978	14,48
239,241	11,75
239,503	14
239,766	9,3
240,029	7,67
240,291	10,62
240,554	11,46
240,816	12,83
241,079	12,74
241,341	13,62
241,604	12,78
241,866	9,47
242,129	11,28
242,391	10,77
242,653	11,2
242,916	10,25
243,178	9,92
243,441	10,09
243,703	9,09
243,965	7,54
244,228	7,8
244,49	7,02
244,752	7,88
245,015	8,61
245,277	10,7
245,539	9,78
245,801	11,4
246,064	11,38
246,326	10,56
246,588	10,19
246,85	12,89
247,112	12,01
247,374	14,4
247,637	16,33
247,899	17,49
248,161	19,04
248,423	15,38
248,685	14,8
248,947	14,59
249,209	16,01
249,471	17,97
249,733	19,31
249,995	17,21
250,257	15,97
250,519	16,44
250,781	18,89
251,043	17,62
251,305	21,07
251,567	21,54
251,829	22,57
252,091	22,38
252,353	19,95
252,615	20,01
252,876	17,34
253,138	15,08
253,4	10,15
253,662	10,64
253,924	12,09
254,185	13,18
254,447	13,52
254,709	14,75
254,971	15,86
255,232	18,33
255,494	17,01
255,756	13,63
256,017	12,33
256,279	12,86
256,541	12,71
256,802	12,82
257,064	13,99
257,326	11,28
257,587	11,63
257,849	12,85
258,11	16,82
258,372	16,96
258,633	17,9
258,895	17,44
259,156	15,69
259,418	13,38
259,679	9,08
259,941	7,86
260,202	10,69
260,464	12,26
260,725	11,7
260,987	11,54
261,248	11,37
261,509	12,87
261,771	12,82
262,032	14,32
262,293	14,03
262,555	14,57
262,816	13,29
263,077	9,95
263,338	7,01
263,6	7,12
263,861	7,05
264,122	7,15
264,383	9,13
264,645	10,74
264,906	9,29
265,167	9,84
265,428	10,86
265,689	11,3
265,95	8,92
266,211	10,86
266,473	11,33
266,734	7,64
266,995	3,37
267,256	5,03
267,517	6,56
267,778	10,95
268,039	12,36
268,3	10,7
268,561	9,23
268,822	12,23
269,083	9,94
269,344	8,35
269,604	7,71
269,865	7,59
270,126	3,78
270,387	5,86
270,648	7,44
270,909	7,15
271,17	7,16
271,43	4,69
271,691	2,39
271,952	1,59
272,213	3,8
272,473	1,65
272,734	2,68
272,995	3,87
273,256	3,54
273,516	5,64
273,777	2,9
274,038	4,85
274,298	0,12
274,559	-0,6
274,82	4,36
275,08	6,95
275,341	8,78
275,601	7,07
275,862	4,71
276,122	4,69
276,383	5,88
276,643	6,82
276,904	5,74
277,164	9,46
277,425	11,1
277,685	15,33
277,946	15,38
278,206	16,98
278,467	18,43
278,727	16,71
278,987	16,2
279,248	15,85
279,508	17,17
279,768	19,42
280,029	21,44
280,289	18,13
280,549	14,95
280,81	13,68
281,07	13,57
281,33	14,39
281,59	12,59
281,851	14,77
282,111	14,77
282,371	15,3
282,631	17,17
282,891	14,81
283,151	14,76
283,412	12,44
283,672	11,71
283,932	11,82
284,192	12,86
284,452	10,72
284,712	9,09
284,972	7,97
285,232	5,27
285,492	5,97
285,752	2,54
286,012	9,46
286,272	11,17
286,532	7,07
286,792	7,58
287,052	9,1
287,312	9,67
287,571	8,92
287,831	9,24
288,091	5,73
288,351	6,48
288,611	12,06
288,871	12
289,13	12,84
289,39	9,99
289,65	11,64
289,91	9,12
290,17	11,54
290,429	14,23
290,689	11,82
290,949	9,92
291,208	10,44
291,468	14,13
291,728	15,33
291,987	17,48
292,247	14,9
292,506	18
292,766	21,58
293,026	19,24
293,285	20,52
293,545	23,88
293,804	23,77
294,064	19,58
294,323	16,65
294,583	17,5
294,842	18,36
295,102	17,69
295,361	17,52
295,621	18,23
295,88	19,19
296,139	17,49
296,399	18,01
296,658	12,89
296,917	12,69
297,177	8,88
297,436	10,98
297,695	9,38
297,955	11,59
298,214	9,31
298,473	11,02
298,732	12,84
298,992	15,38
299,251	15,32
299,51	10,44
299,769	12,13
300,028	10,81
300,287	12,79
300,547	11,03
300,806	8,74
301,065	13,2
301,324	14,41
301,583	10,08
301,842	7,94
302,101	5,33
302,36	6,41
302,619	7,27
302,878	7,62
303,137	6,2
303,396	8,57
303,655	11,1
303,914	7,66
304,173	10,5
304,432	10,37
304,691	14,48
304,95	12
305,208	17,18
305,467	17,34
305,726	15,53
305,985	16,1
306,244	17,67
306,503	16,81
306,761	14,47
307,02	10,99
307,279	10,62
307,537	11,81
307,796	8,26
308,055	5,48
308,314	6,06
308,572	4,86
308,831	4,91
309,09	4,36
309,348	5,68
309,607	5,11
309,865	8,36
310,124	7,97
310,382	9,07
310,641	9,14
310,9	7,36
311,158	9,25
311,417	7,54
311,675	7,43
311,933	7,89
312,192	9,03
312,45	8,33
312,709	7,2
312,967	7,1
313,226	6,92
313,484	6,16
313,742	5,17
314,001	3,61
314,259	2
314,517	2,94
314,776	5,28
315,034	8,61
315,292	6,95
315,55	5,63
315,809	5,5
316,067	6,8
316,325	5,92
316,583	7,81
316,841	8,61
317,1	6,26
317,358	2,61
317,616	2,88
317,874	2,26
318,132	2,77
318,39	2,39
318,648	2,04
318,906	1,47
319,164	-0,51
319,422	-0,77
319,68	-3,58
319,938	-1,37
320,196	-1,75
320,454	0,3
320,712	-1,3
320,97	-0,5
321,228	-3,58
321,486	-1,79
321,744	0,94
322,002	1,7
322,26	-0,84
322,517	-2,05
322,775	-5,6
323,033	-6,55
323,291	-3,79
323,549	-2,05
323,806	-0,24
324,064	1,13
324,322	1,81
324,58	0,13
324,837	1,76
325,095	0,58
325,353	3,56
325,61	5,85
325,868	4,47
326,126	6,63
326,383	5,33
326,641	4,04
326,898	5,59
327,156	5,43
327,413	6,26
327,671	8,21
327,928	9,49
328,186	10,26
328,443	7,43
328,701	11,97
328,958	13,25
329,216	14,76
329,473	11,96
329,731	11,92
329,988	12,85
330,245	15,47
330,503	16,19
330,76	18,34
331,017	20,59
331,275	17,71
331,532	17,99
331,789	16,18
332,047	15,33
332,304	12,27
332,561	12,5
332,818	10,45
333,076	12,78
333,333	12,02
333,59	10,95
333,847	12,85
334,104	10,88
334,361	10,93
334,618	10,42
334,876	9,6
335,133	9,86
335,39	7,8
335,647	8,28
335,904	5,07
336,161	4,09
336,418	5,54
336,675	1,61
336,932	2,42
337,189	2,37
337,446	4,6
337,703	3,5
337,96	-1,11
338,216	-0,3
338,473	-1,32
338,73	-1,66
338,987	-2,55
339,244	1,34
339,501	-1,62
339,757	0,22
340,014	1,39
340,271	3,21
340,528	4,97
340,785	9,08
341,041	9,23
341,298	6,9
341,555	7,59
341,811	6,93
342,068	4,6
342,325	4,84
342,581	7,27
342,838	8,65
343,094	8,97
343,351	10,48
343,608	8,2
343,864	10,61
344,121	11,1
344,377	10,64
344,634	9,21
344,89	8,05
345,147	7,12
345,403	6,24
345,66	7,09
345,916	9,98
346,172	7,7
346,429	6,25
346,685	5,39
346,942	5,66
347,198	1,8
347,454	3,71
347,711	2,51
347,967	-0,03
348,223	0,89
348,48	-0,31
348,736	1,87
348,992	1,12
349,248	2,86
349,504	1,74
349,761	2,23
350,017	2,86
350,273	2,07
350,529	0,9
350,785	-0,64
351,041	-0,9
351,297	-0,18
351,554	-0,2
351,81	-2,99
352,066	-4,5
352,322	-5,23
352,578	-3,59
352,834	-5,08
353,09	-5,14
353,346	-5,41
353,602	-6,91
353,858	-7,72
354,114	-7,72
354,369	-6,12
354,625	-3,84
354,881	-5,94
355,137	-4,04
355,393	-5,2
355,649	-4,9
355,905	-3,9
356,16	-3,56
356,416	-3,24
356,672	-10,4
356,928	-10,31
357,183	-10,3
357,439	-10,87
357,695	-12,52
357,951	-7,9
358,206	-8,04
358,462	-7,91
358,718	-10,02
358,973	-8,24
359,229	-8,24
359,484	-8,73
359,74	-5,56
359,996	-5,5
360,251	-1,43
360,507	-0,98
360,762	0,05
361,018	2,77
361,273	-0,11
361,529	1,06
361,784	1,6
362,04	3,12
362,295	1,51
362,55	2,39
362,806	5,37
363,061	5,54
363,316	6,02
363,572	6,52
363,827	8,49
364,082	4,57
364,338	5,2
364,593	6,23
364,848	7,37
365,104	7,29
365,359	9,98
365,614	9,76
365,869	7,64
366,124	8,98
366,38	8,17
366,635	11,7
366,89	11,94
367,145	10,84
367,4	14,3
367,655	14,84
367,91	15,51
368,165	12,61
368,42	8,73
368,675	8,9
368,93	9,67
369,185	9,51
369,44	10,16
369,695	11,89
369,95	10,52
370,205	10,53
370,46	9,35
370,715	7,46
370,97	8,23
371,225	10,47
371,48	12,37
371,734	11,91
371,989	14,32
372,244	14,56
372,499	15,64
372,754	14,13
373,008	10,94
373,263	7,95
373,518	11,45
373,773	9,77
374,027	7,9
374,282	10,28
374,537	10,46
374,791	11,15
375,046	10
375,301	8,81
375,555	7,03
375,81	8,05
376,064	9,31
376,319	13,49
376,573	13,35
376,828	9,16
377,082	12,88
377,337	9,91
377,591	7,07
377,846	8,44
378,1	10,01
378,355	10,38
378,609	9,47
378,863	6,48
379,118	6,06
379,372	3,82
379,627	1,48
379,881	-1,18
380,135	-2,4
380,389	-3,13
380,644	-1,47
380,898	-0,35
381,152	-0,04
381,407	-1,17
381,661	0,64
381,915	1,69
382,169	1,34
382,423	-0,82
382,677	-4,77
382,932	-3,43
383,186	-2,95
383,44	-3,26
383,694	-2,04
383,948	-4,33
384,202	-4,6
384,456	-3,09
384,71	-2,41
384,964	-4,33
385,218	-1,6
385,472	-0,78
385,726	-1,46
385,98	-0,46
386,234	-1,46
386,488	-3,67
386,742	-3,19
386,996	-4,73
387,249	-2,71
387,503	-0,14
387,757	1,18
388,011	2,78
388,265	4,3
388,518	4,74
388,772	6,48
389,026	7,37
389,28	5,59
389,533	3,51
389,787	6,34
390,041	3,21
390,295	4,05
390,548	5,12
390,802	7,27
391,055	7
391,309	6,97
391,563	5,81
391,816	7,72
392,07	6,54
392,323	6,19
392,577	7,71
392,83	8,98
393,084	14,6
393,337	17,96
393,591	19,28
393,844	18,74
394,098	22,66
394,351	27,87
394,604	30,6
394,858	32,6
395,111	31,05
395,364	28,92
395,618	32,14
395,871	29,59
396,124	28,43
396,378	27,35
396,631	28,44
396,884	26,18
397,137	25,82
397,391	26,85
397,644	22,64
397,897	23,94
398,15	24,91
398,403	27,5
398,657	25,44
398,91	24,13
399,163	25,08
399,416	25,65
399,669	24,34
399,922	21,93
400,175	21,44
400,428	20,41
400,681	19,98
400,934	14,68
401,187	13,6
401,44	13,21
401,693	11,72
401,946	7,51
402,199	1,82
402,452	-0,32
402,704	-3,27
402,957	-3,94
403,21	-1,09
403,463	-2,98
403,716	-1,38
403,969	-0,35
404,221	-0,5
404,474	-0,48
404,727	3,4
404,98	5,71
405,232	7,19
405,485	9,99
405,738	11,71
405,99	12,77
406,243	13,23
406,496	16,33
406,748	16,64
407,001	15,76
407,253	15,89
407,506	15,28
407,759	18,19
408,011	15,12
408,264	17,81
408,516	17,78
408,769	15,51
409,021	16,91
409,274	16,35
409,526	19,55
409,778	20,5
410,031	23,68
410,283	24,83
410,536	29,57
410,788	26,87
411,04	24,79
411,293	26,71
411,545	26,58
411,797	24,59
412,049	23,91
412,302	25,42
412,554	25,84
412,806	24,23
413,058	21,6
413,311	22,56
413,563	21,35
413,815	20,25
414,067	18,54
414,319	16,71
414,571	16,81
414,823	14,41
415,075	12,94
415,328	14
415,58	15,6
415,832	18,26
416,084	17,23
416,336	17,23
416,588	21,89
416,84	18,87
417,091	21,83
417,343	15,47
417,595	16,95
417,847	17,78
418,099	18,81
418,351	17,21
418,603	22,09
418,855	24,24
419,106	23,69
419,358	24,71
419,61	25,75
419,862	27,25
420,114	25,87
420,365	24,3
420,617	25,45
420,869	24,36
421,12	22,26
421,372	22,95
421,624	21,95
421,875	21,84
422,127	19,89
422,379	20,05
422,63	22,76
422,882	20,34
423,133	19,74
423,385	20,55
423,636	20,79
423,888	22,31
424,139	23,3
424,391	20,76
424,642	19,46
424,894	17,58
425,145	20,18
425,396	17,28
425,648	19,8
425,899	18,16
426,151	18,89
426,402	18
426,653	17,32
426,905	16,04
427,156	13,85
427,407	13,53
427,658	11,92
427,91	10,69
428,161	10
428,412	11,64
428,663	13,71
428,914	14,57
429,166	15,49
429,417	16,95
429,668	16,99
429,919	15,23
430,17	14,4
430,421	15,62
430,672	20,61
430,923	20,74
431,174	18,18
431,425	19,41
431,676	19,42
431,927	16,31
432,178	17,61
432,429	18,86
432,68	18,26
432,931	20,72
433,182	23,61
433,433	19,82
433,683	20,78
433,934	20,05
434,185	18,85
434,436	19,04
434,687	20,67
434,937	23,5
435,188	23,11
435,439	23,8
435,69	25,27
435,94	25,41
436,191	26,19
436,442	25,42
436,692	24,67
436,943	22,91
437,194	21,8
437,444	24,01
437,695	27,85
437,945	29,85
438,196	28,68
438,447	28,17
438,697	27,93
438,948	28,45
439,198	25,57
439,449	20,86
439,699	22,16
439,949	22,07
440,2	21,58
440,45	23,48
440,701	23,29
440,951	22,56
441,201	24,55
441,452	23,98
441,702	24,1
441,952	24,55
442,203	24,3
442,453	23,11
442,703	22,61
442,953	24,53
443,204	26,72
443,454	24,27
443,704	26,43
443,954	23,29
444,204	25,56
444,455	27,86
444,705	30,85
444,955	30,7
445,205	30,74
445,455	28,76
445,705	29,99
445,955	31
446,205	30,62
446,455	33,75
446,705	34,45
446,955	36,79
447,205	39,95
447,455	44,13
447,705	43,16
447,955	44,08
448,205	45,57
448,454	45,49
448,704	48,1
448,954	49,32
449,204	51,49
449,454	53,26
449,704	52,94
449,953	54,01
450,203	56,87
450,453	56,34
450,703	58,84
450,952	58,72
451,202	62,61
451,452	61,37
451,701	65,42
451,951	69,21
452,201	69,94
452,45	69,26
452,7	72,31
452,949	72,42
453,199	73,27
453,448	75,73
453,698	77,61
453,947	77,62
454,197	76,81
454,446	76,55
454,696	80,16
454,945	80,66
455,195	79,28
455,444	81,03
455,693	85,94
455,943	82,7
456,192	84,97
456,442	84,99
456,691	85,57
456,94	84,54
457,189	82,58
457,439	87
457,688	88,55
457,937	88,08
458,186	88,62
458,436	87,66
458,685	87,49
458,934	85,96
459,183	86,21
459,432	88,36
459,681	88,32
459,93	86,54
460,179	86,11
460,429	85,05
460,678	87,59
460,927	90,42
461,176	88,7
461,425	87,71
461,674	89,5
461,923	88,49
462,172	88,23
462,42	85,27
462,669	87,14
462,918	86,42
463,167	85,49
463,416	80,93
463,665	83,54
463,914	82,77
464,162	80,84
464,411	81,53
464,66	82,94
464,909	81,6
465,158	80,81
465,406	78,99
465,655	80,85
465,904	82,14
466,152	82,66
466,401	83,13
466,65	84,33
466,898	82,92
467,147	79,15
467,395	76,57
467,644	78,57
467,893	79,21
468,141	77,75
468,39	74,3
468,638	71,87
468,887	70,05
469,135	69,03
469,384	67,98
469,632	70,07
469,88	69,55
470,129	71,53
470,377	67,81
470,626	69,58
470,874	72,25
471,122	73,37
471,371	71,03
471,619	69,93
471,867	72,6
472,115	71,63
472,364	70,19
472,612	73,87
472,86	71,27
473,108	72,78
473,356	72,93
473,605	72,06
473,853	69,59
474,101	68,38
474,349	65,72
474,597	68,1
474,845	66,39
475,093	65,44
475,341	64,07
475,589	63,09
475,837	64,65
476,085	65,85
476,333	64,39
476,581	66,16
476,829	64,54
477,077	66,21
477,325	64,66
477,573	66,05
477,821	63,58
478,069	65,56
478,317	63,8
478,564	64,65
478,812	63,13
479,06	62,01
479,308	60,22
479,555	60,22
479,803	58,59
480,051	59,61
480,299	57,96
480,546	59,24
480,794	55,67
481,042	55,09
481,289	53,43
481,537	54,03
481,784	53,13
482,032	58,05
482,28	58,13
482,527	56,88
482,775	56,23
483,022	57,04
483,27	58,34
483,517	61,63
483,765	60,32
484,012	61,99
484,259	58,85
484,507	61,63
484,754	62,27
485,002	62,54
485,249	61,54
485,496	64,5
485,744	63,53
485,991	63,7
486,238	61,56
486,486	64,07
486,733	65,8
486,98	69,33
487,227	66,37
487,474	67,67
487,722	69,82
487,969	68,89
488,216	68,33
488,463	68,75
488,71	65,76
488,957	66,23
489,204	66,58
489,451	67,89
489,699	64,9
489,946	61,37
490,193	62,41
490,44	62,12
490,687	62,62
490,934	59,85
491,18	55,35
491,427	57,47
491,674	59,05
491,921	60,88
492,168	60,38
492,415	57,29
492,662	57,84
492,909	60,28
493,155	59,33
493,402	57,27
493,649	55,91
493,896	56,29
494,142	52,18
494,389	51,96
494,636	51,49
494,883	49,24
495,129	47,87
495,376	46,2
495,623	47,34
495,869	49,17
496,116	50,53
496,362	52,69
496,609	55,07
496,855	59,96
497,102	58,88
497,348	57,86
497,595	59,1
497,841	62,79
498,088	62,13
498,334	60,89
498,581	60,63
498,827	61,65
499,074	61,4
499,32	62,75
499,566	64,23
499,813	64,83
500,059	63,37
500,305	64,84
500,552	63,5
500,798	62,13
501,044	66,11
501,29	65,53
501,537	63,28
501,783	67
502,029	68,82
502,275	65,04
502,521	64,31
502,767	65,09
503,013	67,1
503,26	64,57
503,506	60,65
503,752	63,25
503,998	62
504,244	61,98
504,49	57,84
504,736	59,4
504,982	59,61
505,228	61,7
505,474	62,5
505,72	65,31
505,966	64,58
506,211	66,8
506,457	65,97
506,703	62,45
506,949	59,92
507,195	58,92
507,441	54,85
507,686	57,05
507,932	55,24
508,178	57,08
508,424	55
508,669	52,29
508,915	52,64
509,161	54,63
509,406	55,1
509,652	53,58
509,898	56,27
510,143	58,8
510,389	58,94
510,634	55,31
510,88	57,94
511,125	60,56
511,371	60,38
511,616	60,7
511,862	58,89
512,107	56,42
512,353	57,26
512,598	59,1
512,844	56,58
513,089	53,35
513,335	52,59
513,58	52,18
513,825	52,21
514,071	51,23
514,316	51,65
514,561	52,62
514,806	52,42
515,052	54,58
515,297	52,27
515,542	54,06
515,787	54,45
516,033	56,05
516,278	56,44
516,523	57
516,768	55,04
517,013	51,85
517,258	52,12
517,503	51,71
517,748	51,4
517,993	50,96
518,238	51,17
518,483	49,62
518,728	49,47
518,973	47,25
519,218	46,61
519,463	47,1
519,708	47,22
519,953	46,89
520,198	45,37
520,443	47,9
520,688	50,75
520,933	50,1
521,177	49,89
521,422	48,34
521,667	51,27
521,912	52,11
522,157	48,44
522,401	50,65
522,646	51,86
522,891	54,59
523,135	53,68
523,38	54,12
523,625	54,45
523,869	57,41
524,114	57,45
524,358	57,11
524,603	58,14
524,848	55,9
525,092	55,24
525,337	55,19
525,581	55,96
525,826	57,15
526,07	58,94
526,315	59,07
526,559	58
526,803	56,73
527,048	59,39
527,292	59,57
527,537	56,82
527,781	56,77
528,025	55,95
528,269	56,12
528,514	57,05
528,758	56,13
529,002	56,19
529,247	59,22
529,491	57,91
529,735	62,18
529,979	61,03
530,223	62,56
530,467	60,14
530,712	57,61
530,956	55,23
531,2	55,49
531,444	52,44
531,688	55,28
531,932	55,38
532,176	55,65
532,42	56,87
532,664	57,73
532,908	57,51
533,152	56,39
533,396	55,52
533,64	54,41
533,884	52,34
534,128	51,6
534,371	52,09
534,615	52,59
534,859	53,59
535,103	54,12
535,347	53,98
535,59	53,76
535,834	50,24
536,078	50,36
536,322	51,69
536,565	54,53
536,809	52,13
537,053	55,06
537,296	52,55
537,54	52,12
537,784	50,01
538,027	51,78
538,271	52,03
538,514	50,55
538,758	50,11
539,001	50,24
539,245	48,3
539,488	49,25
539,732	50,01
539,975	50,49
540,219	52,48
540,462	53,21
540,706	53,56
540,949	53,26
541,192	53,9
541,436	58,98
541,679	63,92
541,922	64,8
542,166	61,09
542,409	60,47
542,652	62,07
542,895	62,41
543,139	62,47
543,382	66,67
543,625	67,19
543,868	67,33
544,111	65,36
544,354	64,25
544,598	63,38
544,841	65,7
545,084	65,82
545,327	65,63
545,57	66,35
545,813	68,18
546,056	69,44
546,299	70,94
546,542	71,03
546,785	73,68
547,028	74,77
547,271	75,7
547,514	76,55
547,756	74,26
547,999	74,55
548,242	76,36
548,485	74,78
548,728	74,51
548,971	70,17
549,213	70,51
549,456	70,2
549,699	70,61
549,942	70,44
550,184	69,36
550,427	68,97
550,67	69,74
550,912	65,07
551,155	66,69
551,398	66,37
551,64	66,25
551,883	66,29
552,125	65,16
552,368	65,42
552,61	62,77
552,853	65,43
553,095	63,33
553,338	63,16
553,58	62,9
553,823	60,79
554,065	64,04
554,308	60,89
554,55	57,46
554,792	53,22
555,035	51,63
555,277	49,5
555,519	50,51
555,762	48,22
556,004	49,75
556,246	46,67
556,488	48,67
556,731	45,22
556,973	47,47
557,215	46,15
557,457	47,61
557,699	49,38
557,941	47,77
558,183	46,89
558,426	50,04
558,668	45,05
558,91	46,02
559,152	46,14
559,394	45,03
559,636	46,37
559,878	46,42
560,12	45,58
560,362	45,63
560,604	46,62
560,845	47,15
561,087	46,8
561,329	48,23
561,571	46,06
561,813	46,35
562,055	47,21
562,297	49,71
562,538	49,26
562,78	53,31
563,022	49,6
563,264	51,16
563,505	50,75
563,747	51,62
563,989	47,89
564,23	47,02
564,472	44,21
564,714	47,08
564,955	47,79
565,197	44,51
565,438	46,77
565,68	49,81
565,921	46,98
566,163	49,98
566,404	48,68
566,646	52,19
566,887	55,05
567,129	56,13
567,37	53,12
567,612	55,78
567,853	52,43
568,094	53,2
568,336	52,21
568,577	53,07
568,818	54,45
569,06	52,83
569,301	49,87
569,542	49,88
569,783	50,78
570,025	52,19
570,266	51,92
570,507	55,45
570,748	55,01
570,989	55,17
571,23	56,52
571,472	58,41
571,713	58,57
571,954	61,38
572,195	59,05
572,436	60,45
572,677	64,02
572,918	65,52
573,159	62,45
573,4	62,09
573,641	61,91
573,882	62,66
574,123	59,83
574,364	54,62
574,604	55,32
574,845	56,33
575,086	56,33
575,327	57,02
575,568	55,58
575,809	54,42
576,049	52,59
576,29	49,78
576,531	53,67
576,771	57,63
577,012	60,19
577,253	60,55
577,494	59,43
577,734	59,63
577,975	58,75
578,215	58,19
578,456	57,84
578,697	59,35
578,937	60,55
579,178	60,47
579,418	57,58
579,659	57,62
579,899	54,72
580,14	53,24
580,38	52,27
580,62	53,68
580,861	56,4
581,101	55,66
581,342	55,2
581,582	51,36
581,822	54,43
582,063	52,85
582,303	53,89
582,543	53,34
582,783	55,98
583,024	58,36
583,264	62,32
583,504	61,51
583,744	62,38
583,984	60,53
584,224	60,46
584,465	58,9
584,705	60,62
584,945	60,94
585,185	60,86
585,425	61,61
585,665	62,07
585,905	61,06
586,145	60,14
586,385	59,57
586,625	61,92
586,865	61,59
587,105	62,41
587,345	62,17
587,585	62,93
587,824	62,15
588,064	61,95
588,304	60,01
588,544	60,71
588,784	60,41
589,024	62,58
589,263	62,44
589,503	61,27
589,743	62,58
589,982	62,12
590,222	62,08
590,462	58,92
590,701	55,29
590,941	58,16
591,181	58,28
591,42	58,48
591,66	61,43
591,899	65,13
592,139	63,46
592,378	64,04
592,618	62,49
592,857	62,39
593,097	62,25
593,336	62,16
593,576	62,01
593,815	63,31
594,055	63,37
594,294	65,03
594,533	64,22
594,773	64,36
595,012	65,45
595,251	65,95
595,491	68,86
595,73	72,09
595,969	73,26
596,208	73,73
596,447	78,88
596,687	80,66
596,926	81,57
597,165	78,03
597,404	81,15
597,643	79,5
597,882	80,43
598,121	82,2
598,36	85,2
598,599	87,64
598,838	86,65
599,077	83,26
599,316	82
599,555	81,12
599,794	82,51
600,033	84,71
600,272	85,92
600,511	84,99
600,75	87,93
600,989	90,22
601,228	89,91
601,466	88,59
601,705	88,69
601,944	90,23
602,183	92,43
602,422	92,25
602,66	92,02
602,899	91,51
603,138	91,31
603,376	91,11
603,615	93,1
603,854	91,6
604,092	91,38
604,331	93,03
604,569	96,04
604,808	94,74
605,047	97,42
605,285	97,23
605,524	97,4
605,762	93,14
606	93,66
606,239	96,32
606,477	96,87
606,716	94,48
606,954	94,4
607,193	91,27
607,431	88,15
607,669	87,84
607,908	86,92
608,146	88,76
608,384	87,16
608,622	85,97
608,861	85,92
609,099	85,26
609,337	84,05
609,575	82,99
609,813	83,27
610,052	81,75
610,29	76,31
610,528	73,81
610,766	72,39
611,004	70,62
611,242	68,14
611,48	67,78
611,718	65,25
611,956	64,69
612,194	63,97
612,432	62
612,67	62,08
612,908	62,87
613,146	61,81
613,384	59,91
613,621	57,71
613,859	58,03
614,097	57,45
614,335	58,75
614,573	59,72
614,811	61,23
615,048	59,18
615,286	60,46
615,524	57,87
615,761	55,47
615,999	56,01
616,237	56,32
616,474	58,33
616,712	59,85
616,95	58,54
617,187	58,27
617,425	60,53
617,662	63,42
617,9	63,02
618,137	61,3
618,375	60,37
618,612	59,75
618,85	59,68
619,087	62,1
619,325	61,3
619,562	58,66
619,799	56,96
620,037	57,85
620,274	56,13
620,511	56,95
620,749	55,23
620,986	53,59
621,223	50,89
621,461	51,11
621,698	50,82
621,935	51,25
622,172	49,27
622,409	51,67
622,647	51,71
622,884	49,59
623,121	51,4
623,358	50,61
623,595	50,29
623,832	49,94
624,069	47,43
624,306	49,39
624,543	49,69
624,78	51,67
625,017	50,65
625,254	51,63
625,491	53,98
625,728	56,14
625,965	56,12
626,202	55,06
626,438	53,16
626,675	53
626,912	56,68
627,149	57,19
627,386	55,19
627,622	54,46
627,859	54,21
628,096	54,77
628,333	55,83
628,569	57,55
628,806	58,91
629,043	57,93
629,279	58,65
629,516	61,52
629,752	57,6
629,989	57,99
630,225	58,17
630,462	58,34
630,699	57,67
630,935	56,61
631,171	54,38
631,408	55,31
631,644	52,29
631,881	50,19
632,117	46,23
632,354	47,53
632,59	47,04
632,826	46,37
633,063	45,84
633,299	47,25
633,535	46,29
633,771	46,57
634,008	48,89
634,244	47,86
634,48	47,83
634,716	49,73
634,953	49,67
635,189	50,83
635,425	51,58
635,661	53,86
635,897	52,22
636,133	52,35
636,369	51,33
636,605	48,25
636,841	46,92
637,077	48,67
637,313	47,43
637,549	47,72
637,785	47,32
638,021	47,9
638,257	47,02
638,493	50,13
638,729	47,81
638,965	51,69
639,2	53,51
639,436	52,73
639,672	51,1
639,908	49,15
640,144	52,73
640,379	54,78
640,615	52,59
640,851	54,26
641,086	55,14
641,322	53,75
641,558	53,32
641,793	54,53
642,029	52,57
642,264	51,95
642,5	50,5
642,736	48,4
642,971	49,12
643,207	48,07
643,442	45,63
643,678	48,43
643,913	50,56
644,148	50,07
644,384	52,45
644,619	53,26
644,855	55,65
645,09	54,59
645,325	54,79
645,561	55,41
645,796	51,51
646,031	55,35
646,266	52,55
646,502	51,18
646,737	53,29
646,972	52,87
647,207	52,8
647,442	49,73
647,678	46,71
647,913	48,6
648,148	48,68
648,383	46,52
648,618	46,2
648,853	47,49
649,088	48,73
649,323	52
649,558	52,95
649,793	54,55
650,028	55,35
650,263	50,87
650,498	52,81
650,733	53,51
650,968	51,49
651,202	52,25
651,437	49,78
651,672	45,25
651,907	44,99
652,142	44,31
652,376	45,84
652,611	47,35
652,846	49,47
653,081	49,92
653,315	49,69
653,55	50,23
653,785	49,2
654,019	50,55
654,254	49,8
654,488	52,48
654,723	49,27
654,958	47,65
655,192	46,98
655,427	44,63
655,661	47,23
655,896	48,23
656,13	48,29
656,364	45,36
656,599	42,57
656,833	50,03
657,068	52,47
657,302	53,11
657,536	51,67
657,771	52,94
658,005	52,8
658,239	53,59
658,474	51,61
658,708	53,13
658,942	54,4
659,176	52,64
659,41	49,75
659,645	49,68
659,879	48,42
660,113	45,2
660,347	45,02
660,581	40,83
660,815	40,21
661,049	40,4
661,283	37,74
661,517	36,08
661,751	34,95
661,985	33,86
662,219	35,18
662,453	33,03
662,687	35,98
662,921	32,29
663,155	32,45
663,389	27,14
663,622	25,32
663,856	26,27
664,09	18,12
664,324	15,68
664,558	14,07
664,791	14,18
665,025	13,69
665,259	14,08
665,492	12,02
665,726	15,23
665,96	16,02
666,193	14,92
666,427	15,54
666,661	15,59
666,894	13,68
667,128	12,31
667,361	14,14
667,595	13,26
667,828	13,8
668,062	13,31
668,295	12,61
668,529	13,69
668,762	15,24
668,995	13,83
669,229	19,77
669,462	19,79
669,695	20,44
669,929	16,91
670,162	17,93
670,395	16,24
670,629	19,16
670,862	21,48
671,095	18,66
671,328	19,45
671,561	17,02
671,795	18,99
672,028	19,85
672,261	19,9
672,494	21,1
672,727	19,41
672,96	19,94
673,193	18,42
673,426	23,15
673,659	23,36
673,892	22,89
674,125	22,82
674,358	23,61
674,591	23,18
674,824	22,39
675,057	24,1
675,29	23,47
675,523	25,36
675,755	24,41
675,988	25,58
676,221	27,75
676,454	24,41
676,687	27,18
676,919	26,72
677,152	26,62
677,385	26,08
677,617	26,53
677,85	26,43
678,083	25,35
678,315	28,62
678,548	27,12
678,78	27,21
679,013	26,43
679,246	26,74
679,478	27,39
679,711	25,37
679,943	29,09
680,175	26,4
680,408	29,67
680,64	24,64
680,873	26,35
681,105	27,61
681,338	31,13
681,57	29,95
681,802	29,58
682,034	29,64
682,267	31,56
682,499	33,14
682,731	30,68
682,964	29,26
683,196	27,43
683,428	25,45
683,66	24,3
683,892	25,44
684,124	27,91
684,356	31,95
684,589	32,53
684,821	29,84
685,053	30,3
685,285	30,75
685,517	31,53
685,749	32,24
685,981	33,35
686,213	33,36
686,445	33,72
686,676	31,53
686,908	33,02
687,14	31,46
687,372	31,34
687,604	29,65
687,836	31,17
688,068	30,4
688,299	29,95
688,531	28,56
688,763	31,71
688,995	30,67
689,226	36,04
689,458	34,24
689,69	32,62
689,921	32,56
690,153	32,89
690,384	34,08
690,616	33,83
690,848	35,85
691,079	33,23
691,311	30,38
691,542	27,04
691,774	25,43
692,005	29,79
692,237	32,84
692,468	30,79
692,699	29,33
692,931	30,19
693,162	27,92
693,393	28,18
693,625	27,73
693,856	28,97
694,087	28,59
694,319	29,87
694,55	30,19
694,781	28,02
695,012	27,18
695,243	24,97
695,475	24,75
695,706	23,99
695,937	24,76
696,168	24,8
696,399	21,18
696,63	20,34
696,861	21,06
697,092	25,53
697,323	27,83
697,554	28,81
697,785	29,49
698,016	29,7
698,247	27,3
698,478	28,81
698,709	30,15
698,94	34,1
699,171	32,5
699,401	27,11
699,632	29,45
699,863	25,56
700,094	24,73
700,325	27,93
700,555	28,06
700,786	29,79
701,017	29,45
701,247	29,83
701,478	29,35
701,709	29,39
701,939	29,29
702,17	32,11
702,401	34,9
702,631	36,13
702,862	34,4
703,092	31,11
703,323	34,72
703,553	35,76
703,784	36,21
704,014	36,04
704,244	30,62
704,475	29,8
704,705	30,5
704,936	30,06
705,166	28,86
705,396	30,76
705,627	31,02
705,857	30,95
706,087	30,08
706,317	28,06
706,548	27,04
706,778	26,77
707,008	29,11
707,238	29,31
707,468	26,81
707,698	24,44
707,928	23,85
708,158	22,99
708,389	21,13
708,619	20,15
708,849	18,37
709,079	19,32
709,309	15,83
709,539	13,46
709,768	12,7
709,998	14,9
710,228	13,57
710,458	10,45
710,688	8,32
710,918	8,3
711,148	7,63
711,378	8,24
711,607	7,05
711,837	6,74
712,067	6,51
712,297	5,9
712,526	5,3
712,756	7,19
712,986	5
713,215	2,75
713,445	4,1
713,674	6,38
713,904	5,35
714,134	8
714,363	7,54
714,593	7
714,822	8,1
715,052	6,89
715,281	7,16
715,511	6,2
715,74	6,06
715,969	5,35
716,199	3,91
716,428	4,05
716,657	4,16
716,887	6,15
717,116	3,96
717,345	6,63
717,575	7,58
717,804	7,29
718,033	6,03
718,262	4,92
718,492	5,47
718,721	6,14
718,95	4,65
719,179	3,7
719,408	4,7
719,637	2,23
719,866	0,22
720,095	2,47
720,324	1,07
720,553	-1,83
720,782	-4,01
721,011	-3,77
721,24	-5,88
721,469	-6,78
721,698	-5,55
721,927	-6,35
722,156	-8,25
722,385	-9,02
722,613	-5,13
722,842	-4,08
723,071	-0,23
723,3	2,78
723,529	2,28
723,757	1,98
723,986	-1,01
724,215	-2,2
724,443	-1,95
724,672	0,05
724,901	1,35
725,129	2,94
725,358	7,25
725,586	5,09
725,815	5,13
726,043	3,94
726,272	3,31
726,5	2,3
726,729	4,3
726,957	0,98
727,186	-0,69
727,414	0,97
727,642	1,8
727,871	3,07
728,099	2,01
728,327	2,8
728,556	4,83
728,784	5,9
729,012	3,96
729,241	7,18
729,469	7,4
729,697	4,92
729,925	4,62
730,153	2,29
730,381	1,75
730,61	3,11
730,838	1,82
731,066	3,31
731,294	5,65
731,522	2,61
731,75	-2,65
731,978	-2,75
732,206	-3,78
732,434	-5,83
732,662	-4,41
732,89	-6,05
733,118	-5,67
733,346	-6,82
733,573	-5,12
733,801	-5,63
734,029	1,39
734,257	1,77
734,485	4,33
734,712	5,56
734,94	4,67
735,168	9,18
735,396	7,63
735,623	6,41
735,851	6,57
736,078	9,29
736,306	10,61
736,534	9,96
736,761	9,32
736,989	7,1
737,216	6,38
737,444	3,91
737,671	4,22
737,899	9,19
738,126	7,72
738,354	6,13
738,581	7,43
738,809	9,06
739,036	7,35
739,263	7,58
739,491	5,8
739,718	7,06
739,945	11,23
740,173	12,37
740,4	13,12
740,627	10,53
740,854	10,88
741,081	7,36
741,309	6,26
741,536	3,31
741,763	3,32
741,99	5,05
742,217	4,36
742,444	4,87
742,671	6,2
742,898	5,47
743,125	2,96
743,352	-1,81
743,579	-2,5
743,806	-2,44
744,033	0,66
744,26	2,21
744,487	2,5
744,714	2,59
744,941	1,24
745,167	4,43
745,394	4,1
745,621	3,58
745,848	5,6
746,075	7,85
746,301	12,03
746,528	15,23
746,755	12,01
746,981	11,11
747,208	12,99
747,435	16,04
747,661	17,71
747,888	18,74
748,114	17,49
748,341	19,79
748,567	21,38
748,794	18,82
749,02	18,42
749,247	14,86
749,473	14,31
749,7	14,54
749,926	14,42
750,152	18,46
750,379	20,6
750,605	21,24
750,831	19,98
751,058	17,69
751,284	15,84
751,51	19,09
751,737	20,83
751,963	19,92
752,189	18,7
752,415	17,39
752,641	17,52
752,867	16,92
753,094	14,22
753,32	12,71
753,546	11,79
753,772	15,08
753,998	13,91
754,224	12,39
754,45	11,67
754,676	10,95
754,902	9,32
755,128	9,46
755,354	8,49
755,579	9,09
755,805	12,52
756,031	9,93
756,257	9,35
756,483	8,15
756,709	5,52
756,934	5,45
757,16	3,44
757,386	3,54
757,612	2,27
757,837	1,76
758,063	5,14
758,289	6,83
758,514	4,06
758,74	1,09
758,965	-1,58
759,191	-1,25
759,416	0,38
759,642	1,93
759,868	0,7
760,093	3,76
760,318	0,97
760,544	0,69
760,769	-1,25
760,995	-1,81
761,22	-1,41
761,445	-0,56
761,671	1,82
761,896	5,38
762,121	5,86
762,347	5,99
762,572	3,5
762,797	1,03
763,022	1,66
763,248	6,33
763,473	6,4
763,698	5,66
763,923	6,15
764,148	5,7
764,373	4,97
764,598	5,62
764,823	8,7
765,048	4,66
765,273	2,01
765,498	-0,12
765,723	0,27
765,948	1,77
766,173	1,74
766,398	3,19
766,623	0,27
766,848	0,12
767,073	-1,72
767,298	-1,38
767,522	-3,3
767,747	-1,43
767,972	-1,09
768,197	-0,51
768,421	-3,22
768,646	-6,46
768,871	-9,72
769,095	-9,77
769,32	-9,06
769,545	-9,46
769,769	-7,31
769,994	-6,15
770,218	-8,83
770,443	-6,54
770,667	-5,58
770,892	-5,57
771,116	-5,58
771,341	-4,27
771,565	-4,33
771,79	-3,94
772,014	-4,45
772,238	-4,63
772,463	-0,92
772,687	-0,67
772,911	-2,12
773,136	-5,15
773,36	-4,56
773,584	-2,24
773,808	-3,09
774,033	-3,17
774,257	-3,13
774,481	-2,95
774,705	-3,92
774,929	-3,83
775,153	-5,88
775,377	-2,98
775,602	-3,07
775,826	-2,28
776,05	-0,98
776,274	-3,59
776,498	-3,61
776,722	-4,35
776,945	-1,73
777,169	-1,66
777,393	-2,56
777,617	-3,14
777,841	-3,14
778,065	-1,96
778,289	-3,36
778,512	-4,33
778,736	-6,28
778,96	-5,98
779,184	-3,55
779,407	-4,82
779,631	-4,68
779,855	-5,08
780,078	-3,47
780,302	-5,48
780,526	-7,72
780,749	-7,96
780,973	-5,89
781,196	-4,88
781,42	-6,74
781,643	-6,31
781,867	-5,88
782,09	-5,71
782,314	-8,41
782,537	-8,18
782,76	-9,15
782,984	-8,44
783,207	-6,87
783,431	-7,06
783,654	-9,2
783,877	-11,93
784,1	-13,33
784,324	-14,26
784,547	-14,49
784,77	-17,73
784,993	-19,84
785,216	-21,48
785,44	-20,39
785,663	-19,89
785,886	-17,46
786,109	-17,54
786,332	-17,42
786,555	-17,11
786,778	-15,18
787,001	-14,06
787,224	-12,39
787,447	-12,03
787,67	-11,4
787,893	-11,79
788,116	-12,28
788,339	-10,99
788,561	-12,34
788,784	-15,48
789,007	-16,69
789,23	-16,91
789,453	-18,46
789,675	-20,53
789,898	-23,15
790,121	-25,04
790,344	-25,57
790,566	-23,61
790,789	-24,04
791,012	-24,43
791,234	-21,86
791,457	-18,27
791,679	-17,63
791,902	-17,5
792,124	-14,94
792,347	-16,33
792,569	-17,9
792,792	-20,41
793,014	-18,12
793,237	-17,89
793,459	-18,43
793,681	-18,58
793,904	-19,95
794,126	-22,06
794,348	-21,7
794,571	-20,1
794,793	-22,01
795,015	-21,63
795,237	-20,9
795,46	-19,7
795,682	-19,26
795,904	-17,43
796,126	-17,89
796,348	-16,85
796,57	-13,08
796,792	-12,6
797,014	-8,59
797,237	-6,79
797,459	-5,81
797,681	-4,56
797,903	-5,74
798,124	-4,42
798,346	5,97
798,568	7,71
798,79	10,91
799,012	11,77
799,234	13,43
799,456	14,91
799,678	16,55
799,899	13,66
800,121	13,03
800,343	13,49
800,565	13,03
800,786	14,3
801,008	16,46
801,23	15,84
801,451	15,01
801,673	14,26
801,895	13,99
802,116	16,03
802,338	17,16
802,559	16,23
802,781	14,03
803,002	16,76
803,224	18,51
803,445	15,59
803,667	17,49
803,888	15,97
804,109	16,13
804,331	15,56
804,552	15,15
804,773	17,56
804,995	13,31
805,216	0,35
805,437	-1,37
805,658	-3,07
805,88	-5,79
806,101	-5,11
806,322	-5,75
806,543	-7,08
806,764	-9,15
806,985	-7,8
807,207	-7,17
807,428	-6,53
807,649	-11,11
807,87	-13,67
808,091	-12,2
808,312	-11,19
808,533	-6,49
808,754	-5,4
808,975	-8,09
809,195	-5,99
809,416	-3,44
809,637	-3,12
809,858	-5,77
810,079	-7,01
810,3	-3,24
810,52	-4,9
810,741	-7,53
810,962	-7,66
811,183	-7,2
811,403	-6,62
811,624	-7,22
811,845	-4,62
812,065	-3,32
812,286	-3,28
812,506	-3,6
812,727	-2,06
812,948	-1,41
813,168	0,92
813,389	1,11
813,609	3,59
813,83	2,04
814,05	0,21
814,27	0,81
814,491	5,76
814,711	5,16
814,931	1,9
815,152	2,19
815,372	-0,86
815,592	-1,21
815,813	-2,45
816,033	-5,19
816,253	-5,33
816,473	-6,05
816,694	-5,06
816,914	-4,38
817,134	-5,47
817,354	-6,06
817,574	-4,57
817,794	-5,42
818,014	-7,26
818,234	-8,5
818,454	-9,95
818,674	-13,31
818,894	-15,84
819,114	-11,92
819,334	-12,42
819,554	-10,91
819,774	-8,98
819,994	-12,27
820,214	-13,73
820,433	-14,42
820,653	-14,29
820,873	-11,92
821,093	-11,56
821,312	-13,64
821,532	-11,36
821,752	-8,43
821,972	-10,96
822,191	-7,96
822,411	-10,82
822,63	-9,43
822,85	-9,41
823,07	-11,59
823,289	-10,58
823,509	-11,59
823,728	-9,35
823,948	-12,42
824,167	-13,81
824,387	-15,11
824,606	-14,18
824,825	-15,1
825,045	-14,08
825,264	-13,85
825,483	-11,75
825,703	-10,88
825,922	-13,58
826,141	-13,16
826,361	-15,59
826,58	-20,11
826,799	-20,73
827,018	-19,35
827,237	-18,88
827,456	-18,02
827,676	-17,71
827,895	-17,35
828,114	-15,99
828,333	-16,41
828,552	-17,26
828,771	-15,67
828,99	-19,66
829,209	-17,81
829,428	-15,29
829,647	-16,13
829,866	-14,94
830,084	-15,32
830,303	-14,97
830,522	-16,14
830,741	-15,04
830,96	-13,63
831,179	-12,13
831,397	-13,35
831,616	-12,86
831,835	-12,69
832,053	-11,63
832,272	-11,04
832,491	-10,12
832,709	-11,27
832,928	-11,18
833,147	-9,28
833,365	-8,43
833,584	-4,88
833,802	-2,4
834,021	-2,24
834,239	-1,01
834,458	-2,12
834,676	-6,65
834,894	-7,06
835,113	-7,98
835,331	-8,73
835,55	-9,01
835,768	-8,04
835,986	-7,01
836,204	-9,35
836,423	-8,14
836,641	-9,01
836,859	-10,29
837,077	-9,37
837,296	-9,98
837,514	-10,27
837,732	-11,18
837,95	-12,51
838,168	-9,67
838,386	-10,12
838,604	-7,73
838,822	-7,02
839,04	-7,78
839,258	-6,77
839,476	-4,94
839,694	-5,32
839,912	-6,58
840,13	-6,24
840,348	-4,09
840,566	-7,29
840,783	-6,19
841,001	-8,43
841,219	-6,88
841,437	-3,92
841,655	-3,92
841,872	-3,62
842,09	-3,84
842,308	-2,93
842,525	-2,57
842,743	-2,79
842,961	-4,03
843,178	-6,92
843,396	-3,14
843,613	-1,26
843,831	-1,16
844,048	-1,68
844,266	-1,87
844,483	-2,72
844,701	-3,33
844,918	-4,67
845,136	-5
845,353	-8,2
845,57	-7,3
845,788	-4,65
846,005	-7,19
846,222	-8,13
846,439	-6,18
846,657	-6,53
846,874	-5,1
847,091	-8,08
847,308	-7,4
847,526	-8,94
847,743	-7,54
847,96	-9,97
848,177	-10,71
848,394	-9,55
848,611	-9,89
848,828	-9,89
849,045	-11,1
849,262	-10,99
849,479	-11,08
849,696	-12,2
849,913	-12,05
850,13	-16,99
850,347	-14,4
850,564	-15,75
850,78	-17,18
850,997	-18,17
851,214	-17,38
851,431	-16,29
851,647	-18,32
851,864	-17,89
852,081	-15,8
852,298	-19,41
852,514	-22,01
852,731	-19,17
852,948	-17,37
853,164	-16,56
853,381	-15,93
853,597	-17,96
853,814	-19,06
854,03	-19,96
854,247	-18,94
854,463	-20,41
854,68	-20,45
854,896	-19,75
855,113	-20,7
855,329	-18,49
855,545	-16
855,762	-16,26
855,978	-19,84
856,194	-21,86
856,411	-17,97
856,627	-16,12
856,843	-14,08
857,059	-11,76
857,275	-11,58
857,492	-9,77
857,708	-6,49
857,924	-5,92
858,14	-4,79
858,356	-5,02
858,572	-4,35
858,788	-7,39
859,004	-6,34
859,22	-7,82
859,436	-8,67
859,652	-11,32
859,868	-13,85
860,084	-15,03
860,3	-14,51
860,516	-14,54
860,731	-14,87
860,947	-15,97
861,163	-13,45
861,379	-13,11
861,595	-11,04
861,81	-10,12
862,026	-12,34
862,242	-13,08
862,457	-12,89
862,673	-10,08
862,889	-9,63
863,104	-10,97
863,32	-10,19
863,535	-10,08
863,751	-15,26
863,966	-12,47
864,182	-12,4
864,397	-13,93
864,613	-15,96
864,828	-17,51
865,044	-15,76
865,259	-14,78
865,474	-13,39
865,69	-11,02
865,905	-8,58
866,12	-10,27
866,336	-9,65
866,551	-9,16
866,766	-8,16
866,981	-8,56
867,196	-8,78
867,412	-7,58
867,627	-7,49
867,842	-8,93
868,057	-8,85
868,272	-10,72
868,487	-12,29
868,702	-13,16
868,917	-13,92
869,132	-12,38
869,347	-11,08
869,562	-12,2
869,777	-10,83
869,992	-11,69
870,207	-12,53
870,422	-13,88
870,636	-16,15
870,851	-16,87
871,066	-18,36
871,281	-16,64
871,495	-16,94
871,71	-15,23
871,925	-17,84
872,14	-18,51
872,354	-21,33
872,569	-23,38
872,783	-22,15
872,998	-21,27
873,213	-21,61
873,427	-19,42
873,642	-18,47
873,856	-17,48
874,071	-16,65
874,285	-17,15
874,5	-18,63
874,714	-20,61
874,928	-20,94
875,143	-20,66
875,357	-20,27
875,571	-20,77
875,786	-21,29
876	-19,83
876,214	-18,21
876,429	-21,51
876,643	-20,47
876,857	-19,4
877,071	-18,06
877,285	-19,29
877,499	-22,72
877,714	-19,33
877,928	-17,35
878,142	-19,19
878,356	-21,13
878,57	-18,74
878,784	-18,49
878,998	-18,04
879,212	-15,48
879,426	-16,96
879,639	-15,14
879,853	-16,08
880,067	-16,24
880,281	-18,22
880,495	-17,77
880,709	-17
880,922	-16,72
881,136	-15,67
881,35	-12,27
881,564	-13,4
881,777	-15,48
881,991	-15,24
882,205	-11,85
882,418	-12,12
882,632	-15,15
882,845	-15,02
883,059	-13,83
883,273	-15,59
883,486	-16,19
883,7	-12,61
883,913	-11,19
884,126	-8,01
884,34	-11,49
884,553	-12,99
884,767	-8,46
884,98	-8,27
885,193	-10,78
885,407	-9,98
885,62	-8,9
885,833	-9,44
886,046	-7,84
886,26	-9,35
886,473	-9,12
886,686	-11,52
886,899	-10,12
887,112	-11,05
887,326	-13,57
887,539	-12,91
887,752	-10,8
887,965	-13,49
888,178	-11,24
888,391	-10,13
888,604	-9,55
888,817	-12,25
889,03	-9,94
889,243	-10,68
889,455	-12,59
889,668	-12,78
889,881	-9,32
890,094	-9,15
890,307	-12,74
890,52	-11,76
890,732	-11,23
890,945	-11,69
891,158	-12,05
891,37	-15,03
891,583	-14,9
891,796	-11,58
892,008	-13,94
892,221	-15,64
892,434	-18,73
892,646	-20,8
892,859	-23,05
893,071	-22,41
893,284	-20,04
893,496	-20,28
893,709	-20,48
893,921	-19,23
894,133	-19,02
894,346	-21,27
894,558	-21,16
894,771	-21,96
894,983	-20,55
895,195	-20,7
895,407	-19,84
895,62	-22,2
895,832	-22,15
896,044	-18,96
896,256	-18,84
896,468	-21,2
896,681	-20,31
896,893	-19,22
897,105	-20,43
897,317	-21,58
897,529	-19,87
897,741	-19,6
897,953	-16,5
898,165	-18,29
898,377	-20,43
898,589	-18,73
898,801	-17,61
899,013	-15,22
899,224	-10,8
899,436	-8,21
899,648	-8,64
899,86	-10,12
900,072	-8,23
900,283	-7,55
900,495	-5,92
900,707	-6,28
900,919	-8,06
901,13	-6,85
901,342	-9,56
901,554	-9,73
901,765	-8,75
901,977	-12,1
902,188	-13,46
902,4	-13,94
902,611	-15,37
902,823	-16,58
903,034	-17,61
903,246	-18,97
903,457	-19,63
903,669	-21,63
903,88	-21,66
904,091	-21,86
904,303	-20,86
904,514	-22,58
904,725	-20,63
904,936	-19,79
905,148	-19,65
905,359	-17,87
905,57	-18,2
905,781	-20,18
905,992	-20
906,204	-19,32
906,415	-20,04
906,626	-21,96
906,837	-19,03
907,048	-19,71
907,259	-20,82
907,47	-21,26
907,681	-23,59
907,892	-19,16
908,103	-21,65
908,314	-23,88
908,525	-20,45
908,735	-19,83
908,946	-20,45
909,157	-21,91
909,368	-20,44
909,579	-19,88
909,789	-21,84
910	-24,23
910,211	-19,65
910,421	-19,76
910,632	-17,91
910,843	-21,16
911,053	-18,37
911,264	-16,53
911,475	-17,68
911,685	-17,18
911,896	-17,36
912,106	-17,41
912,317	-19,96
912,527	-18,88
912,737	-18,96
912,948	-17,52
913,158	-15,63
913,369	-18,88
913,579	-17,18
913,789	-16,36
914	-12,26
914,21	-11,13
914,42	-11,08
914,63	-9,76
914,841	-8,29
915,051	-7,12
915,261	-6,69
915,471	-3,36
915,681	-1,68
915,891	-0,17
916,101	-0,97
916,311	0,09
916,521	1,96
916,731	0,41
916,941	2,27
917,151	0,48
917,361	4,34
917,571	0,64
917,781	-0,91
917,991	-2,29
918,201	-2,23
918,411	-5,3
918,621	-5,57
918,83	-4,48
919,04	-6,57
919,25	-4,64
919,46	-2,85
919,669	-5,13
919,879	-6,23
920,089	-8,13
920,298	-8,96
920,508	-9,72
920,717	-9,18
920,927	-12,26
921,136	-11,77
921,346	-13,59
921,555	-17,13
921,765	-16,95
921,974	-19,13
922,184	-22,33
922,393	-23,81
922,603	-24,25
922,812	-21,08
923,021	-21,9
923,23	-22,17
923,44	-24,65
923,649	-24,75
923,858	-26,08
924,067	-26,6
924,277	-28,83
924,486	-26,74
924,695	-27,6
924,904	-25,62
925,113	-25,73
925,322	-25,1
925,531	-24,76
925,74	-27,72
925,949	-29,66
926,158	-27,23
926,367	-25,74
926,576	-24,33
926,785	-25,35
926,994	-26,74
927,203	-24,78
927,412	-24,57
927,621	-26,05
927,83	-23,71
928,038	-22,93
928,247	-23,07
928,456	-21,58
928,665	-19,24
928,873	-18,08
929,082	-15,92
929,291	-16,67
929,499	-15,29
929,708	-17,61
929,916	-17,81
930,125	-18,93
930,333	-19,95
930,542	-16,98
930,75	-12,71
930,959	-12,65
931,167	-12,56
931,376	-13,3
931,584	-12,53
931,793	-12,55
932,001	-12,97
932,209	-13,94
932,418	-15,87
932,626	-18,85
932,834	-20,57
933,042	-24,7
933,251	-23,16
933,459	-22,38
933,667	-24,61
933,875	-25,23
934,083	-23,42
934,291	-21,86
934,499	-20,98
934,707	-21,35
934,915	-22,72
935,123	-20,77
935,331	-21,56
935,539	-24,96
935,747	-26,24
935,955	-26,29
936,163	-25,21
936,371	-23,33
936,579	-21,25
936,787	-21,25
936,995	-21,41
937,202	-25,65
937,41	-25,61
937,618	-26,37
937,826	-25,51
938,033	-28,57
938,241	-29,61
938,449	-27,25
938,656	-24,5
938,864	-23,79
939,071	-22,55
939,279	-20,53
939,486	-17,21
939,694	-17,84
939,901	-20,47
940,109	-19,91
940,316	-18,32
940,524	-19,18
940,731	-21,29
940,939	-20,35
941,146	-21,23
941,353	-22,24
941,561	-23,82
941,768	-23,92
941,975	-21,82
942,182	-23,05
942,39	-22,5
942,597	-19,5
942,804	-20,26
943,011	-20,88
943,218	-19,36
943,425	-21,23
943,632	-19,8
943,839	-19,89
944,046	-21
944,253	-21,39
944,46	-20,6
944,667	-17,82
944,874	-18,76
945,081	-17,69
945,288	-16,85
945,495	-15,35
945,702	-13,99
945,909	-16,76
946,115	-15,64
946,322	-16,33
946,529	-17,47
946,736	-18,32
946,942	-15,67
947,149	-16,79
947,356	-18,08
947,562	-17,88
947,769	-17,85
947,976	-18,19
948,182	-17,95
948,389	-17,41
948,595	-16,69
948,802	-16,94
949,008	-18,64
949,215	-17,47
949,421	-17,6
949,628	-19,28
949,834	-18,96
950,04	-19,32
950,247	-16,07
950,453	-14,14
950,659	-14,75
950,865	-12,04
951,072	-15,01
951,278	-12,27
951,484	-14,18
951,69	-16,83
951,896	-17,56
952,103	-19,22
952,309	-17,52
952,515	-17,5
952,721	-13,91
952,927	-11,54
953,133	-11,87
953,339	-14,55
953,545	-14,71
953,751	-14,01
953,957	-12,26
954,163	-13,11
954,369	-11,75
954,574	-12,19
954,78	-13,32
954,986	-11,69
955,192	-9,07
955,398	-9,93
955,603	-12,06
955,809	-10,91
956,015	-9,87
956,22	-9,1
956,426	-7,75
956,632	-11,75
956,837	-12
957,043	-12,6
957,248	-13,11
957,454	-13,61
957,66	-16,77
957,865	-16,27
958,07	-15,63
958,276	-17,61
958,481	-19,1
958,687	-19,2
958,892	-19,43
959,097	-20,54
959,303	-21,86
959,508	-22,84
959,713	-22,17
959,919	-21,11
960,124	-21,75
960,329	-21,7
960,534	-17,63
960,739	-17,67
960,945	-16,52
961,15	-16,47
961,355	-18,05
961,56	-22,8
961,765	-24,64
961,97	-24,85
962,175	-22,97
962,38	-25,7
962,585	-25,34
962,79	-27,53
962,995	-28,14
963,2	-28,5
963,404	-26,59
963,609	-28,52
963,814	-28,9
964,019	-32,29
964,224	-34,34
964,428	-31,53
964,633	-29,68
964,838	-27,68
965,042	-27,75
965,247	-28,92
965,452	-29,07
965,656	-28,11
965,861	-26,88
966,066	-29,08
966,27	-26,6
966,475	-23,61
966,679	-27,43
966,884	-27,37
967,088	-29,47
967,292	-30,15
967,497	-28,44
967,701	-28,84
967,906	-26,89
968,11	-24,56
968,314	-20,1
968,518	-21,9
968,723	-19,55
968,927	-19,23
969,131	-18,27
969,335	-15,41
969,539	-15,29
969,744	-14,76
969,948	-13,13
970,152	-11,6
970,356	-8,35
970,56	-8,53
970,764	-10,19
970,968	-8,17
971,172	-8,46
971,376	-8,46
971,58	-7,96
971,784	-8,23
971,988	-9,43
972,192	-7,24
972,395	-6,01
972,599	-9,33
972,803	-10,75
973,007	-7,97
973,21	-9,13
973,414	-9,78
973,618	-10,46
973,822	-11,26
974,025	-10,61
974,229	-9,95
974,432	-12,19
974,636	-13,32
974,84	-12,82
975,043	-12,71
975,247	-14,78
975,45	-14,86
975,654	-15,05
975,857	-13,58
976,06	-15,07
976,264	-16,31
976,467	-14,84
976,671	-16,09
976,874	-14,09
977,077	-14,44
977,28	-16,15
977,484	-17,97
977,687	-18,36
977,89	-16,92
978,093	-16,26
978,297	-14,93
978,5	-16,79
978,703	-16,09
978,906	-14,9
979,109	-14,43
979,312	-13,5
979,515	-13,89
979,718	-13,56
979,921	-12,98
980,124	-15,35
980,327	-15,72
980,53	-16,32
980,733	-13,9
980,936	-13,4
981,138	-14,61
981,341	-14,14
981,544	-13,51
981,747	-14,49
981,949	-15,48
982,152	-15,36
982,355	-15,7
982,558	-12,34
982,76	-14,83
982,963	-14,6
983,165	-15,39
983,368	-15,36
983,571	-15,84
983,773	-12,9
983,976	-11,9
984,178	-10,98
984,381	-10,94
984,583	-13,85
984,785	-12,88
984,988	-10,89
985,19	-8,68
985,392	-10,78
985,595	-13,4
985,797	-13,63
985,999	-10,85
986,202	-8,99
986,404	-7,11
986,606	-4,33
986,808	-5,16
987,01	-3,48
987,212	-4,73
987,415	-6,05
987,617	-6,4
987,819	-6,59
988,021	-6,6
988,223	-8,03
988,425	-7,46
988,627	-7,78
988,829	-12,54
989,031	-10,19
989,232	-10,94
989,434	-8,4
989,636	-7,43
989,838	-7,44
990,04	-7,78
990,242	-9,67
990,443	-11,97
990,645	-9,09
990,847	-6,26
991,048	-5,82
991,25	-7,37
991,452	-9,33
991,653	-10,36
991,855	-10,49
992,057	-11,53
992,258	-11,94
992,46	-13,4
992,661	-13,52
992,863	-14,12
993,064	-13,46
993,265	-14,71
993,467	-15,57
993,668	-13,21
993,87	-11,85
994,071	-11,22
994,272	-8,98
994,473	-7,27
994,675	-7,55
994,876	-5,07
995,077	-2,64
995,278	-2,43
995,48	-1,69
995,681	-4,95
995,882	-3,99
996,083	-4,44
996,284	-7,08
996,485	-6,48
996,686	-6,96
996,887	-10,12
997,088	-13,66
997,289	-17,29
997,49	-17,97
997,691	-18,13
997,892	-18,62
998,092	-14,61
998,293	-14,33
998,494	-14,6
998,695	-14,27
998,896	-12,54
999,096	-14,77
999,297	-14,35
999,498	-16,98
999,698	-19,62
999,899	-22,11
1000,1	-25,29
1000,3	-25,97
1000,501	-28,2
1000,701	-28,28
1000,902	-29,77
1001,102	-32,34
1001,303	-30,35
1001,503	-33,34
1001,704	-33,4
1001,904	-32,83
1002,105	-33,06
1002,305	-32,7
1002,505	-33,47
1002,706	-34,41
1002,906	-35,33
1003,106	-35,41
1003,306	-33,21
1003,507	-30,35
1003,707	-30,21
1003,907	-28,41
1004,107	-25,94
1004,307	-27,78
1004,507	-25,64
1004,707	-27,57
1004,907	-29,23
1005,107	-30,68
1005,308	-29,91
1005,507	-30,54
1005,707	-27,29
1005,907	-27,79
1006,107	-25,29
1006,307	-23,7
1006,507	-23,98
1006,707	-21,65
1006,907	-21,23
1007,106	-20,75
1007,306	-19,97
1007,506	-21,64
1007,706	-20,95
1007,905	-23,73
1008,105	-24,65
1008,305	-25,43
1008,504	-24,43
1008,704	-18,76
1008,903	-17,04
1009,103	-13,73
1009,303	-15,52
1009,502	-15,71
1009,702	-16,16
1009,901	-16,1
1010,1	-18,08
1010,3	-16,3
1010,499	-17,44
1010,699	-19,07
1010,898	-18,08
1011,097	-17,6
1011,296	-17,19
1011,496	-18,04
1011,695	-18,46
1011,894	-20,52
1012,093	-16,16
1012,293	-16,78
1012,492	-17,01
1012,691	-16,49
1012,89	-17,3
1013,089	-19,63
1013,288	-18,6
1013,487	-18,46
1013,686	-19,06
1013,885	-20,45
1014,084	-17,52
1014,283	-16,92
1014,482	-17,46
1014,681	-17,12
1014,88	-22,12
1015,078	-21,32
1015,277	-24,75
1015,476	-24,7
1015,675	-25,5
1015,873	-25,02
1016,072	-25,59
1016,271	-22,62
1016,47	-27,53
1016,668	-25,92
1016,867	-27,17
1017,065	-30,03
1017,264	-31,31
1017,463	-31,15
1017,661	-30,69
1017,86	-30,77
1018,058	-29,06
1018,256	-29,69
1018,455	-31,25
1018,653	-30,15
1018,852	-29,55
1019,05	-31,57
1019,248	-33,01
1019,447	-35,1
1019,645	-35,66
1019,843	-36,74
1020,041	-34,04
1020,24	-35,77
1020,438	-32,17
1020,636	-33,6
1020,834	-37,44
1021,032	-34,89
1021,23	-37,49
1021,428	-34,94
1021,626	-31,67
1021,824	-30,97
1022,022	-33,01
1022,22	-31,88
1022,418	-31,89
1022,616	-31,7
1022,814	-32,82
1023,012	-32,31
1023,21	-29,47
1023,408	-29,66
1023,606	-30,08
1023,803	-25,6
1024,001	-25,21
1024,199	-27,71
1024,397	-28,3
1024,594	-27,53
1024,792	-30,25
1024,99	-29,26
1025,187	-28,19
1025,385	-23,37
1025,582	-22,26
1025,78	-21,98
1025,977	-20,79
1026,175	-20,06
1026,372	-19,44
1026,57	-21,06
1026,767	-17,45
1026,965	-15,18
1027,162	-14,67
1027,359	-13,92
1027,557	-13,4
1027,754	-16,32
1027,951	-16,86
1028,148	-15,31
1028,346	-17,74
1028,543	-20,48
1028,74	-19,1
1028,937	-21,32
1029,134	-22,17
1029,331	-22,79
1029,528	-20,43
1029,725	-20,99
1029,923	-23,9
1030,12	-20,84
1030,317	-19,68
1030,513	-18,41
1030,71	-17,17
1030,907	-13,43
1031,104	-14,64
1031,301	-16,23
1031,498	-16,75
1031,695	-17,08
1031,892	-15,66
1032,088	-15,72
1032,285	-19,09
1032,482	-19,53
1032,678	-23,41
1032,875	-26,58
1033,072	-26,21
1033,268	-25,61
1033,465	-24,96
1033,662	-28,03
1033,858	-26,86
1034,055	-26,51
1034,251	-22,98
1034,448	-21,98
1034,644	-21,2
1034,84	-19,33
1035,037	-16,59
1035,233	-14,79
1035,43	-13,67
1035,626	-15,07
1035,822	-14,17
1036,019	-14,98
1036,215	-18,82
1036,411	-20,08
1036,607	-22,71
1036,803	-26,06
1037	-27,51
1037,196	-28,12
1037,392	-28,75
1037,588	-30,88
1037,784	-29,62
1037,98	-31,8
1038,176	-31,32
1038,372	-30,6
1038,568	-29,3
1038,764	-27,4
1038,96	-23,96
1039,156	-25,94
1039,352	-28,5
1039,547	-27,35
1039,743	-25,31
1039,939	-24,34
1040,135	-24,67
1040,331	-26,88
1040,526	-25,08
1040,722	-26,9
1040,918	-28,61
1041,113	-31,08
1041,309	-32,23
1041,505	-34
1041,7	-32,06
1041,896	-31,65
1042,091	-31,21
1042,287	-29,38
1042,482	-28,13
1042,678	-26,99
1042,873	-24,84
1043,069	-25,47
1043,264	-25,42
1043,459	-22,7
1043,655	-21,54
1043,85	-22,87
1044,045	-21,03
1044,24	-21,38
1044,436	-19,18
1044,631	-18,96
1044,826	-17,91
1045,021	-22,19
1045,216	-19,56
