Data from FLMT021711__19__17-56-48-245.txt Node

Date: Tue Nov 05 17:56:48 CET 2024
User: Etudiants TP
Spectrometer: FLMT02171
Trigger mode: 0
Integration Time (sec): 1.000000E-1
Scans to average: 5
Electric dark correction enabled: true
Nonlinearity correction enabled: false
Boxcar width: 15
XAxis mode: Wavelengths
Number of Pixels in Spectrum: 3648
>>>>>Begin Spectral Data<<<<<
194.658	-68.29
194.923	-64.37
195.188	-56.81
195.453	-55.25
195.717	-49.15
195.982	-49.28
196.247	-46.98
196.512	-50.16
196.777	-49.34
197.042	-47.84
197.307	-47.56
197.572	-44.1
197.837	-43.68
198.101	-41.59
198.366	-38.39
198.631	-35.97
198.896	-29.28
199.161	-21.44
199.425	-13.54
199.69	-3.78
199.955	-3.46
200.22	-7.65
200.484	-6.83
200.749	-8.72
201.014	-8.22
201.278	-8.36
201.543	-6.73
201.807	-6.83
202.072	-5.39
202.337	-4.73
202.601	-4.98
202.866	-6.24
203.13	-5.69
203.395	-7.81
203.659	-8.32
203.924	-10.67
204.189	-9.64
204.453	-8.74
204.717	-5.19
204.982	-3.02
205.246	-1.02
205.511	0.7
205.775	1.61
206.04	5.68
206.304	5.83
206.568	6.86
206.833	6.82
207.097	7.24
207.361	9.72
207.626	13.18
207.89	13.64
208.154	13.87
208.419	16.98
208.683	17.24
208.947	21.38
209.211	21.06
209.476	20.35
209.74	20.13
210.004	20.92
210.268	20.61
210.532	23.41
210.796	24.01
211.061	24.45
211.325	25.46
211.589	23.65
211.853	24.81
212.117	25.71
212.381	26.01
212.645	26.61
212.909	26.14
213.173	22.04
213.437	22.03
213.701	22.71
213.965	22.11
214.229	18.09
214.493	18.66
214.757	17.66
215.021	17.39
215.285	22.74
215.549	22.92
215.813	20.1
216.077	19.87
216.34	21.76
216.604	20.21
216.868	20.66
217.132	20.25
217.396	20.94
217.659	22.44
217.923	19.09
218.187	19.1
218.451	18.37
218.714	14.63
218.978	16.2
219.242	19.66
219.505	19.23
219.769	20.69
220.033	21.39
220.296	21.76
220.56	23.26
220.824	20.4
221.087	21.61
221.351	22.72
221.614	21.35
221.878	22.48
222.142	21.65
222.405	22.08
222.669	24.06
222.932	20.14
223.196	17.74
223.459	14.07
223.722	15.39
223.986	15.41
224.249	14.82
224.513	14.56
224.776	15.17
225.04	14.76
225.303	15.02
225.566	13.96
225.83	14.69
226.093	18.06
226.356	15.61
226.62	13.61
226.883	16.31
227.146	15.35
227.409	13.07
227.673	11.61
227.936	10.53
228.199	10.14
228.462	8.11
228.725	6.26
228.989	6.19
229.252	6.49
229.515	12.73
229.778	12.57
230.041	11.87
230.304	10.27
230.567	11.04
230.83	8.53
231.093	10.93
231.356	11.43
231.619	17.04
231.882	15.49
232.145	17.19
232.408	14.91
232.671	14.31
232.934	14.57
233.197	12.61
233.46	10.65
233.723	12.34
233.986	10.09
234.249	7.85
234.512	9.47
234.775	13.08
235.037	12.17
235.3	14.18
235.563	14.7
235.826	15.14
236.089	18.85
236.351	17.83
236.614	21.97
236.877	23.63
237.14	26.28
237.402	25.54
237.665	18.33
237.928	17.88
238.19	14.47
238.453	16.46
238.716	14.75
238.978	15.59
239.241	14.13
239.503	15.61
239.766	11.09
240.029	9.62
240.291	11.82
240.554	13.16
240.816	12.89
241.079	11.44
241.341	12.69
241.604	12.37
241.866	9.05
242.129	11.49
242.391	13.56
242.653	12.63
242.916	12.33
243.178	11.36
243.441	11.09
243.703	10
243.965	7.84
244.228	7.15
244.49	6.98
244.752	7.24
245.015	7.46
245.277	9.15
245.539	8.81
245.801	11.02
246.064	10.77
246.326	11.2
246.588	10.73
246.85	13.72
247.112	14.89
247.374	16.73
247.637	19.8
247.899	18.66
248.161	19.61
248.423	15.47
248.685	15.33
248.947	14.03
249.209	13.43
249.471	13.27
249.733	13.4
249.995	12.32
250.257	10.57
250.519	9.68
250.781	12.44
251.043	10.56
251.305	13.08
251.567	13.76
251.829	15.14
252.091	15.7
252.353	11.17
252.615	12.26
252.876	8.79
253.138	7.49
253.4	3.69
253.662	4.09
253.924	5.89
254.185	6.7
254.447	6.12
254.709	6.11
254.971	8.02
255.232	8.84
255.494	7.98
255.756	5.01
256.017	7.22
256.279	7.34
256.541	7.15
256.802	6.83
257.064	7.3
257.326	7.82
257.587	9.46
257.849	11.55
258.11	14.28
258.372	15.58
258.633	15.36
258.895	14.89
259.156	14.74
259.418	13.06
259.679	8.6
259.941	5.55
260.202	8.24
260.464	10.73
260.725	9.05
260.987	8.59
261.248	7.31
261.509	8.5
261.771	7.69
262.032	9.29
262.293	8.37
262.555	10.19
262.816	8.84
263.077	5.48
263.338	1.87
263.6	2.09
263.861	1.56
264.122	0.02
264.383	2.99
264.645	3.25
264.906	2.7
265.167	4.99
265.428	3.9
265.689	4.45
265.95	2.07
266.211	3.5
266.473	2.65
266.734	0.02
266.995	-3
267.256	-1.36
267.517	0.29
267.778	4.59
268.039	6.06
268.3	4.82
268.561	3.04
268.822	6.3
269.083	5.28
269.344	5.01
269.604	3.18
269.865	4.19
270.126	-0.45
270.387	1.06
270.648	1.13
270.909	0.86
271.17	0.62
271.43	-2.41
271.691	-4.65
271.952	-5.99
272.213	-3.3
272.473	-6.68
272.734	-5.67
272.995	-3.56
273.256	-3.84
273.516	-1.52
273.777	-4.72
274.038	-2.73
274.298	-5
274.559	-5.27
274.82	0.25
275.08	3.29
275.341	3.56
275.601	2.56
275.862	1.24
276.122	1.61
276.383	2
276.643	3.09
276.904	2.19
277.164	4.82
277.425	5.02
277.685	8.88
277.946	9.48
278.206	11.56
278.467	13.75
278.727	13.62
278.987	13.3
279.248	13.62
279.508	16.17
279.768	20.17
280.029	22.41
280.289	17.56
280.549	16.54
280.81	17.47
281.07	17.42
281.33	18.91
281.59	16.7
281.851	18.87
282.111	18.37
282.371	16.7
282.631	18.95
282.891	17.06
283.151	15.12
283.412	13.06
283.672	12.66
283.932	11.03
284.192	12.12
284.452	9.54
284.712	8.11
284.972	7.31
285.232	5.32
285.492	7.42
285.752	5.68
286.012	11.34
286.272	12.35
286.532	8.64
286.792	9.02
287.052	11.86
287.312	11.05
287.571	11.32
287.831	10.32
288.091	7.75
288.351	7.81
288.611	12.14
288.871	11.19
289.13	9.84
289.39	5.25
289.65	7.78
289.91	6.15
290.17	7.7
290.429	11.3
290.689	8.87
290.949	4.68
291.208	6.18
291.468	9.92
291.728	10.87
291.987	14.52
292.247	14.04
292.506	16.81
292.766	19.63
293.026	17.99
293.285	20.13
293.545	22.98
293.804	22.39
294.064	17.58
294.323	15.16
294.583	16.39
294.842	16.12
295.102	15.23
295.361	15.84
295.621	15.42
295.88	15.77
296.139	16.29
296.399	18.27
296.658	13.06
296.917	13.49
297.177	10.79
297.436	12.31
297.695	10.18
297.955	11.78
298.214	10.88
298.473	11.53
298.732	13.55
298.992	17.99
299.251	16.69
299.51	11.99
299.769	12.56
300.028	11.4
300.287	11.64
300.547	11.92
300.806	10.22
301.065	13.78
301.324	14.47
301.583	10.06
301.842	7.12
302.101	5.33
302.36	7.41
302.619	6.82
302.878	8.21
303.137	6.14
303.396	7.57
303.655	10.02
303.914	7.95
304.173	7.81
304.432	6.99
304.691	8.77
304.95	6.75
305.208	11.17
305.467	11.73
305.726	11.09
305.985	12.06
306.244	13
306.503	13.12
306.761	11.18
307.02	8.64
307.279	8.99
307.537	9.75
307.796	6.23
308.055	4.24
308.314	4.13
308.572	2.99
308.831	4.67
309.09	4.72
309.348	4.97
309.607	3.72
309.865	8.12
310.124	7.73
310.382	7.61
310.641	9.03
310.9	7.4
311.158	7.57
311.417	6.36
311.675	6.47
311.933	5.71
312.192	7.27
312.45	7.46
312.709	7.9
312.967	7.67
313.226	8.86
313.484	7.62
313.742	5.83
314.001	3.82
314.259	2.31
314.517	1.87
314.776	3.99
315.034	4.66
315.292	4.08
315.55	3.37
315.809	3.52
316.067	4.33
316.325	3.29
316.583	4.3
316.841	1.93
317.1	-0.78
317.358	-3.77
317.616	-4.15
317.874	-6.13
318.132	-6.72
318.39	-6.77
318.648	-8.53
318.906	-8.25
319.164	-8.61
319.422	-10.21
319.68	-12.7
319.938	-11.39
320.196	-11.49
320.454	-10.14
320.712	-10.35
320.97	-10.08
321.228	-13.6
321.486	-10.23
321.744	-7.73
322.002	-5.45
322.26	-7.08
322.517	-6.76
322.775	-9.11
323.033	-10.39
323.291	-8.29
323.549	-6.7
323.806	-5.07
324.064	-5.75
324.322	-3.07
324.58	-5
324.837	-1.83
325.095	-4.24
325.353	-2.94
325.61	0.49
325.868	0.5
326.126	2.43
326.383	0.26
326.641	-0.6
326.898	0.58
327.156	1.33
327.413	3.93
327.671	4.54
327.928	7.03
328.186	7.91
328.443	6.54
328.701	9.81
328.958	10.33
329.216	11.11
329.473	8.99
329.731	10.09
329.988	9.48
330.245	12.55
330.503	12.75
330.76	12.25
331.017	14.99
331.275	12.99
331.532	12.15
331.789	9.84
332.047	9.94
332.304	5.91
332.561	6.78
332.818	5.41
333.076	10.01
333.333	12.32
333.59	11.81
333.847	14.06
334.104	14.16
334.361	14.58
334.618	14.45
334.876	12.05
335.133	11.78
335.39	9.25
335.647	10.69
335.904	6.62
336.161	3.08
336.418	3.35
336.675	-0.08
336.932	1.72
337.189	1.76
337.446	1.99
337.703	1.24
337.96	-2.59
338.216	-3.51
338.473	-4.78
338.73	-4.32
338.987	-5.01
339.244	-2.71
339.501	-3.75
339.757	-1.18
340.014	-0.11
340.271	0.96
340.528	0.66
340.785	3.72
341.041	1.63
341.298	-3.36
341.555	-3.47
341.811	-5.06
342.068	-8.28
342.325	-7.03
342.581	-4.04
342.838	-2.39
343.094	-1.79
343.351	-1.66
343.608	-4.35
343.864	-1.6
344.121	0.21
344.377	-1.11
344.634	-1.52
344.89	-3.33
345.147	-4.05
345.403	-5.32
345.66	-5.84
345.916	-2.8
346.172	-3.77
346.429	-5.25
346.685	-6.86
346.942	-5.52
347.198	-8.88
347.454	-8.28
347.711	-8.46
347.967	-11.98
348.223	-10.4
348.48	-10.27
348.736	-7.63
348.992	-8.11
349.248	-4.5
349.504	-4.53
349.761	-3.72
350.017	-3.18
350.273	-3.08
350.529	-4.8
350.785	-4.42
351.041	-4.24
351.297	-2.8
351.554	-3.87
351.81	-6.07
352.066	-7
352.322	-6.07
352.578	-5.39
352.834	-6.38
353.09	-6.14
353.346	-5.31
353.602	-7.28
353.858	-8.49
354.114	-8.81
354.369	-7.2
354.625	-4.54
354.881	-7.28
355.137	-4.09
355.393	-4.06
355.649	-3.33
355.905	-1.26
356.16	-1.06
356.416	-0.58
356.672	-7.47
356.928	-5.16
357.183	-5.7
357.439	-5.61
357.695	-7.37
357.951	-1.8
358.206	-3.56
358.462	-3.01
358.718	-6.63
358.973	-6.22
359.229	-5.66
359.484	-4.75
359.74	-1.35
359.996	0.07
360.251	3.08
360.507	2.02
360.762	2.69
361.018	4.72
361.273	3.12
361.529	4.97
361.784	4.34
362.04	4.64
362.295	2.24
362.55	2.27
362.806	4.3
363.061	4.08
363.316	5.79
363.572	5.38
363.827	7.15
364.082	3.57
364.338	1.99
364.593	3.12
364.848	3.25
365.104	2.45
365.359	4.14
365.614	3.54
365.869	-1.12
366.124	-0.13
366.38	-0.99
366.635	2.53
366.89	2.31
367.145	2.31
367.4	6.97
367.655	5.96
367.91	5.41
368.165	3.87
368.42	3.25
368.675	5.2
368.93	4.39
369.185	1.57
369.44	2.51
369.695	4.94
369.95	4.42
370.205	4.36
370.46	3.46
370.715	2.74
370.97	3.63
371.225	3.83
371.48	4.85
371.734	4.55
371.989	6.71
372.244	8.62
372.499	9.64
372.754	7.85
373.008	5.74
373.263	1.11
373.518	4.97
373.773	4.31
374.027	4.38
374.282	5.17
374.537	5.69
374.791	7.98
375.046	6.3
375.301	4.09
375.555	2.52
375.81	4.84
376.064	4.75
376.319	6.7
376.573	4.94
376.828	1.09
377.082	5.75
377.337	3.14
377.591	0.64
377.846	1.7
378.1	5.89
378.355	6.74
378.609	6.97
378.863	2.79
379.118	2.87
379.372	1.84
379.627	-0.57
379.881	-3.11
380.135	-4.7
380.389	-4.79
380.644	-4.95
380.898	-3.21
381.152	-1.6
381.407	-2.9
381.661	-0.74
381.915	0.09
382.169	1.27
382.423	-0.83
382.677	-3.29
382.932	-1.36
383.186	-0.82
383.44	-0.96
383.694	0.77
383.948	-1.06
384.202	-1.46
384.456	-0.19
384.71	2.5
384.964	1.02
385.218	2.58
385.472	3.14
385.726	3.72
385.98	2.78
386.234	1.1
386.488	-1.72
386.742	0.76
386.996	-1.16
387.249	-0.93
387.503	1.06
387.757	2.73
388.011	4.9
388.265	5.34
388.518	7.09
388.772	7.53
389.026	8.16
389.28	5.21
389.533	4.67
389.787	6.03
390.041	4.3
390.295	5.29
390.548	5.09
390.802	8.15
391.055	6.97
391.309	7.17
391.563	4.54
391.816	4.86
392.07	3.98
392.323	5.27
392.577	6.77
392.83	8.16
393.084	14.59
393.337	16.97
393.591	17.6
393.844	17.46
394.098	21.58
394.351	25.32
394.604	26.41
394.858	28.75
395.111	27.95
395.364	25.47
395.618	27.4
395.871	24.82
396.124	23.51
396.378	21.98
396.631	23.07
396.884	21.15
397.137	20.77
397.391	22.21
397.644	19.54
397.897	19.35
398.15	19.4
398.403	21.93
398.657	18.43
398.91	16.8
399.163	18.24
399.416	17.79
399.669	17.74
399.922	16.05
400.175	14.35
400.428	13.02
400.681	13.25
400.934	7.65
401.187	7.06
401.44	5.03
401.693	4.34
401.946	2.04
402.199	-1.09
402.452	-2.24
402.704	-6.09
402.957	-6.28
403.21	-3.52
403.463	-4.65
403.716	-3.45
403.969	-1.74
404.221	-1.43
404.474	-0.4
404.727	3.07
404.98	7.62
405.232	5.7
405.485	7.33
405.738	9.6
405.99	10.52
406.243	10.71
406.496	13.61
406.748	14.48
407.001	12.77
407.253	12.86
407.506	12.57
407.759	13.33
408.011	11.39
408.264	11.85
408.516	12.26
408.769	9.57
409.021	11.18
409.274	11.12
409.526	12.67
409.778	11.68
410.031	14.02
410.283	12.99
410.536	17.77
410.788	17.2
411.04	16.59
411.293	18.87
411.545	20.65
411.797	19.39
412.049	18.7
412.302	18.81
412.554	20.17
412.806	16.28
413.058	15.54
413.311	15.64
413.563	14.24
413.815	13.23
414.067	10.69
414.319	8.64
414.571	9.82
414.823	9.44
415.075	9.65
415.328	11.05
415.58	14.47
415.832	14.47
416.084	16.31
416.336	14.98
416.588	21.3
416.84	19.26
417.091	23.4
417.343	19.52
417.595	21.22
417.847	22.21
418.099	25.03
418.351	24.81
418.603	26.25
418.855	27.79
419.106	27.03
419.358	26.84
419.61	27.38
419.862	29.89
420.114	27.92
420.365	27.22
420.617	29.21
420.869	28.19
421.12	27.45
421.372	28.48
421.624	27.76
421.875	29.21
422.127	25.97
422.379	26.33
422.63	27.59
422.882	24.83
423.133	24.83
423.385	25.03
423.636	27.29
423.888	27.95
424.139	29.48
424.391	25.78
424.642	24.52
424.894	21.44
425.145	22.14
425.396	19.32
425.648	21.73
425.899	18.86
426.151	18.91
426.402	18.66
426.653	18
426.905	17.4
427.156	14.63
427.407	14.06
427.658	11.73
427.91	10.36
428.161	9.19
428.412	11.1
428.663	12.05
428.914	13.71
429.166	15.41
429.417	17.29
429.668	14.85
429.919	13.01
430.17	11.97
430.421	12.81
430.672	17.59
430.923	16.11
431.174	14.61
431.425	14.74
431.676	14.07
431.927	11.78
432.178	13.04
432.429	13.78
432.68	13.54
432.931	16.82
433.182	20.93
433.433	17.76
433.683	19.75
433.934	19.27
434.185	18.17
434.436	17.14
434.687	18.92
434.937	22.11
435.188	22.15
435.439	21.71
435.69	23.09
435.94	22.76
436.191	22.38
436.442	22.05
436.692	20.34
436.943	16.46
437.194	13.99
437.444	17.75
437.695	22.73
437.945	23.97
438.196	22.87
438.447	20.9
438.697	21.6
438.948	20.52
439.198	17.94
439.449	13.69
439.699	14.61
439.949	14.55
440.2	13.85
440.45	16.3
440.701	14.73
440.951	13.46
441.201	14.5
441.452	13.04
441.702	12.92
441.952	15.04
442.203	15.24
442.453	13.37
442.703	13.47
442.953	14.5
443.204	16.1
443.454	14.36
443.704	14.61
443.954	11.78
444.204	13
444.455	15.43
444.705	16.5
444.955	17.49
445.205	15.09
445.455	13.56
445.705	13.95
445.955	14.58
446.205	14.61
446.455	16.96
446.705	19.21
446.955	20.05
447.205	23.7
447.455	25.59
447.705	23.73
447.955	24.04
448.205	23.79
448.454	23.65
448.704	24.91
448.954	24.29
449.204	25.68
449.454	24.9
449.704	23.66
449.953	24.08
450.203	25.91
450.453	23.6
450.703	25.56
450.952	25.82
451.202	28.6
451.452	29.14
451.701	32.82
451.951	37.17
452.201	35.8
452.45	36.18
452.7	38.37
452.949	38.86
453.199	38.24
453.448	39.63
453.698	40.57
453.947	40.8
454.197	38.04
454.446	36.4
454.696	41.51
454.945	39.76
455.195	39.52
455.444	41.31
455.693	45.55
455.943	44.65
456.192	46.05
456.442	46.06
456.691	45.29
456.94	45.14
457.189	45.82
457.439	48.33
457.688	50.09
457.937	50.03
458.186	50.5
458.436	50.17
458.685	51.74
458.934	50.65
459.183	51.8
459.432	54.32
459.681	53.52
459.93	54.06
460.179	54.15
460.429	52.31
460.678	57.53
460.927	61.83
461.176	61.61
461.425	61.62
461.674	63.11
461.923	65.06
462.172	65.26
462.42	63.12
462.669	66.82
462.918	65.62
463.167	64.56
463.416	61.15
463.665	61.78
463.914	62.82
464.162	61.64
464.411	63.6
464.66	65.29
464.909	62.28
465.158	61.23
465.406	61.02
465.655	62.95
465.904	66.05
466.152	66.23
466.401	65.49
466.65	67.17
466.898	64.54
467.147	60.4
467.395	60.08
467.644	61.33
467.893	61.23
468.141	60.16
468.39	56.2
468.638	54.13
468.887	51.77
469.135	50.54
469.384	49.88
469.632	51.25
469.88	49.9
470.129	50.17
470.377	46.21
470.626	48.4
470.874	51.45
471.122	52.45
471.371	51.47
471.619	49.22
471.867	50.79
472.115	49.94
472.364	47.94
472.612	52.46
472.86	50.37
473.108	51.5
473.356	50.38
473.605	48.94
473.853	45.31
474.101	45.02
474.349	43.67
474.597	47.17
474.845	46.3
475.093	45.47
475.341	43.27
475.589	42.47
475.837	45.15
476.085	46.13
476.333	42.63
476.581	43.64
476.829	43.65
477.077	47.13
477.325	45.87
477.573	47.25
477.821	46.16
478.069	47.6
478.317	47.26
478.564	49.28
478.812	47.26
479.06	45.49
479.308	44.87
479.555	45.63
479.803	44.16
480.051	45.13
480.299	44.71
480.546	46.05
480.794	42.22
481.042	42.82
481.289	42.03
481.537	43.58
481.784	42.71
482.032	45.2
482.28	44.17
482.527	43.34
482.775	42.99
483.022	44.61
483.27	47.19
483.517	48.2
483.765	46.12
484.012	47.94
484.259	46.58
484.507	48.16
484.754	47.67
485.002	47.42
485.249	47.55
485.496	50.8
485.744	49.08
485.991	48.4
486.238	45.23
486.486	48.67
486.733	50.44
486.98	53.91
487.227	51.81
487.474	53.19
487.722	56.02
487.969	53.3
488.216	53.43
488.463	54.35
488.71	51.31
488.957	50.22
489.204	49.33
489.451	50.77
489.699	50.3
489.946	47.36
490.193	47.01
490.44	46.81
490.687	46.56
490.934	44.51
491.18	41.66
491.427	43.36
491.674	45.92
491.921	46.15
492.168	44.86
492.415	41.64
492.662	42.93
492.909	44.85
493.155	43.05
493.402	42.73
493.649	41.7
493.896	42.72
494.142	38.95
494.389	38.29
494.636	35.54
494.883	34.36
495.129	33.83
495.376	31.26
495.623	33.14
495.869	35.55
496.116	36.79
496.362	40.44
496.609	44.35
496.855	50.91
497.102	49.69
497.348	48.85
497.595	49.47
497.841	53.06
498.088	52.09
498.334	52.48
498.581	50.89
498.827	51.8
499.074	53.5
499.32	54.83
499.566	59
499.813	60.09
500.059	59.31
500.305	59.89
500.552	58.3
500.798	58.19
501.044	62.92
501.29	61.97
501.537	58.11
501.783	61.91
502.029	65.09
502.275	63.33
502.521	62.1
502.767	63.39
503.013	66.61
503.26	65.02
503.506	61.22
503.752	62.17
503.998	59.64
504.244	60.13
504.49	57.43
504.736	59.12
504.982	58.81
505.228	61.83
505.474	62.22
505.72	63.94
505.966	62.47
506.211	66.75
506.457	67.49
506.703	63.94
506.949	62.43
507.195	60.64
507.441	58.51
507.686	62
507.932	60.44
508.178	63.57
508.424	61.49
508.669	58.62
508.915	59.14
509.161	62.6
509.406	62.67
509.652	62.65
509.898	66.26
510.143	68.05
510.389	66.07
510.634	61.8
510.88	65.18
511.125	67.73
511.371	69.07
511.616	69.49
511.862	65.63
512.107	62.38
512.353	62.26
512.598	62.75
512.844	60.38
513.089	57.58
513.335	57.26
513.58	56.74
513.825	57.34
514.071	55.91
514.316	56.7
514.561	57.26
514.806	55.45
515.052	57.62
515.297	54.83
515.542	56.45
515.787	55.73
516.033	57.87
516.278	58.94
516.523	58.51
516.768	56.96
517.013	54.9
517.258	53.45
517.503	52.06
517.748	52.14
517.993	52.05
518.238	52.67
518.483	50.07
518.728	48.94
518.973	45.79
519.218	46.39
519.463	47.9
519.708	47.24
519.953	45.82
520.198	45.35
520.443	47.67
520.688	51.03
520.933	50.65
521.177	51.32
521.422	48.06
521.667	51.38
521.912	51.43
522.157	48.31
522.401	52.95
522.646	52.72
522.891	53.9
523.135	54.46
523.38	55.72
523.625	53.78
523.869	55.98
524.114	57.1
524.358	57.78
524.603	57.02
524.848	54.75
525.092	54.52
525.337	55.88
525.581	57.99
525.826	59.43
526.07	60.16
526.315	62.32
526.559	60.92
526.803	59.21
527.048	60.68
527.292	63.1
527.537	64.48
527.781	65.06
528.025	62.51
528.269	64.73
528.514	65.31
528.758	63.79
529.002	64.4
529.247	67.07
529.491	67.13
529.735	71.22
529.979	68.69
530.223	70.66
530.467	68.37
530.712	65.37
530.956	63.26
531.2	65.25
531.444	62.47
531.688	63.16
531.932	62.18
532.176	63.66
532.42	66.07
532.664	67.48
532.908	65.88
533.152	64.49
533.396	63.96
533.64	63.71
533.884	60.43
534.128	60.98
534.371	63.11
534.615	65.97
534.859	63.93
535.103	62.61
535.347	63.04
535.59	63.57
535.834	59.03
536.078	60.6
536.322	62.78
536.565	66.34
536.809	64.02
537.053	64.36
537.296	62.09
537.54	61.81
537.784	59.61
538.027	62.38
538.271	62.67
538.514	62.31
538.758	62.07
539.001	59.93
539.245	59.87
539.488	60.64
539.732	62.7
539.975	61.29
540.219	63.28
540.462	64.3
540.706	66.82
540.949	66.71
541.192	67.64
541.436	73.76
541.679	78.74
541.922	78.92
542.166	73.76
542.409	73.72
542.652	74.7
542.895	75.35
543.139	76.94
543.382	81.39
543.625	81.2
543.868	80.61
544.111	78
544.354	75.34
544.598	75.53
544.841	77.11
545.084	76.3
545.327	76.24
545.57	76.14
545.813	78.75
546.056	77.41
546.299	77.21
546.542	80.44
546.785	83.39
547.028	84.59
547.271	82.59
547.514	83.96
547.756	80.4
547.999	81.17
548.242	81.69
548.485	79.41
548.728	79.98
548.971	74.47
549.213	74.9
549.456	73.6
549.699	74.41
549.942	74.97
550.184	74.63
550.427	73.68
550.67	73.44
550.912	68.47
551.155	68.89
551.398	69.5
551.64	68.51
551.883	69.82
552.125	69.5
552.368	69.5
552.61	66.95
552.853	69.58
553.095	67.92
553.338	65.91
553.58	67.23
553.823	66.37
554.065	67.43
554.308	63.35
554.55	61.16
554.792	59.25
555.035	57.61
555.277	57.15
555.519	55.62
555.762	52.72
556.004	53.88
556.246	49.25
556.488	51.14
556.731	48.35
556.973	50.94
557.215	50.29
557.457	50.95
557.699	52.89
557.941	50.09
558.183	49.74
558.426	53.26
558.668	51.02
558.91	52.15
559.152	52.02
559.394	51.19
559.636	51.91
559.878	52.28
560.12	52.93
560.362	54.24
560.604	54.04
560.845	54.69
561.087	54.23
561.329	55.96
561.571	54.53
561.813	55.47
562.055	55.3
562.297	56.01
562.538	57.84
562.78	60.97
563.022	58.86
563.264	61.52
563.505	60.94
563.747	62.1
563.989	60.79
564.23	59.87
564.472	57
564.714	59.08
564.955	59.65
565.197	56.62
565.438	59.03
565.68	62.33
565.921	59.22
566.163	60.27
566.404	57.18
566.646	60.63
566.887	62.31
567.129	62.67
567.37	60.29
567.612	63.28
567.853	59.04
568.094	61.05
568.336	59.98
568.577	60.8
568.818	60.76
569.06	58.34
569.301	54.77
569.542	55.45
569.783	57.05
570.025	56.89
570.266	57.13
570.507	59.5
570.748	58.9
570.989	60.51
571.23	62.47
571.472	61.24
571.713	59.97
571.954	61.01
572.195	60.04
572.436	61.55
572.677	64.21
572.918	65.57
573.159	63.27
573.4	62.25
573.641	60.38
573.882	61.54
574.123	58.96
574.364	54.76
574.604	56.07
574.845	55.35
575.086	54.77
575.327	56.3
575.568	55.63
575.809	55.94
576.049	54.14
576.29	52.91
576.531	58.75
576.771	63.43
577.012	64.41
577.253	66.23
577.494	64.93
577.734	64.41
577.975	65.08
578.215	63.8
578.456	62.67
578.697	63.63
578.937	66.47
579.178	65.83
579.418	64.4
579.659	63.45
579.899	60.46
580.14	58.31
580.38	57.75
580.62	57.42
580.861	60.78
581.101	61.68
581.342	62.73
581.582	57.86
581.822	60.3
582.063	59.22
582.303	61.39
582.543	61.21
582.783	63.07
583.024	63.26
583.264	66.77
583.504	65.16
583.744	65.63
583.984	61.79
584.224	62.19
584.465	61.96
584.705	60.29
584.945	62.57
585.185	62.49
585.425	62.33
585.665	62.71
585.905	62.34
586.145	61.27
586.385	59.05
586.625	64.45
586.865	63.3
587.105	64.34
587.345	65.05
587.585	65.93
587.824	64.95
588.064	64.93
588.304	62.91
588.544	64.45
588.784	62.18
589.024	67.31
589.263	67.06
589.503	66.63
589.743	68.16
589.982	68.69
590.222	67.07
590.462	66.66
590.701	63.35
590.941	66.26
591.181	65.6
591.42	65.88
591.66	68.85
591.899	71.86
592.139	73.12
592.378	71.49
592.618	70.8
592.857	70.66
593.097	71.2
593.336	70.97
593.576	71.12
593.815	73.61
594.055	72.28
594.294	74.24
594.533	73.23
594.773	73.29
595.012	75.78
595.251	76.43
595.491	80.01
595.73	83.96
595.969	83.83
596.208	84.8
596.447	89.44
596.687	92.34
596.926	92.48
597.165	89.68
597.404	91.16
597.643	91.27
597.882	90.38
598.121	91.68
598.36	93.67
598.599	96.49
598.838	97.28
599.077	94.09
599.316	94.54
599.555	94.06
599.794	96.86
600.033	99.31
600.272	101.27
600.511	100.72
600.75	103.76
600.989	106.38
601.228	106.91
601.466	106.38
601.705	108.47
601.944	110.6
602.183	113.62
602.422	113.71
602.66	114.35
602.899	113.64
603.138	113.13
603.376	113.13
603.615	114.76
603.854	111.89
604.092	111.06
604.331	113.32
604.569	115.28
604.808	115.22
605.047	117.74
605.285	118.08
605.524	119.33
605.762	117.01
606	118.83
606.239	120.7
606.477	121.61
606.716	117.22
606.954	116.54
607.193	113.45
607.431	110.3
607.669	108.32
607.908	107.77
608.146	109.76
608.384	108.66
608.622	107.99
608.861	108.71
609.099	109.38
609.337	108.35
609.575	108.21
609.813	108.18
610.052	108.11
610.29	103.22
610.528	102.28
610.766	102.44
611.004	102.31
611.242	103.05
611.48	103.23
611.718	100.55
611.956	101.47
612.194	100.84
612.432	98.23
612.67	98.68
612.908	100.62
613.146	100.23
613.384	100.41
613.621	98.38
613.859	98.65
614.097	99.81
614.335	101.1
614.573	104.14
614.811	107
615.048	108.56
615.286	109.97
615.524	108.62
615.761	106.47
615.999	107.39
616.237	107.04
616.474	107.72
616.712	110.37
616.95	109.04
617.187	108.33
617.425	110.11
617.662	112.62
617.9	111
618.137	108.95
618.375	109.75
618.612	107.1
618.85	109.94
619.087	113.31
619.325	111.76
619.562	110.25
619.799	109.68
620.037	109.79
620.274	107.12
620.511	108.7
620.749	104.54
620.986	104.34
621.223	101.68
621.461	102.33
621.698	102.12
621.935	99.29
622.172	97.16
622.409	98.31
622.647	97.57
622.884	95.74
623.121	98.9
623.358	95.72
623.595	95.78
623.832	95.2
624.069	93.26
624.306	92.87
624.543	94.67
624.78	94.88
625.017	95.58
625.254	98.94
625.491	100.14
625.728	101.01
625.965	100.96
626.202	98.76
626.438	95.84
626.675	96.77
626.912	99.12
627.149	102.08
627.386	101.17
627.622	101.13
627.859	99.53
628.096	101.24
628.333	100.17
628.569	101.48
628.806	103.01
629.043	103.98
629.279	106.72
629.516	108.8
629.752	104.68
629.989	105.7
630.225	104.69
630.462	103.97
630.699	106.6
630.935	106.14
631.171	103.94
631.408	103.31
631.644	102.73
631.881	99.33
632.117	96.36
632.354	97.14
632.59	94.34
632.826	95.61
633.063	93.16
633.299	95.07
633.535	93.3
633.771	93.04
634.008	94.98
634.244	94.66
634.48	91.15
634.716	94.87
634.953	93.49
635.189	95.35
635.425	96.24
635.661	100
635.897	99.08
636.133	97.34
636.369	95.71
636.605	91.17
636.841	89.29
637.077	92.15
637.313	91.77
637.549	91.45
637.785	90.36
638.021	89.43
638.257	87.45
638.493	89.84
638.729	88.9
638.965	92.08
639.2	94.39
639.436	93.58
639.672	91.98
639.908	88.96
640.144	92.64
640.379	97.19
640.615	95.72
640.851	98
641.086	99.4
641.322	96.37
641.558	95.42
641.793	96.67
642.029	92.75
642.264	92.86
642.5	92.55
642.736	88.12
642.971	88.7
643.207	85.92
643.442	84.39
643.678	85.68
643.913	87.14
644.148	87.35
644.384	88.82
644.619	88.56
644.855	90.75
645.09	92.09
645.325	92.08
645.561	92.83
645.796	89.54
646.031	92.79
646.266	90.6
646.502	89.51
646.737	91.41
646.972	89.93
647.207	91.43
647.442	86.55
647.678	82.45
647.913	83.56
648.148	83.88
648.383	81.52
648.618	81.51
648.853	83
649.088	85
649.323	88.45
649.558	89.02
649.793	88.95
650.028	90.45
650.263	85.56
650.498	88.07
650.733	87.22
650.968	84.49
651.202	86.55
651.437	82.66
651.672	79.04
651.907	77.33
652.142	77.38
652.376	76.2
652.611	78
652.846	79.63
653.081	80.39
653.315	79.05
653.55	78.53
653.785	76.53
654.019	78.53
654.254	77.74
654.488	79.41
654.723	76.5
654.958	75.26
655.192	73.4
655.427	70.07
655.661	71.72
655.896	74.45
656.13	75.3
656.364	72.15
656.599	68.75
656.833	76.56
657.068	78.61
657.302	79.9
657.536	78.66
657.771	80.96
658.005	81.94
658.239	83.33
658.474	80.56
658.708	82.93
658.942	83.75
659.176	83.24
659.41	79.69
659.645	80.53
659.879	78.49
660.113	74.33
660.347	74.39
660.581	70.68
660.815	70.17
661.049	70.44
661.283	66.79
661.517	65.14
661.751	63.21
661.985	63.35
662.219	63.36
662.453	61.22
662.687	63.18
662.921	60.68
663.155	59.16
663.389	52.81
663.622	50.11
663.856	52.28
664.09	43.4
664.324	41.25
664.558	39.85
664.791	38.32
665.025	36.37
665.259	35.73
665.492	34.87
665.726	37.87
665.96	37.62
666.193	35.3
666.427	36.76
666.661	35.01
666.894	32
667.128	30.79
667.361	33.17
667.595	31.01
667.828	31.27
668.062	29.82
668.295	29.31
668.529	30.13
668.762	31.1
668.995	29.74
669.229	33.3
669.462	35.07
669.695	36.14
669.929	32.77
670.162	33.53
670.395	30.97
670.629	32.58
670.862	36.28
671.095	32.56
671.328	32.84
671.561	29.86
671.795	29.82
672.028	32.05
672.261	31.46
672.494	33.37
672.727	30.98
672.96	30.57
673.193	29.61
673.426	33.14
673.659	32.45
673.892	34.03
674.125	33.77
674.358	33.39
674.591	31.84
674.824	31.39
675.057	31.32
675.29	29.7
675.523	31.36
675.755	29.56
675.988	30.53
676.221	33.47
676.454	32.31
676.687	33.18
676.919	32.39
677.152	33.52
677.385	32.05
677.617	33.78
677.85	34.35
678.083	32.24
678.315	35.36
678.548	33.72
678.78	32.48
679.013	32.2
679.246	32.26
679.478	34.08
679.711	31.19
679.943	33.4
680.175	30.1
680.408	33.17
680.64	28.86
680.873	29.24
681.105	30.1
681.338	32.82
681.57	32.34
681.802	33.74
682.034	32.67
682.267	33.81
682.499	35.99
682.731	33.08
682.964	32.11
683.196	30.03
683.428	28.74
683.66	25.92
683.892	27.4
684.124	30.64
684.356	33.13
684.589	34.03
684.821	31.43
685.053	30.41
685.285	30.45
685.517	29.39
685.749	30.3
685.981	32.8
686.213	33.91
686.445	33.48
686.676	30.72
686.908	30.81
687.14	29.24
687.372	31.24
687.604	27.54
687.836	29.22
688.068	29.22
688.299	27.97
688.531	25.74
688.763	30.32
688.995	28.21
689.226	31.26
689.458	30.98
689.69	29.11
689.921	27.44
690.153	28.25
690.384	28.15
690.616	25.69
690.848	25.67
691.079	22.64
691.311	19.55
691.542	16.81
691.774	14.4
692.005	16.76
692.237	19.53
692.468	17.89
692.699	16.36
692.931	14.93
693.162	11.94
693.393	9.81
693.625	8.99
693.856	9.48
694.087	10.36
694.319	12.18
694.55	10.31
694.781	9.33
695.012	8.61
695.243	5.77
695.475	4.5
695.706	5.01
695.937	3.9
696.168	3.03
696.399	0.88
696.63	-0.61
696.861	0.87
697.092	8.05
697.323	10.26
697.554	12.41
697.785	13.69
698.016	15.44
698.247	13.9
698.478	14.37
698.709	14.53
698.94	18.4
699.171	17.9
699.401	14.76
699.632	16.5
699.863	14.87
700.094	15.71
700.325	18.49
700.555	19.8
700.786	21.19
701.017	21.75
701.247	20.94
701.478	19.96
701.709	21.11
701.939	21.29
702.17	22.93
702.401	25.55
702.631	27.64
702.862	25.29
703.092	21.15
703.323	25.11
703.553	26.94
703.784	27.38
704.014	26.75
704.244	19.61
704.475	18.44
704.705	18.77
704.936	18.57
705.166	16.57
705.396	17.32
705.627	18.11
705.857	17.98
706.087	16.6
706.317	13.67
706.548	11.58
706.778	10.83
707.008	11.06
707.238	11.74
707.468	9.22
707.698	6.22
707.928	5.71
708.158	3.91
708.389	2.84
708.619	0.76
708.849	-0.43
709.079	0.09
709.309	-2.73
709.539	-5.85
709.768	-5.34
709.998	-2.28
710.228	-2.76
710.458	-4.9
710.688	-7.23
710.918	-7.34
711.148	-8.11
711.378	-6.22
711.607	-7.47
711.837	-7
712.067	-6.48
712.297	-6.24
712.526	-6.78
712.756	-6.67
712.986	-8.92
713.215	-11.13
713.445	-8.87
713.674	-7.25
713.904	-7.91
714.134	-3.67
714.363	-4.67
714.593	-3.73
714.822	-3.27
715.052	-3.16
715.281	-1.77
715.511	-2.85
715.74	-1.32
715.969	-2.2
716.199	-3.18
716.428	-2.35
716.657	-2.15
716.887	-1.37
717.116	-4.39
717.345	-1.97
717.575	-1.1
717.804	0.15
718.033	-1.74
718.262	-1.68
718.492	-1.18
718.721	-1.49
718.95	-2.63
719.179	-5.53
719.408	-4.22
719.637	-7.56
719.866	-8.92
720.095	-6.91
720.324	-7.12
720.553	-11.5
720.782	-12.37
721.011	-12.32
721.24	-15.73
721.469	-16.2
721.698	-16.8
721.927	-16.6
722.156	-17.87
722.385	-19.63
722.613	-15.38
722.842	-15.73
723.071	-12.46
723.3	-10.32
723.529	-10.52
723.757	-8.84
723.986	-10.69
724.215	-11.56
724.443	-10.59
724.672	-8.45
724.901	-8.65
725.129	-5.35
725.358	-2.67
725.586	-5.4
725.815	-4.9
726.043	-5.49
726.272	-5.49
726.5	-6.16
726.729	-4.81
726.957	-8.46
727.186	-9.55
727.414	-7.89
727.642	-4.95
727.871	-3.46
728.099	-4.45
728.327	-5.12
728.556	-4.02
728.784	-2.95
729.012	-2.94
729.241	-0.19
729.469	0.09
729.697	-2.41
729.925	-2
730.153	-4.59
730.381	-5.32
730.61	-5.45
730.838	-8.48
731.066	-8.26
731.294	-7.41
731.522	-10.05
731.75	-15.51
731.978	-16.11
732.206	-17.12
732.434	-19.25
732.662	-16.66
732.89	-17.53
733.118	-18.45
733.346	-18.26
733.573	-16.7
733.801	-16.33
734.029	-9.18
734.257	-9
734.485	-5.57
734.712	-4.21
734.94	-5.81
735.168	-1.66
735.396	-0.93
735.623	-2.11
735.851	-0.48
736.078	0.37
736.306	-0.52
736.534	-1.58
736.761	-0.61
736.989	-3.03
737.216	-3.21
737.444	-5.4
737.671	-4.38
737.899	0.4
738.126	-0.53
738.354	0.78
738.581	2.06
738.809	3.9
739.036	2.35
739.263	2.69
739.491	1.11
739.718	-0.25
739.945	3.31
740.173	4.89
740.4	5.62
740.627	3.64
740.854	5.79
741.081	3.3
741.309	1.8
741.536	-3.68
741.763	-4.07
741.99	-3.38
742.217	-4.24
742.444	-3.83
742.671	-2.65
742.898	-3.83
743.125	-6.05
743.352	-8.86
743.579	-8.74
743.806	-11.17
744.033	-8.19
744.26	-7.25
744.487	-6.47
744.714	-6.8
744.941	-6.79
745.167	-3.81
745.394	-5.79
745.621	-6.77
745.848	-7.37
746.075	-3.85
746.301	-2.11
746.528	1.2
746.755	-0.53
746.981	0.4
747.208	1.5
747.435	3.38
747.661	3.28
747.888	2.96
748.114	0.43
748.341	3.62
748.567	6.07
748.794	3.95
749.02	4.23
749.247	1.81
749.473	-0.25
749.7	-1.09
749.926	-1.16
750.152	2.74
750.379	4.71
750.605	5.37
750.831	6.46
751.058	4.42
751.284	3.34
751.51	4.89
751.737	5.45
751.963	3.44
752.189	3.26
752.415	3.31
752.641	4.09
752.867	3.73
753.094	0.88
753.32	-0.15
753.546	-1.95
753.772	0.93
753.998	-2.59
754.224	-3.35
754.45	-4.96
754.676	-6.12
754.902	-8.34
755.128	-8.77
755.354	-9.65
755.579	-8.62
755.805	-8.12
756.031	-10.77
756.257	-10.51
756.483	-9.87
756.709	-11.88
756.934	-12.27
757.16	-15.15
757.386	-15.57
757.612	-16.4
757.837	-17.87
758.063	-15.41
758.289	-13.1
758.514	-14.49
758.74	-16.4
758.965	-19.02
759.191	-18.23
759.416	-17.14
759.642	-17.19
759.868	-15.55
760.093	-13.83
760.318	-15.83
760.544	-15.32
760.769	-17.04
760.995	-17.7
761.22	-17.95
761.445	-15.49
761.671	-12.28
761.896	-8.94
762.121	-6.97
762.347	-7.46
762.572	-10
762.797	-10.29
763.022	-8.25
763.248	-3.78
763.473	-3.68
763.698	-3.53
763.923	-3.12
764.148	-3.2
764.373	-4.11
764.598	-3.54
764.823	-1.02
765.048	-3.94
765.273	-6.94
765.498	-7.57
765.723	-7.59
765.948	-5.88
766.173	-6.96
766.398	-5.48
766.623	-8.08
766.848	-9.11
767.073	-10.91
767.298	-9.61
767.522	-10.29
767.747	-8.76
767.972	-7.68
768.197	-7.52
768.421	-10.2
768.646	-13.35
768.871	-16.42
769.095	-15.85
769.32	-14.98
769.545	-14.57
769.769	-12.06
769.994	-11.45
770.218	-14.54
770.443	-12.61
770.667	-11.18
770.892	-10.48
771.116	-10.87
771.341	-9.08
771.565	-8.91
771.79	-9.4
772.014	-8.95
772.238	-10.77
772.463	-7.68
772.687	-7.16
772.911	-8.23
773.136	-11.21
773.36	-11.07
773.584	-9.01
773.808	-11.06
774.033	-11.35
774.257	-12.55
774.481	-13.74
774.705	-14.66
774.929	-15.26
775.153	-14.66
775.377	-12.68
775.602	-13.02
775.826	-11.04
776.05	-9.35
776.274	-8.88
776.498	-8.76
776.722	-10.33
776.945	-9.01
777.169	-10.64
777.393	-12.1
777.617	-13.45
777.841	-13.4
778.065	-11.71
778.289	-12.4
778.512	-12.92
778.736	-12.77
778.96	-13.22
779.184	-9.17
779.407	-10.55
779.631	-10.14
779.855	-10.87
780.078	-8.68
780.302	-11.65
780.526	-12.39
780.749	-12.57
780.973	-10.36
781.196	-9.38
781.42	-10.87
781.643	-10.93
781.867	-8.55
782.09	-11.82
782.314	-12.89
782.537	-13.19
782.76	-14
782.984	-14.04
783.207	-15.86
783.431	-16.55
783.654	-17.16
783.877	-20.33
784.1	-20.74
784.324	-20.55
784.547	-20.79
784.77	-23.74
784.993	-25.68
785.216	-28.16
785.44	-26.9
785.663	-28.09
785.886	-26.44
786.109	-27.51
786.332	-27.19
786.555	-26.74
786.778	-23.58
787.001	-23.21
787.224	-19.55
787.447	-19.81
787.67	-17.66
787.893	-17.78
788.116	-17.05
788.339	-15.76
788.561	-15.38
788.784	-19.44
789.007	-20.31
789.23	-21.75
789.453	-21.98
789.675	-23.31
789.898	-25.79
790.121	-27.96
790.344	-27.99
790.566	-26.66
790.789	-25.88
791.012	-24.25
791.234	-23.07
791.457	-19.68
791.679	-18.85
791.902	-18.05
792.124	-16.75
792.347	-19.76
792.569	-20.6
792.792	-21.82
793.014	-19.68
793.237	-19.38
793.459	-19.88
793.681	-21.52
793.904	-22.73
794.126	-25.93
794.348	-25.84
794.571	-24.67
794.793	-25.64
795.015	-25.33
795.237	-24.65
795.46	-24.19
795.682	-24.16
795.904	-20.75
796.126	-21.32
796.348	-20.63
796.57	-17.18
796.792	-16.03
797.014	-11.45
797.237	-8.32
797.459	-7.32
797.681	-5.83
797.903	-8.42
798.124	-7.32
798.346	3.78
798.568	5.09
798.79	7.39
799.012	7.96
799.234	10.78
799.456	12.51
799.678	13.56
799.899	10.52
800.121	8.17
800.343	7.91
800.565	8.9
800.786	9.48
801.008	12.73
801.23	11.87
801.451	12
801.673	11.2
801.895	10.16
802.116	12.38
802.338	13.2
802.559	12.81
802.781	10.54
803.002	12.28
803.224	14.41
803.445	11.1
803.667	11.55
803.888	9.88
804.109	8.42
804.331	7.81
804.552	6.95
804.773	10.23
804.995	6.46
805.216	-7.03
805.437	-9.75
805.658	-11.64
805.88	-12.12
806.101	-11.28
806.322	-10.41
806.543	-11.34
806.764	-12.61
806.985	-10.57
807.207	-9.39
807.428	-8.68
807.649	-12.1
807.87	-15.65
808.091	-13.61
808.312	-13.53
808.533	-9.36
808.754	-6.9
808.975	-9.82
809.195	-8.94
809.416	-7.6
809.637	-7.16
809.858	-7.58
810.079	-9.17
810.3	-6.53
810.52	-6.46
810.741	-8.14
810.962	-9.96
811.183	-10.3
811.403	-9.37
811.624	-11.16
811.845	-9.92
812.065	-9.18
812.286	-6.9
812.506	-6
812.727	-5.41
812.948	-5.92
813.168	-4.39
813.389	-6.01
813.609	-4.12
813.83	-4.13
814.05	-4.01
814.27	-4.52
814.491	-0.43
814.711	-0.46
814.931	-4.54
815.152	-4.72
815.372	-7.4
815.592	-8.71
815.813	-9.35
816.033	-10.84
816.253	-9.37
816.473	-10.85
816.694	-10.52
816.914	-10.21
817.134	-12.66
817.354	-14.66
817.574	-14.73
817.794	-14.44
818.014	-15.38
818.234	-16.18
818.454	-16.41
818.674	-18.38
818.894	-19.37
819.114	-17.58
819.334	-17.45
819.554	-15.41
819.774	-13.34
819.994	-15.98
820.214	-14.8
820.433	-14.75
820.653	-15.89
820.873	-14.47
821.093	-14.79
821.312	-16.16
821.532	-13.54
821.752	-9.47
821.972	-11.64
822.191	-10.06
822.411	-11.69
822.63	-10.84
822.85	-9.75
823.07	-13.59
823.289	-12.32
823.509	-13.74
823.728	-11.01
823.948	-10.33
824.167	-11.44
824.387	-11.35
824.606	-10.12
824.825	-11.76
825.045	-11.33
825.264	-11.63
825.483	-9.36
825.703	-8.19
825.922	-10.48
826.141	-11.94
826.361	-13.57
826.58	-17.41
826.799	-19.87
827.018	-19.52
827.237	-19.72
827.456	-17.49
827.676	-17.65
827.895	-16.28
828.114	-14.39
828.333	-15.26
828.552	-15.56
828.771	-14.4
828.99	-17.11
829.209	-17.23
829.428	-14.91
829.647	-16.08
829.866	-14.06
830.084	-14.38
830.303	-14.38
830.522	-15.68
830.741	-16.35
830.96	-15.78
831.179	-14.28
831.397	-15.82
831.616	-15.12
831.835	-16.17
832.053	-16.35
832.272	-14.92
832.491	-15.93
832.709	-17.21
832.928	-16.78
833.147	-15.55
833.365	-13.45
833.584	-10.34
833.802	-8.33
834.021	-7.86
834.239	-6.27
834.458	-7.99
834.676	-11.89
834.894	-13.8
835.113	-14.22
835.331	-14.62
835.55	-15.13
835.768	-13.61
835.986	-12.64
836.204	-15.09
836.423	-15.03
836.641	-14.48
836.859	-15
837.077	-14.01
837.296	-15.05
837.514	-15.85
837.732	-16.67
837.95	-19.61
838.168	-17.07
838.386	-18.74
838.604	-15.65
838.822	-14.38
839.04	-16.8
839.258	-14.9
839.476	-12.93
839.694	-12.57
839.912	-15.28
840.13	-16.09
840.348	-12.83
840.566	-16.24
840.783	-15.41
841.001	-18.85
841.219	-17.86
841.437	-16.36
841.655	-15.22
841.872	-15.63
842.09	-15.92
842.308	-15.16
842.525	-15.64
842.743	-14.44
842.961	-15.31
843.178	-16.45
843.396	-14
843.613	-12.96
843.831	-11.29
844.048	-10.49
844.266	-9.24
844.483	-8.36
844.701	-9.35
844.918	-9.44
845.136	-7.99
845.353	-10.41
845.57	-10.4
845.788	-6.55
846.005	-7.76
846.222	-8.34
846.439	-6.81
846.657	-5.27
846.874	-5.07
847.091	-7.33
847.308	-4.32
847.526	-5.09
847.743	-4.59
847.96	-6.17
848.177	-5.75
848.394	-7.37
848.611	-9.2
848.828	-10.4
849.045	-10.65
849.262	-11.2
849.479	-11.27
849.696	-11.32
849.913	-12.4
850.13	-16.89
850.347	-14.19
850.564	-15.57
850.78	-17.12
850.997	-18.84
851.214	-18.42
851.431	-15.78
851.647	-19.1
851.864	-18.57
852.081	-15.78
852.298	-19.2
852.514	-22.3
852.731	-21.27
852.948	-19.5
853.164	-19.42
853.381	-20.24
853.597	-21.48
853.814	-24.16
854.03	-26.73
854.247	-25.01
854.463	-24.53
854.68	-25.36
854.896	-24.6
855.113	-23.39
855.329	-20.6
855.545	-18.39
855.762	-19.96
855.978	-23.03
856.194	-25.74
856.411	-23.06
856.627	-20.98
856.843	-19.5
857.059	-17.33
857.275	-18.79
857.492	-17.49
857.708	-14.45
857.924	-13.99
858.14	-12.42
858.356	-12.85
858.572	-12.72
858.788	-15.73
859.004	-13.32
859.22	-14.48
859.436	-13.71
859.652	-15.58
859.868	-17.02
860.084	-17.32
860.3	-17.58
860.516	-16.84
860.731	-16.49
860.947	-19.36
861.163	-18.39
861.379	-17.38
861.595	-15.17
861.81	-15.17
862.026	-15.09
862.242	-15.57
862.457	-15.28
862.673	-13.04
862.889	-12.21
863.104	-11.97
863.32	-11.28
863.535	-10.9
863.751	-16.02
863.966	-13.88
864.182	-13.36
864.397	-15.29
864.613	-16.96
864.828	-17.31
865.044	-14.44
865.259	-13.09
865.474	-13.07
865.69	-10.91
865.905	-9.48
866.12	-13.65
866.336	-14.2
866.551	-13.43
866.766	-14.59
866.981	-14.8
867.196	-15.98
867.412	-15.9
867.627	-15.05
867.842	-16.19
868.057	-16.72
868.272	-18.59
868.487	-19.79
868.702	-21.89
868.917	-22.37
869.132	-20.59
869.347	-18.86
869.562	-20.12
869.777	-21.07
869.992	-22.57
870.207	-22.97
870.422	-23
870.636	-24.64
870.851	-25.5
871.066	-27.25
871.281	-27.06
871.495	-28.88
871.71	-26.75
871.925	-29.92
872.14	-30.9
872.354	-33.75
872.569	-35.48
872.783	-31.84
872.998	-30.91
873.213	-30.92
873.427	-26.82
873.642	-25.42
873.856	-24.01
874.071	-24.97
874.285	-26.3
874.5	-27.08
874.714	-28.07
874.928	-29.04
875.143	-28.6
875.357	-28.04
875.571	-29.45
875.786	-29.01
876	-26.78
876.214	-24.09
876.429	-26.42
876.643	-25.56
876.857	-24.82
877.071	-24.69
877.285	-24.47
877.499	-28.11
877.714	-24.19
877.928	-21.77
878.142	-22.96
878.356	-25.55
878.57	-23.4
878.784	-22.79
878.998	-22.52
879.212	-19.24
879.426	-21.8
879.639	-20.73
879.853	-22.56
880.067	-23.42
880.281	-23.91
880.495	-22.21
880.709	-19.35
880.922	-18.3
881.136	-16.88
881.35	-14.63
881.564	-14.8
881.777	-17.06
881.991	-16.3
882.205	-13.05
882.418	-12.62
882.632	-15.28
882.845	-16.25
883.059	-14.97
883.273	-15.72
883.486	-15.84
883.7	-12.89
883.913	-14.04
884.126	-12.45
884.34	-15.99
884.553	-17.35
884.767	-13.44
884.98	-13.83
885.193	-15.73
885.407	-14.7
885.62	-14.02
885.833	-14.26
886.046	-11.29
886.26	-13.15
886.473	-14.34
886.686	-15.24
886.899	-14.26
887.112	-15.68
887.326	-18.53
887.539	-17.86
887.752	-17.32
887.965	-19.76
888.178	-19.7
888.391	-18.55
888.604	-18.41
888.817	-21.1
889.03	-20.45
889.243	-21.67
889.455	-23.3
889.668	-22.63
889.881	-20.03
890.094	-21.57
890.307	-24.87
890.52	-23.91
890.732	-21.45
890.945	-20.28
891.158	-20.3
891.37	-22.43
891.583	-22.08
891.796	-19.24
892.008	-21.27
892.221	-21.22
892.434	-24.78
892.646	-27.12
892.859	-27.45
893.071	-25.33
893.284	-23.74
893.496	-23.73
893.709	-23.5
893.921	-21.62
894.133	-22.35
894.346	-23.72
894.558	-23.42
894.771	-22.67
894.983	-20.11
895.195	-19.69
895.407	-17.64
895.62	-20.67
895.832	-19.51
896.044	-16.55
896.256	-17.7
896.468	-19.38
896.681	-17.32
896.893	-16.44
897.105	-15.65
897.317	-16.61
897.529	-15.41
897.741	-15.43
897.953	-13.19
898.165	-14.91
898.377	-17.21
898.589	-15.75
898.801	-15.97
899.013	-13.94
899.224	-10.61
899.436	-8.01
899.648	-8.71
899.86	-10.24
900.072	-8.06
900.283	-7.89
900.495	-6.73
900.707	-6.78
900.919	-9.6
901.13	-7.74
901.342	-9.2
901.554	-10.98
901.765	-10.76
901.977	-12.56
902.188	-12.65
902.4	-14.12
902.611	-16.64
902.823	-17.48
903.034	-18.58
903.246	-19.38
903.457	-19.69
903.669	-20.73
903.88	-21.17
904.091	-22.7
904.303	-20.38
904.514	-22.72
904.725	-20.29
904.936	-19.1
905.148	-18.79
905.359	-17.13
905.57	-16.63
905.781	-18.81
905.992	-20.83
906.204	-20.49
906.415	-19.89
906.626	-23.83
906.837	-21.46
907.048	-22.61
907.259	-22.06
907.47	-22.54
907.681	-24.52
907.892	-22.32
908.103	-22.7
908.314	-25.13
908.525	-24.47
908.735	-24.18
908.946	-23.94
909.157	-24.3
909.368	-22.09
909.579	-21.77
909.789	-23.94
910	-25.23
910.211	-22.96
910.421	-24.08
910.632	-22.67
910.843	-26.36
911.053	-22.32
911.264	-21.14
911.475	-22.71
911.685	-22.6
911.896	-22.96
912.106	-22.15
912.317	-23.83
912.527	-20.82
912.737	-20.97
912.948	-20.38
913.158	-18.14
913.369	-20.3
913.579	-18.24
913.789	-18.13
914	-13.15
914.21	-11.19
914.42	-11.3
914.63	-12.32
914.841	-11.84
915.051	-9.65
915.261	-8.68
915.471	-6.9
915.681	-5.75
915.891	-5.33
916.101	-5.5
916.311	-5.22
916.521	-3.87
916.731	-2.87
916.941	1.02
917.151	0.52
917.361	4.25
917.571	-0.25
917.781	-1.65
917.991	-3.83
918.201	-4.1
918.411	-7.74
918.621	-9.43
918.83	-8.74
919.04	-12.63
919.25	-8.8
919.46	-8.01
919.669	-11.73
919.879	-12.01
920.089	-14.06
920.298	-14.71
920.508	-15.74
920.717	-16.17
920.927	-18.17
921.136	-16.93
921.346	-17.03
921.555	-20.32
921.765	-20.97
921.974	-23.3
922.184	-26.19
922.393	-26.06
922.603	-27.71
922.812	-24.34
923.021	-24.54
923.23	-26.14
923.44	-29.59
923.649	-30.38
923.858	-32.77
924.067	-32.44
924.277	-33.88
924.486	-30.59
924.695	-31.91
924.904	-28.13
925.113	-26.4
925.322	-24.99
925.531	-22.51
925.74	-26.23
925.949	-28.8
926.158	-24.81
926.367	-24.92
926.576	-23.18
926.785	-23.96
926.994	-25.61
927.203	-24.41
927.412	-24.22
927.621	-24.72
927.83	-23.63
928.038	-24.36
928.247	-24
928.456	-22.39
928.665	-20.67
928.873	-19.21
929.082	-16.98
929.291	-16.95
929.499	-16.28
929.708	-17.67
929.916	-16.61
930.125	-17.15
930.333	-18.49
930.542	-15.51
930.75	-12.93
930.959	-12.91
931.167	-13.45
931.376	-15.57
931.584	-15.03
931.793	-15.15
932.001	-15.59
932.209	-17.12
932.418	-18.15
932.626	-20.26
932.834	-22.08
933.042	-27.22
933.251	-27.82
933.459	-27.47
933.667	-28.68
933.875	-28.22
934.083	-26.21
934.291	-24.08
934.499	-21.92
934.707	-22.58
934.915	-22.98
935.123	-20.37
935.331	-22.11
935.539	-23.76
935.747	-25.74
935.955	-25.35
936.163	-24.51
936.371	-25.38
936.579	-23.93
936.787	-23.08
936.995	-25.84
937.202	-27.79
937.41	-27.42
937.618	-27.19
937.826	-26.04
938.033	-31.36
938.241	-32.5
938.449	-30.62
938.656	-28.09
938.864	-28.2
939.071	-29.03
939.279	-25.24
939.486	-22
939.694	-22.63
939.901	-23.86
940.109	-23.01
940.316	-22.47
940.524	-24.65
940.731	-27.05
940.939	-26.19
941.146	-26.3
941.353	-27.08
941.561	-28.45
941.768	-29.49
941.975	-27.79
942.182	-28.65
942.39	-28.2
942.597	-24.94
942.804	-24.82
943.011	-25.71
943.218	-24.1
943.425	-23.3
943.632	-23.39
943.839	-25.36
944.046	-24.99
944.253	-25.88
944.46	-24.13
944.667	-20.4
944.874	-22.17
945.081	-20.74
945.288	-18.56
945.495	-15.8
945.702	-17.09
945.909	-18.55
946.115	-15.68
946.322	-16.28
946.529	-18.83
946.736	-19.84
946.942	-18.16
947.149	-18.34
947.356	-19.43
947.562	-20.56
947.769	-20.02
947.976	-20.84
948.182	-20.28
948.389	-21.84
948.595	-19.9
948.802	-20.17
949.008	-22.14
949.215	-19.61
949.421	-19.09
949.628	-20.51
949.834	-20.62
950.04	-21.82
950.247	-16.16
950.453	-14.73
950.659	-15.04
950.865	-12.42
951.072	-17.72
951.278	-15.16
951.484	-17.5
951.69	-20.34
951.896	-21.67
952.103	-21.94
952.309	-20.33
952.515	-20.05
952.721	-17.29
952.927	-15.37
953.133	-15.52
953.339	-16.61
953.545	-15.8
953.751	-14.59
953.957	-11.21
954.163	-12.82
954.369	-13.49
954.574	-14.17
954.78	-14.17
954.986	-14
955.192	-13.22
955.398	-15.9
955.603	-19.81
955.809	-18.51
956.015	-18.13
956.22	-17.69
956.426	-14.91
956.632	-19.9
956.837	-19.39
957.043	-18.33
957.248	-18.08
957.454	-16.57
957.66	-19.18
957.865	-19
958.07	-17.53
958.276	-17.88
958.481	-20.05
958.687	-19.96
958.892	-20.55
959.097	-19.91
959.303	-19.46
959.508	-19.35
959.713	-19
959.919	-20.39
960.124	-21.89
960.329	-21.83
960.534	-18.22
960.739	-15.54
960.945	-12.5
961.15	-13.33
961.355	-14.21
961.56	-17.5
961.765	-18.78
961.97	-16.78
962.175	-13.99
962.38	-17.22
962.585	-17.63
962.79	-20.46
962.995	-20.73
963.2	-23.04
963.404	-23.05
963.609	-25.45
963.814	-26.47
964.019	-29.29
964.224	-30.87
964.428	-30.06
964.633	-29.46
964.838	-26.99
965.042	-28.34
965.247	-31.22
965.452	-32.37
965.656	-31.19
965.861	-32.2
966.066	-33.53
966.27	-31.19
966.475	-27.11
966.679	-32.13
966.884	-33.03
967.088	-35.84
967.292	-37.87
967.497	-35.2
967.701	-36.35
967.906	-34.08
968.11	-28.78
968.314	-25.07
968.518	-28.07
968.723	-26.39
968.927	-25.36
969.131	-24.03
969.335	-20.55
969.539	-19.74
969.744	-18.87
969.948	-16.33
970.152	-14.65
970.356	-12.74
970.56	-11.78
970.764	-11.76
970.968	-9.99
971.172	-9.8
971.376	-8.27
971.58	-4.79
971.784	-4.37
971.988	-7.14
972.192	-3.67
972.395	-4.62
972.599	-6.88
972.803	-8.89
973.007	-6.52
973.21	-6.26
973.414	-5.82
973.618	-6.07
973.822	-7.46
974.025	-7.55
974.229	-8.57
974.432	-12.49
974.636	-15.49
974.84	-15.47
975.043	-13.25
975.247	-13.79
975.45	-13.33
975.654	-13.37
975.857	-12.01
976.06	-13.59
976.264	-15.76
976.467	-15.42
976.671	-15.68
976.874	-14.49
977.077	-17.11
977.28	-18.27
977.484	-20.38
977.687	-20.43
977.89	-19.36
978.093	-20.67
978.297	-18.82
978.5	-20.59
978.703	-18.6
978.906	-17.45
979.109	-18.02
979.312	-15.83
979.515	-17.52
979.718	-17.5
979.921	-18.26
980.124	-19.44
980.327	-18.5
980.53	-18.6
980.733	-16.97
980.936	-14.83
981.138	-15.55
981.341	-15.17
981.544	-15.3
981.747	-16.41
981.949	-18.39
982.152	-17.35
982.355	-17.71
982.558	-14.52
982.76	-16.77
982.963	-17.43
983.165	-17.74
983.368	-15.66
983.571	-14.6
983.773	-11.54
983.976	-12.28
984.178	-12.5
984.381	-11.72
984.583	-15.72
984.785	-16.51
984.988	-14.63
985.19	-14.22
985.392	-15.94
985.595	-19.22
985.797	-17.88
985.999	-15.68
986.202	-13.11
986.404	-13.07
986.606	-11.11
986.808	-11.88
987.01	-10.47
987.212	-12.56
987.415	-13.33
987.617	-13.08
987.819	-14
988.021	-13.07
988.223	-14.54
988.425	-16.68
988.627	-15.5
988.829	-19.36
989.031	-17.5
989.232	-17.73
989.434	-16.41
989.636	-17.07
989.838	-18.86
990.04	-18.34
990.242	-20.39
990.443	-22.36
990.645	-20.51
990.847	-15.55
991.048	-14.63
991.25	-16.59
991.452	-16.98
991.653	-17.55
991.855	-17.66
992.057	-17.95
992.258	-17.43
992.46	-18.33
992.661	-16.86
992.863	-17.86
993.064	-17.11
993.265	-19.34
993.467	-20.66
993.668	-18.38
993.87	-18.51
994.071	-18.79
994.272	-18.82
994.473	-16.95
994.675	-15.5
994.876	-15.34
995.077	-14.83
995.278	-14.16
995.48	-13.53
995.681	-16.77
995.882	-15.03
996.083	-15.51
996.284	-20.37
996.485	-17.58
996.686	-18.87
996.887	-20.37
997.088	-24.45
997.289	-26.26
997.49	-25.88
997.691	-25.14
997.892	-25.72
998.092	-20.42
998.293	-21.25
998.494	-21.97
998.695	-23.04
998.896	-21.4
999.096	-23.15
999.297	-21.79
999.498	-22.47
999.698	-22.99
999.899	-26.33
1000.1	-28.63
1000.3	-27.65
1000.501	-29.03
1000.701	-28.41
1000.902	-28.41
1001.102	-29.26
1001.303	-27.01
1001.503	-28.88
1001.704	-28.56
1001.904	-27.97
1002.105	-29.26
1002.305	-28.05
1002.505	-27.89
1002.706	-29.32
1002.906	-29.78
1003.106	-31.18
1003.306	-29.67
1003.507	-26.58
1003.707	-26.17
1003.907	-24.71
1004.107	-22.17
1004.307	-23.85
1004.507	-20.97
1004.707	-21.35
1004.907	-22.49
1005.107	-24.6
1005.308	-23.69
1005.507	-26.35
1005.707	-24.54
1005.907	-25.53
1006.107	-23.66
1006.307	-21.72
1006.507	-23.23
1006.707	-20.84
1006.907	-21.2
1007.106	-22.79
1007.306	-23.2
1007.506	-23.94
1007.706	-23.56
1007.905	-24.78
1008.105	-24.26
1008.305	-25.38
1008.504	-25.02
1008.704	-19.44
1008.903	-18.26
1009.103	-15.17
1009.303	-17.03
1009.502	-15.73
1009.702	-18.04
1009.901	-18.87
1010.1	-23.13
1010.3	-21.6
1010.499	-23.93
1010.699	-27.22
1010.898	-29.26
1011.097	-28.06
1011.296	-26.6
1011.496	-26.7
1011.695	-24.99
1011.894	-24.61
1012.093	-20.85
1012.293	-19.95
1012.492	-21.22
1012.691	-21.57
1012.89	-22.61
1013.089	-24.86
1013.288	-24.51
1013.487	-23.5
1013.686	-24.42
1013.885	-25.81
1014.084	-24.85
1014.283	-24.12
1014.482	-23.75
1014.681	-24.08
1014.88	-28.83
1015.078	-28.12
1015.277	-30.69
1015.476	-31
1015.675	-32.07
1015.873	-31.53
1016.072	-32.41
1016.271	-28.39
1016.47	-32.52
1016.668	-31.33
1016.867	-31.72
1017.065	-31.57
1017.264	-32.74
1017.463	-32.85
1017.661	-32.6
1017.86	-32.31
1018.058	-32.77
1018.256	-35.08
1018.455	-36.61
1018.653	-34.45
1018.852	-33.41
1019.05	-34.52
1019.248	-36.42
1019.447	-37.17
1019.645	-37.44
1019.843	-37.89
1020.041	-36.07
1020.24	-35.82
1020.438	-32.53
1020.636	-32.61
1020.834	-35.44
1021.032	-32.07
1021.23	-33.05
1021.428	-31.69
1021.626	-25.82
1021.824	-25.15
1022.022	-25.78
1022.22	-23.7
1022.418	-22.67
1022.616	-23.33
1022.814	-23.75
1023.012	-23.31
1023.21	-21.79
1023.408	-22.22
1023.606	-22.62
1023.803	-18.25
1024.001	-18.36
1024.199	-21.62
1024.397	-19.17
1024.594	-18.47
1024.792	-20.33
1024.99	-18.73
1025.187	-18.25
1025.385	-12.42
1025.582	-11.65
1025.78	-12.08
1025.977	-11.78
1026.175	-11.19
1026.372	-11.72
1026.57	-14.82
1026.767	-11.41
1026.965	-10.04
1027.162	-10.24
1027.359	-10.72
1027.557	-10.01
1027.754	-14.46
1027.951	-16
1028.148	-13.4
1028.346	-15.98
1028.543	-19.04
1028.74	-18.38
1028.937	-19.44
1029.134	-19.65
1029.331	-20.55
1029.528	-19.94
1029.725	-21.39
1029.923	-25.82
1030.12	-22.38
1030.317	-20.12
1030.513	-19.96
1030.71	-19.45
1030.907	-18.22
1031.104	-20.1
1031.301	-21.88
1031.498	-22.97
1031.695	-22.4
1031.892	-22.05
1032.088	-22.22
1032.285	-25.01
1032.482	-25.89
1032.678	-29.27
1032.875	-32.65
1033.072	-32.08
1033.268	-32.26
1033.465	-32.24
1033.662	-34.7
1033.858	-33.3
1034.055	-33.11
1034.251	-31.31
1034.448	-30.76
1034.644	-30.74
1034.84	-28.32
1035.037	-28.35
1035.233	-28.93
1035.43	-28.25
1035.626	-29.33
1035.822	-29.04
1036.019	-28.75
1036.215	-33.6
1036.411	-34.97
1036.607	-36.67
1036.803	-39.56
1037	-40.01
1037.196	-40.74
1037.392	-40.6
1037.588	-43.35
1037.784	-42.2
1037.98	-43.64
1038.176	-43.71
1038.372	-42.86
1038.568	-40.9
1038.764	-38.1
1038.96	-35.51
1039.156	-35.52
1039.352	-37.27
1039.547	-35.74
1039.743	-34.68
1039.939	-33.39
1040.135	-32.98
1040.331	-35.29
1040.526	-32.85
1040.722	-33.03
1040.918	-34.68
1041.113	-35.49
1041.309	-35.44
1041.505	-37.17
1041.7	-34.75
1041.896	-33.47
1042.091	-33.41
1042.287	-31.53
1042.482	-29.92
1042.678	-30.18
1042.873	-28.1
1043.069	-28.97
1043.264	-27.71
1043.459	-25.82
1043.655	-23.82
1043.85	-25.84
1044.045	-23.34
1044.24	-22.15
1044.436	-20.2
1044.631	-20.73
1044.826	-20.92
1045.021	-23.29
1045.216	-23.73
