Data from FLMT021711__10__17-54-56-417.txt Node

Date: Tue Nov 05 17:54:56 CET 2024
User: Etudiants TP
Spectrometer: FLMT02171
Trigger mode: 0
Integration Time (sec): 1,000000E-1
Scans to average: 5
Electric dark correction enabled: true
Nonlinearity correction enabled: false
Boxcar width: 15
XAxis mode: Wavelengths
Number of Pixels in Spectrum: 3648
>>>>>Begin Spectral Data<<<<<
194,658	-62,41
194,923	-60,82
195,188	-55,11
195,453	-55,55
195,717	-51,09
195,982	-49,67
196,247	-47,06
196,512	-48,83
196,777	-46,63
197,042	-44,64
197,307	-44,25
197,572	-40,36
197,837	-41,39
198,101	-39,46
198,366	-37,13
198,631	-35,3
198,896	-29,88
199,161	-22,8
199,425	-15,81
199,69	-6,11
199,955	-5,2
200,22	-8,26
200,484	-8,92
200,749	-10,41
201,014	-9,2
201,278	-9,46
201,543	-9,04
201,807	-10,04
202,072	-9,52
202,337	-9,98
202,601	-11,27
202,866	-12,29
203,13	-10,62
203,395	-11,28
203,659	-10,39
203,924	-11,24
204,189	-10,32
204,453	-9,4
204,717	-8,32
204,982	-7,21
205,246	-5,88
205,511	-3,9
205,775	-4,97
206,04	0,89
206,304	2,01
206,568	5,09
206,833	4,38
207,097	5,57
207,361	6,89
207,626	12,56
207,89	12,8
208,154	12,23
208,419	13,75
208,683	14,31
208,947	17,16
209,211	15,24
209,476	15,18
209,74	15,05
210,004	16,1
210,268	17,01
210,532	19,73
210,796	20,6
211,061	22,84
211,325	22,65
211,589	20,61
211,853	21,49
212,117	21,42
212,381	20,45
212,645	20,34
212,909	20,71
213,173	17,41
213,437	16,96
213,701	17,07
213,965	17,97
214,229	13,84
214,493	13,62
214,757	11,5
215,021	12,56
215,285	16,35
215,549	17,91
215,813	13,28
216,077	12,5
216,34	14,73
216,604	13,65
216,868	14,44
217,132	16,43
217,396	17,19
217,659	17,61
217,923	13,66
218,187	13,86
218,451	12,16
218,714	8,9
218,978	8,35
219,242	8,59
219,505	10,58
219,769	12,82
220,033	11,56
220,296	12,68
220,56	14,14
220,824	11,19
221,087	12,37
221,351	12,8
221,614	14,14
221,878	15,09
222,142	13,93
222,405	14,87
222,669	16,76
222,932	13,51
223,196	10,99
223,459	8,03
223,722	8,9
223,986	8,4
224,249	7,03
224,513	7,11
224,776	8,32
225,04	6,88
225,303	5,82
225,566	4,72
225,83	6,57
226,093	10
226,356	8,34
226,62	7,59
226,883	9,55
227,146	10,24
227,409	9,33
227,673	6,23
227,936	4,84
228,199	6,47
228,462	4,65
228,725	4,27
228,989	4,63
229,252	5,67
229,515	11,78
229,778	8,52
230,041	7,41
230,304	5,67
230,567	6,03
230,83	4,18
231,093	6,27
231,356	5,7
231,619	11,6
231,882	9,82
232,145	11,88
232,408	11,04
232,671	9,96
232,934	10,21
233,197	8,33
233,46	8,02
233,723	9,36
233,986	6,91
234,249	5,25
234,512	7,28
234,775	11,19
235,037	10,86
235,3	10,79
235,563	10,68
235,826	12,45
236,089	14,89
236,351	14,35
236,614	16,97
236,877	17,68
237,14	20,4
237,402	20,07
237,665	12,47
237,928	13,28
238,19	11,62
238,453	14,6
238,716	13,15
238,978	12,88
239,241	10,78
239,503	13,63
239,766	9,45
240,029	8,97
240,291	11,38
240,554	12,72
240,816	12,42
241,079	11,67
241,341	12,14
241,604	10,68
241,866	7,4
242,129	7,63
242,391	8,98
242,653	8,09
242,916	7,98
243,178	6,86
243,441	8,11
243,703	8,11
243,965	5,74
244,228	6,22
244,49	5,25
244,752	5,37
245,015	4,92
245,277	6,32
245,539	5,78
245,801	7,04
246,064	6,37
246,326	4,83
246,588	3,43
246,85	5,8
247,112	5,51
247,374	8,55
247,637	10,99
247,899	9,88
248,161	9,82
248,423	5,15
248,685	5,28
248,947	5,57
249,209	5,66
249,471	7,87
249,733	9,38
249,995	9,09
250,257	9,2
250,519	8,67
250,781	11,21
251,043	8,95
251,305	11,34
251,567	12,12
251,829	13,03
252,091	13,31
252,353	8,75
252,615	8,73
252,876	7,01
253,138	5,37
253,4	1,95
253,662	2,83
253,924	6,27
254,185	7,69
254,447	8,6
254,709	8,67
254,971	8,93
255,232	11,17
255,494	8,77
255,756	6,37
256,017	7,12
256,279	7,18
256,541	7,22
256,802	7,26
257,064	7,56
257,326	7,06
257,587	6,87
257,849	6,49
258,11	8,69
258,372	10,14
258,633	10,48
258,895	8,35
259,156	7,31
259,418	5,09
259,679	0,74
259,941	-1,83
260,202	0,34
260,464	2,33
260,725	3,07
260,987	2,52
261,248	3
261,509	2,87
261,771	1,27
262,032	2,22
262,293	1,19
262,555	1,69
262,816	1,3
263,077	0,43
263,338	-2,34
263,6	-2,56
263,861	-3,58
264,122	-4,42
264,383	-2,31
264,645	-1,36
264,906	-2,15
265,167	-1,63
265,428	-1,6
265,689	-0,52
265,95	-2,19
266,211	0,53
266,473	-0,6
266,734	-2,32
266,995	-4,04
267,256	-3,54
267,517	-0,49
267,778	3,93
268,039	7,05
268,3	4,85
268,561	2,41
268,822	5,26
269,083	2,67
269,344	1,01
269,604	1,47
269,865	1,63
270,126	-3,19
270,387	-2,19
270,648	-2,41
270,909	-3,96
271,17	-5,56
271,43	-7,33
271,691	-7,76
271,952	-8,3
272,213	-5,51
272,473	-8,5
272,734	-6,29
272,995	-4,28
273,256	-3,6
273,516	-1,2
273,777	-4,48
274,038	-2,38
274,298	-5,91
274,559	-5,3
274,82	-1,57
275,08	0,68
275,341	2,23
275,601	0,52
275,862	-1,73
276,122	-1,74
276,383	-1,1
276,643	0,86
276,904	-1,71
277,164	2,16
277,425	2,58
277,685	6,26
277,946	6,51
278,206	8,23
278,467	10
278,727	11,33
278,987	11,42
279,248	12,29
279,508	13,8
279,768	15,39
280,029	17,24
280,289	14,17
280,549	13,48
280,81	12,54
281,07	10,56
281,33	12,41
281,59	10,44
281,851	15,01
282,111	14,45
282,371	14,15
282,631	14,88
282,891	13,62
283,151	12,42
283,412	10,39
283,672	10,32
283,932	10,19
284,192	10,96
284,452	10,16
284,712	8,58
284,972	8,21
285,232	6,39
285,492	8,95
285,752	6,27
286,012	13,03
286,272	15,08
286,532	12,65
286,792	13,2
287,052	15,39
287,312	15,6
287,571	14,71
287,831	15,98
288,091	12,74
288,351	12,06
288,611	16,6
288,871	14,31
289,13	14,99
289,39	10,3
289,65	11,6
289,91	8,41
290,17	11,07
290,429	13,2
290,689	9,85
290,949	7,86
291,208	9,49
291,468	13,08
291,728	13,32
291,987	14,41
292,247	12,76
292,506	14,45
292,766	17,39
293,026	16,01
293,285	16,17
293,545	17,94
293,804	18,18
294,064	14,35
294,323	11,3
294,583	11,55
294,842	10,94
295,102	10,96
295,361	10,41
295,621	10,68
295,88	9,66
296,139	10,73
296,399	11,22
296,658	6,01
296,917	7,51
297,177	3,56
297,436	4,16
297,695	2,25
297,955	3,37
298,214	1,74
298,473	3
298,732	7,03
298,992	9,28
299,251	8,61
299,51	4,37
299,769	4,76
300,028	4,56
300,287	5,25
300,547	5,58
300,806	3,46
301,065	6,21
301,324	7,75
301,583	4,38
301,842	0,16
302,101	-2,99
302,36	-0,92
302,619	-0,63
302,878	-0,58
303,137	-3,77
303,396	-2,09
303,655	-1,1
303,914	-3,21
304,173	-3,24
304,432	-3,34
304,691	-0,25
304,95	-3,1
305,208	2,41
305,467	3,59
305,726	3,08
305,985	3,39
306,244	3,55
306,503	2
306,761	-1,03
307,02	-4,3
307,279	-3,9
307,537	-2,41
307,796	-4,7
308,055	-6,7
308,314	-6,79
308,572	-8,86
308,831	-7,87
309,09	-6,96
309,348	-5,02
309,607	-5,1
309,865	-0,64
310,124	0,5
310,382	1,18
310,641	2,19
310,9	0,93
311,158	3,65
311,417	2,08
311,675	3,22
311,933	2,84
312,192	4,15
312,45	3,84
312,709	4,1
312,967	5,34
313,226	4,84
313,484	4,13
313,742	3,25
314,001	2,18
314,259	-0,07
314,517	1,2
314,776	3,65
315,034	6,26
315,292	3,2
315,55	0,81
315,809	1,04
316,067	2,27
316,325	0,69
316,583	2,78
316,841	2,39
317,1	0,97
317,358	-2,43
317,616	-2,9
317,874	-3,45
318,132	-2,99
318,39	-3
318,648	-4,22
318,906	-4,45
319,164	-5,08
319,422	-6,32
319,68	-7,61
319,938	-6,55
320,196	-7
320,454	-5,18
320,712	-6,03
320,97	-4,94
321,228	-7,41
321,486	-6,26
321,744	-3,73
322,002	-1,07
322,26	-1,02
322,517	-0,59
322,775	-2,7
323,033	-4,2
323,291	-1,39
323,549	0,33
323,806	1,84
324,064	3,34
324,322	4,98
324,58	2,41
324,837	4,03
325,095	1,95
325,353	2,87
325,61	4,84
325,868	3,78
326,126	4,81
326,383	3,17
326,641	1,77
326,898	3,56
327,156	3,48
327,413	6,3
327,671	7,06
327,928	9,58
328,186	9,5
328,443	9,28
328,701	12,95
328,958	12,48
329,216	13,24
329,473	12,33
329,731	11,4
329,988	11,03
330,245	13,15
330,503	13,09
330,76	12,11
331,017	14,67
331,275	12,08
331,532	13,03
331,789	11,24
332,047	9,1
332,304	6,99
332,561	8,12
332,818	6,74
333,076	9,81
333,333	11,89
333,59	11,42
333,847	13,97
334,104	12,36
334,361	11,52
334,618	10,78
334,876	9,07
335,133	8,41
335,39	5,31
335,647	5,51
335,904	2,13
336,161	0,96
336,418	-0,08
336,675	-4,79
336,932	-3,07
337,189	-3,78
337,446	-3,53
337,703	-4,62
337,96	-8,85
338,216	-8,93
338,473	-10,86
338,73	-8,95
338,987	-8,95
339,244	-4,67
339,501	-6,31
339,757	-5,87
340,014	-5,03
340,271	-4,3
340,528	-2,69
340,785	1,1
341,041	-0,7
341,298	-3,77
341,555	-2,95
341,811	-4,71
342,068	-6,99
342,325	-6,21
342,581	-3,46
342,838	-3,13
343,094	-2,59
343,351	-2,09
343,608	-4,57
343,864	-2,16
344,121	-0,7
344,377	-0,64
344,634	-0,2
344,89	-1,82
345,147	-1,87
345,403	-2,56
345,66	-1,74
345,916	1,09
346,172	-0,64
346,429	-2,08
346,685	-4,03
346,942	-3,68
347,198	-7,83
347,454	-6,18
347,711	-5,22
347,967	-7,17
348,223	-7,06
348,48	-8,23
348,736	-5,73
348,992	-5,06
349,248	-2,89
349,504	-4,64
349,761	-4,88
350,017	-4,58
350,273	-5,78
350,529	-5,99
350,785	-4,8
351,041	-5,79
351,297	-4,06
351,554	-4,18
351,81	-5,71
352,066	-8,08
352,322	-8,03
352,578	-7,65
352,834	-8,69
353,09	-8,64
353,346	-7,87
353,602	-10,97
353,858	-12,06
354,114	-12,13
354,369	-9,32
354,625	-7,12
354,881	-9,93
355,137	-7,29
355,393	-8,3
355,649	-8,28
355,905	-7,82
356,16	-6,86
356,416	-5,85
356,672	-12,46
356,928	-11,54
357,183	-13,07
357,439	-13,2
357,695	-14
357,951	-9,47
358,206	-8,75
358,462	-10,59
358,718	-12,76
358,973	-11,29
359,229	-11,34
359,484	-11,38
359,74	-8,96
359,996	-7,26
360,251	-4,33
360,507	-5,25
360,762	-5,02
361,018	-3,47
361,273	-6,86
361,529	-4,31
361,784	-5,36
362,04	-4,06
362,295	-5,05
362,55	-4,68
362,806	-1,77
363,061	-2,04
363,316	-1,64
363,572	-1,11
363,827	0,52
364,082	-2,07
364,338	-3,86
364,593	-3,16
364,848	-4,25
365,104	-4,77
365,359	-1,67
365,614	-1,24
365,869	-3,93
366,124	-3,62
366,38	-3,6
366,635	-0,97
366,89	-0,59
367,145	-0,06
367,4	3,25
367,655	2,32
367,91	3,27
368,165	0,68
368,42	-1,32
368,675	0,18
368,93	1,37
369,185	-0,86
369,44	-0,68
369,695	3,51
369,95	2,48
370,205	2,21
370,46	-0,08
370,715	-0,35
370,97	1,84
371,225	1,58
371,48	3,13
371,734	2,51
371,989	2,99
372,244	3,25
372,499	3,71
372,754	3,11
373,008	0,44
373,263	-3,68
373,518	0
373,773	-1,44
374,027	-2,17
374,282	-0,4
374,537	-0,31
374,791	0,64
375,046	-2,24
375,301	-3,45
375,555	-4,7
375,81	-4,42
376,064	-3,5
376,319	-0,11
376,573	-2,33
376,828	-5,87
377,082	0,63
377,337	-0,64
377,591	-4,59
377,846	-3,55
378,1	-1,86
378,355	-0,26
378,609	-1,58
378,863	-5,69
379,118	-4,45
379,372	-5,95
379,627	-6,62
379,881	-6,64
380,135	-5,68
380,389	-5,06
380,644	-4,76
380,898	-3,26
381,152	-1,13
381,407	-3,86
381,661	-1,4
381,915	0,46
382,169	1,39
382,423	0,2
382,677	-2,31
382,932	-0,83
383,186	-0,49
383,44	0,2
383,694	2,46
383,948	0,58
384,202	-0,57
384,456	1,66
384,71	3,53
384,964	2,56
385,218	5,27
385,472	6,83
385,726	6,4
385,98	6,34
386,234	6,13
386,488	4,37
386,742	6,1
386,996	2,96
387,249	2,4
387,503	5,22
387,757	6,4
388,011	6,02
388,265	5,42
388,518	7,22
388,772	9,22
389,026	9,66
389,28	7,01
389,533	4,37
389,787	6,49
390,041	4,3
390,295	4,4
390,548	4,93
390,802	9,47
391,055	7,51
391,309	6,54
391,563	3,87
391,816	5,88
392,07	5,93
392,323	8,61
392,577	9,23
392,83	9,07
393,084	13,17
393,337	16,56
393,591	16,2
393,844	15,82
394,098	19,12
394,351	22,91
394,604	24,97
394,858	28,51
395,111	29,41
395,364	26,05
395,618	27,02
395,871	25,17
396,124	24,76
396,378	23,21
396,631	22,41
396,884	19,42
397,137	20,9
397,391	22,81
397,644	19,37
397,897	19,95
398,15	20,43
398,403	23,08
398,657	19,45
398,91	19,62
399,163	21,45
399,416	20,91
399,669	19,51
399,922	17,64
400,175	12,91
400,428	12,17
400,681	12,33
400,934	8,29
401,187	5,09
401,44	6,38
401,693	3,94
401,946	-0,67
402,199	-5,77
402,452	-7,67
402,704	-11,16
402,957	-11,87
403,21	-9,73
403,463	-11,31
403,716	-9,44
403,969	-7,97
404,221	-8,21
404,474	-6,79
404,727	-3,51
404,98	-1,89
405,232	-1,27
405,485	0,31
405,738	1,19
405,99	1,47
406,243	1,53
406,496	3,05
406,748	3,48
407,001	1,58
407,253	2,91
407,506	2,61
407,759	4,37
408,011	4,19
408,264	5,74
408,516	5,28
408,769	2,33
409,021	4,39
409,274	3,81
409,526	7,33
409,778	7,51
410,031	10,32
410,283	10,77
410,536	15,63
410,788	14,01
411,04	12,86
411,293	15,05
411,545	14,32
411,797	12,94
412,049	12,89
412,302	13,46
412,554	14
412,806	12,03
413,058	8,79
413,311	9,19
413,563	8,36
413,815	8,03
414,067	5,78
414,319	4,44
414,571	5,33
414,823	3,76
415,075	3,37
415,328	3,48
415,58	5,53
415,832	6,45
416,084	4,72
416,336	3,58
416,588	7,68
416,84	6,19
417,091	8,62
417,343	4,88
417,595	6,6
417,847	7,24
418,099	6,96
418,351	6,02
418,603	8,99
418,855	9,9
419,106	8,89
419,358	10,92
419,61	11,78
419,862	13,14
420,114	11,21
420,365	10,51
420,617	10,88
420,869	10,38
421,12	9,54
421,372	11,34
421,624	10,74
421,875	11,78
422,127	9,24
422,379	9,16
422,63	11,81
422,882	9,41
423,133	11,27
423,385	11,13
423,636	12,29
423,888	14,77
424,139	17,1
424,391	15,46
424,642	13,58
424,894	12,2
425,145	12,17
425,396	11,28
425,648	14,01
425,899	12,99
426,151	12,62
426,402	12,2
426,653	12,72
426,905	12,97
427,156	10
427,407	9,89
427,658	9,65
427,91	9,92
428,161	9,52
428,412	11,87
428,663	13,71
428,914	14,46
429,166	15,36
429,417	16,03
429,668	13,79
429,919	12,72
430,17	12,07
430,421	12,39
430,672	16,02
430,923	14,02
431,174	12,08
431,425	12,33
431,676	11,7
431,927	9,3
432,178	9,93
432,429	10,22
432,68	9,55
432,931	12,94
433,182	14,09
433,433	10,92
433,683	12,8
433,934	11,81
434,185	9,56
434,436	8,38
434,687	9,56
434,937	11,8
435,188	10,35
435,439	8,76
435,69	7,92
435,94	7,67
436,191	8,1
436,442	8,69
436,692	8,02
436,943	4,68
437,194	3,07
437,444	6,49
437,695	9,75
437,945	10,69
438,196	8,44
438,447	7,4
438,697	8,08
438,948	8,38
439,198	5,69
439,449	1,14
439,699	1,27
439,949	1,27
440,2	0,28
440,45	0,27
440,701	-2,31
440,951	-2,18
441,201	-0,89
441,452	-2,23
441,702	-1,52
441,952	0,7
442,203	1,48
442,453	-0,14
442,703	-0,26
442,953	0,42
443,204	0,7
443,454	-0,7
443,704	-0,41
443,954	-3,26
444,204	-4,45
444,455	-3,88
444,705	-2,43
444,955	-1,12
445,205	-3,59
445,455	-6,03
445,705	-6,43
445,955	-6,11
446,205	-7,4
446,455	-6,7
446,705	-6,39
446,955	-5,85
447,205	-3,99
447,455	-1,35
447,705	-3,28
447,955	-4,14
448,205	-3,45
448,454	-4,14
448,704	-2,42
448,954	-4,81
449,204	-3,81
449,454	-4,53
449,704	-6,96
449,953	-7,93
450,203	-7,66
450,453	-9,75
450,703	-7,72
450,952	-7,9
451,202	-5,76
451,452	-7,09
451,701	-4,45
451,951	-0,38
452,201	0,37
452,45	0,31
452,7	1,12
452,949	2,53
453,199	2,98
453,448	4,97
453,698	7,51
453,947	7,72
454,197	6,4
454,446	4,98
454,696	8,07
454,945	9,66
455,195	7,76
455,444	7,49
455,693	11,98
455,943	10,28
456,192	12,3
456,442	11,19
456,691	12,5
456,94	10,83
457,189	9,61
457,439	12
457,688	14,44
457,937	14,69
458,186	14,9
458,436	14,74
458,685	16,13
458,934	15,3
459,183	16,47
459,432	18,5
459,681	19,2
459,93	18,58
460,179	16,98
460,429	15,21
460,678	17,61
460,927	20,22
461,176	18,79
461,425	17,75
461,674	19,81
461,923	20,43
462,172	20,86
462,42	19,39
462,669	20,84
462,918	20,12
463,167	21,46
463,416	19,2
463,665	20,09
463,914	21,19
464,162	20,07
464,411	19,95
464,66	22,01
464,909	21,44
465,158	22,14
465,406	22,18
465,655	23,6
465,904	25,79
466,152	25,28
466,401	25,66
466,65	27,26
466,898	25,92
467,147	21,09
467,395	20,63
467,644	21,49
467,893	22,01
468,141	22,74
468,39	18,51
468,638	17,3
468,887	14,81
469,135	14,08
469,384	14,32
469,632	15,47
469,88	15,44
470,129	17,7
470,377	14,11
470,626	17,4
470,874	18,7
471,122	18,95
471,371	18,13
471,619	16,04
471,867	18,65
472,115	19,01
472,364	17,39
472,612	21,2
472,86	19,75
473,108	20,05
473,356	19,65
473,605	20,4
473,853	17,77
474,101	17,54
474,349	16,78
474,597	20,23
474,845	19,38
475,093	17,22
475,341	13,32
475,589	12,76
475,837	13,33
476,085	16,55
476,333	13,57
476,581	16,75
476,829	16,29
477,077	17,87
477,325	17,23
477,573	18,37
477,821	15,94
478,069	17,65
478,317	16,56
478,564	19,04
478,812	17,32
479,06	16,62
479,308	16,89
479,555	16,55
479,803	14,82
480,051	15,96
480,299	14,49
480,546	13,59
480,794	11,51
481,042	12,07
481,289	11,04
481,537	13,01
481,784	11,1
482,032	12,72
482,28	12,34
482,527	12,65
482,775	13,34
483,022	17,11
483,27	19,23
483,517	21,4
483,765	20,61
484,012	22,06
484,259	21,3
484,507	24,34
484,754	24,21
485,002	23,56
485,249	22,01
485,496	24,19
485,744	23,67
485,991	23,79
486,238	20,73
486,486	24,21
486,733	25,99
486,98	29,43
487,227	27,61
487,474	30,19
487,722	32,17
487,969	30,06
488,216	30,74
488,463	30,11
488,71	28,74
488,957	27,99
489,204	27,13
489,451	28,6
489,699	29,28
489,946	26,4
490,193	25,68
490,44	25,2
490,687	23,9
490,934	22,4
491,18	20
491,427	20,41
491,674	23,49
491,921	23,01
492,168	21,9
492,415	19,04
492,662	20,09
492,909	22,73
493,155	22,4
493,402	20,42
493,649	19,27
493,896	20,57
494,142	17,87
494,389	17,34
494,636	15,06
494,883	12,97
495,129	11,83
495,376	10,33
495,623	12,79
495,869	15,08
496,116	16,08
496,362	18,24
496,609	21,69
496,855	27,27
497,102	26,61
497,348	25,71
497,595	26,39
497,841	30,92
498,088	29,67
498,334	30,13
498,581	28,18
498,827	27,71
499,074	29,62
499,32	31,09
499,566	34,94
499,813	33,97
500,059	33,37
500,305	33,66
500,552	33,37
500,798	32,88
501,044	38,27
501,29	37,28
501,537	35,35
501,783	37,25
502,029	40,84
502,275	38,07
502,521	38,58
502,767	40,02
503,013	43,24
503,26	40,4
503,506	36,95
503,752	38,39
503,998	34,83
504,244	34,29
504,49	30,94
504,736	33,55
504,982	32,91
505,228	34,51
505,474	35,7
505,72	37,51
505,966	37,73
506,211	41,38
506,457	42,39
506,703	39,42
506,949	38,2
507,195	35,53
507,441	35,45
507,686	37,42
507,932	38,04
508,178	39,79
508,424	39,05
508,669	36,38
508,915	37,3
509,161	39,61
509,406	41,08
509,652	39,68
509,898	42,97
510,143	43,64
510,389	42,86
510,634	38,53
510,88	43,18
511,125	46,21
511,371	47,1
511,616	50,78
511,862	48,52
512,107	47,15
512,353	48,75
512,598	48,75
512,844	48,5
513,089	47,19
513,335	48,76
513,58	48,97
513,825	51,68
514,071	50,77
514,316	50,17
514,561	50,44
514,806	50,98
515,052	52,5
515,297	52,62
515,542	54,22
515,787	55,97
516,033	57,53
516,278	58,42
516,523	59,04
516,768	59,11
517,013	55,94
517,258	55,85
517,503	57,3
517,748	59,66
517,993	61,13
518,238	62,25
518,483	61,44
518,728	61,13
518,973	60,57
519,218	61,18
519,463	61,74
519,708	63,54
519,953	63,29
520,198	66,2
520,443	68,63
520,688	71,25
520,933	71,44
521,177	71,86
521,422	69,61
521,667	74,51
521,912	76,75
522,157	74,05
522,401	77,13
522,646	77,5
522,891	78,27
523,135	79,66
523,38	78,83
523,625	78,41
523,869	82,02
524,114	83,48
524,358	82,38
524,603	84,19
524,848	82,93
525,092	80,52
525,337	81,16
525,581	81,76
525,826	84,65
526,07	86,32
526,315	88,04
526,559	87,9
526,803	85,91
527,048	90,57
527,292	90,51
527,537	89,55
527,781	88,95
528,025	86,5
528,269	90,03
528,514	89,93
528,758	89,62
529,002	89,32
529,247	91,4
529,491	90,05
529,735	95,66
529,979	94,81
530,223	96,47
530,467	95,24
530,712	94
530,956	94,97
531,2	96,86
531,444	94,07
531,688	95,75
531,932	96,91
532,176	98,59
532,42	100,77
532,664	103,58
532,908	103,32
533,152	102,68
533,396	101,95
533,64	100,22
533,884	98,64
534,128	98,37
534,371	99,56
534,615	100,65
534,859	99,48
535,103	98,49
535,347	97,15
535,59	98,58
535,834	92,7
536,078	94,38
536,322	96,04
536,565	98,88
536,809	96,22
537,053	98,74
537,296	95,9
537,54	95,86
537,784	95,05
538,027	96,17
538,271	94
538,514	90,57
538,758	90,67
539,001	88,86
539,245	88,42
539,488	88,87
539,732	89,44
539,975	89,36
540,219	92,05
540,462	91,42
540,706	92,98
540,949	92,11
541,192	92,6
541,436	98,12
541,679	102,84
541,922	103,8
542,166	98,34
542,409	98,22
542,652	98,88
542,895	100,92
543,139	102,01
543,382	105,13
543,625	104,59
543,868	103,57
544,111	101,06
544,354	100,56
544,598	99,32
544,841	100,62
545,084	99,65
545,327	98,17
545,57	98,76
545,813	100,53
546,056	101,97
546,299	101,91
546,542	104,68
546,785	105,81
547,028	106,11
547,271	104,84
547,514	103,64
547,756	100,02
547,999	100,03
548,242	100,54
548,485	99,71
548,728	100,1
548,971	95,36
549,213	94,57
549,456	92,69
549,699	94,02
549,942	94,66
550,184	94,33
550,427	94,03
550,67	93,76
550,912	89,07
551,155	89,41
551,398	89,44
551,64	90,18
551,883	89,33
552,125	87,55
552,368	87,56
552,61	85,33
552,853	87,87
553,095	87,21
553,338	86,86
553,58	87,08
553,823	84,01
554,065	86,19
554,308	83,02
554,55	80,59
554,792	79,19
555,035	79,45
555,277	79,34
555,519	80,52
555,762	78,49
556,004	78,47
556,246	75,25
556,488	75,3
556,731	72,8
556,973	75,38
557,215	75,5
557,457	76,32
557,699	78,65
557,941	75,59
558,183	75,15
558,426	79,01
558,668	74,21
558,91	75,33
559,152	75,98
559,394	75,09
559,636	76,71
559,878	76,96
560,12	77,15
560,362	78,52
560,604	79,08
560,845	78,32
561,087	76,52
561,329	79,53
561,571	77,5
561,813	77,57
562,055	77,36
562,297	78,99
562,538	79,79
562,78	83,1
563,022	80,86
563,264	81,03
563,505	81,93
563,747	82,48
563,989	80,97
564,23	80,67
564,472	78,11
564,714	79,79
564,955	80,6
565,197	77,24
565,438	79,92
565,68	82,23
565,921	80,03
566,163	83,26
566,404	81,84
566,646	83,02
566,887	84,52
567,129	86,29
567,37	85,06
567,612	87,45
567,853	84,45
568,094	85,24
568,336	85,11
568,577	87,73
568,818	87,84
569,06	84,89
569,301	83,57
569,542	83,9
569,783	85,6
570,025	84,99
570,266	84,31
570,507	85,71
570,748	85,36
570,989	85,83
571,23	89,07
571,472	89,39
571,713	88,58
571,954	89,82
572,195	87,86
572,436	89,2
572,677	91,8
572,918	92,29
573,159	89,73
573,4	87,73
573,641	86,5
573,882	87,51
574,123	84,29
574,364	81,41
574,604	81,37
574,845	79,66
575,086	78,56
575,327	78,86
575,568	77,31
575,809	76,27
576,049	74,56
576,29	72,3
576,531	78,4
576,771	82,52
577,012	83,74
577,253	83,81
577,494	83,93
577,734	83,69
577,975	85,21
578,215	84,99
578,456	82,86
578,697	82,55
578,937	84,34
579,178	82,45
579,418	80,31
579,659	79,25
579,899	75,6
580,14	74,35
580,38	73,61
580,62	73,84
580,861	76,78
581,101	76,96
581,342	76,62
581,582	74,01
581,822	76,39
582,063	74,39
582,303	75,09
582,543	75,15
582,783	76,7
583,024	79,47
583,264	83,77
583,504	80,99
583,744	82,87
583,984	78,44
584,224	77,66
584,465	75,9
584,705	75,74
584,945	74,36
585,185	73,4
585,425	72,45
585,665	72,34
585,905	71,14
586,145	69,53
586,385	68,02
586,625	70,94
586,865	71,31
587,105	71,33
587,345	71,31
587,585	72,19
587,824	71,08
588,064	70,13
588,304	69,1
588,544	69,67
588,784	66,31
589,024	68,79
589,263	67,11
589,503	66,01
589,743	67,55
589,982	67,04
590,222	65,62
590,462	61,74
590,701	58,8
590,941	62,23
591,181	60,5
591,42	58,54
591,66	60,51
591,899	64,65
592,139	62,93
592,378	63,84
592,618	61,95
592,857	61,27
593,097	61,5
593,336	61,99
593,576	61,27
593,815	60,69
594,055	60,07
594,294	61,22
594,533	60,61
594,773	60,09
595,012	60,22
595,251	61,89
595,491	64,45
595,73	65,79
595,969	64,67
596,208	66,23
596,447	70,62
596,687	72,49
596,926	73,23
597,165	69,84
597,404	70,94
597,643	69,13
597,882	68,35
598,121	68,67
598,36	68,88
598,599	71,05
598,838	72,57
599,077	68,09
599,316	67,48
599,555	67,09
599,794	68,21
600,033	69,88
600,272	70,09
600,511	68,37
600,75	70,59
600,989	72,49
601,228	73,05
601,466	72,86
601,705	72,81
601,944	73,28
602,183	75,17
602,422	74,57
602,66	71,86
602,899	71,37
603,138	71,37
603,376	71,29
603,615	71,57
603,854	68,06
604,092	66,22
604,331	68,77
604,569	70,19
604,808	69,4
605,047	71,99
605,285	72,93
605,524	72,49
605,762	70,06
606	70,7
606,239	71,01
606,477	71,68
606,716	67,65
606,954	66,82
607,193	64,73
607,431	61,35
607,669	60,28
607,908	59,85
608,146	60,6
608,384	59,8
608,622	59,31
608,861	59,45
609,099	58,98
609,337	58,74
609,575	58,43
609,813	59,64
610,052	60,45
610,29	55,23
610,528	52,05
610,766	52,06
611,004	51,88
611,242	50,5
611,48	51,11
611,718	47,55
611,956	48,67
612,194	47,77
612,432	46,91
612,67	46,83
612,908	48,56
613,146	47,37
613,384	45,12
613,621	44,41
613,859	44,22
614,097	45,08
614,335	45,01
614,573	45,33
614,811	46,93
615,048	45,62
615,286	45,56
615,524	45,16
615,761	41,92
615,999	42,29
616,237	41,66
616,474	42,82
616,712	44,15
616,95	42,47
617,187	40,65
617,425	40,86
617,662	42,89
617,9	42,69
618,137	40,14
618,375	38,84
618,612	37,58
618,85	38,48
619,087	40
619,325	38,47
619,562	35,9
619,799	34,31
620,037	31,88
620,274	29,96
620,511	31,8
620,749	29,86
620,986	27,87
621,223	25,72
621,461	25,13
621,698	26,88
621,935	25,25
622,172	23,47
622,409	26,7
622,647	27,05
622,884	24,59
623,121	26,27
623,358	24,97
623,595	23,47
623,832	23,35
624,069	21,87
624,306	22,74
624,543	23,98
624,78	24,98
625,017	24,5
625,254	27,09
625,491	29,56
625,728	31,67
625,965	32,71
626,202	32,19
626,438	31,79
626,675	31,66
626,912	33,95
627,149	35
627,386	35,27
627,622	33,49
627,859	33,32
628,096	33,95
628,333	35,96
628,569	37,25
628,806	38,55
629,043	37,81
629,279	39,87
629,516	41,68
629,752	37,53
629,989	38,1
630,225	36,74
630,462	37,51
630,699	37,46
630,935	38,83
631,171	35,95
631,408	35,37
631,644	33,8
631,881	31,01
632,117	29,17
632,354	31,06
632,59	30,18
632,826	30,02
633,063	29,51
633,299	29,15
633,535	27,22
633,771	26,33
634,008	28,31
634,244	27,81
634,48	25,25
634,716	27,32
634,953	26,44
635,189	24,97
635,425	26,62
635,661	27,95
635,897	27,11
636,133	25,83
636,369	24,12
636,605	20,9
636,841	20,08
637,077	21,61
637,313	21,2
637,549	22,33
637,785	19,87
638,021	20,08
638,257	18,86
638,493	21,17
638,729	19,63
638,965	23,75
639,2	26,2
639,436	24,78
639,672	23,45
639,908	21,35
640,144	24,45
640,379	27,05
640,615	26,68
640,851	28
641,086	28,57
641,322	26,86
641,558	27,09
641,793	28,86
642,029	26,41
642,264	26,63
642,5	28,8
642,736	25,15
642,971	25,48
643,207	23,16
643,442	21,46
643,678	22,21
643,913	22,67
644,148	21,95
644,384	24,2
644,619	23,59
644,855	23,96
645,09	24,93
645,325	25,38
645,561	25,28
645,796	22,53
646,031	26,43
646,266	23,78
646,502	22,33
646,737	24,16
646,972	24,17
647,207	23,4
647,442	20,68
647,678	16,99
647,913	18,88
648,148	20,32
648,383	18,85
648,618	18,6
648,853	18,59
649,088	20,47
649,323	23,02
649,558	25,75
649,793	24,81
650,028	25,1
650,263	21,45
650,498	24,89
650,733	25,59
650,968	24,21
651,202	26,62
651,437	25,34
651,672	20,63
651,907	19,52
652,142	20,09
652,376	21,04
652,611	21,24
652,846	23,44
653,081	24,5
653,315	22,99
653,55	22,9
653,785	22,07
654,019	23,61
654,254	22,41
654,488	23,82
654,723	19,72
654,958	18,56
655,192	16,69
655,427	13,35
655,661	15,69
655,896	18,76
656,13	22,97
656,364	20,02
656,599	16,47
656,833	22,8
657,068	25,32
657,302	26,59
657,536	25,56
657,771	26,25
658,005	26,77
658,239	28,32
658,474	25,85
658,708	26,84
658,942	28,96
659,176	29,43
659,41	26,8
659,645	27,18
659,879	26,93
660,113	23,86
660,347	22,11
660,581	18,43
660,815	17,46
661,049	16,21
661,283	13,1
661,517	11,88
661,751	9,98
661,985	11,08
662,219	12,41
662,453	10,57
662,687	11,74
662,921	9,21
663,155	8,08
663,389	0,5
663,622	-0,19
663,856	2,72
664,09	-6,44
664,324	-8,4
664,558	-8,9
664,791	-9,44
665,025	-9,9
665,259	-9,37
665,492	-10,25
665,726	-6,51
665,96	-5,43
666,193	-7,82
666,427	-7,73
666,661	-7,82
666,894	-10,6
667,128	-10,96
667,361	-9,49
667,595	-8,58
667,828	-6,44
668,062	-6,1
668,295	-4,84
668,529	-3,98
668,762	-3,43
668,995	-2,56
669,229	0,87
669,462	0,94
669,695	2,43
669,929	0,26
670,162	0,08
670,395	-1,84
670,629	-0,91
670,862	0,66
671,095	-2,76
671,328	-1,32
671,561	-3,76
671,795	-2,07
672,028	-0,57
672,261	0,36
672,494	0,63
672,727	-1,12
672,96	-1,99
673,193	-3,71
673,426	0,81
673,659	1,26
673,892	2,87
674,125	4,01
674,358	3,52
674,591	1,56
674,824	-0,83
675,057	-1,81
675,29	-3,8
675,523	-3,03
675,755	-4,38
675,988	-3,16
676,221	-0,58
676,454	-1,73
676,687	-0,48
676,919	-0,85
677,152	0,46
677,385	0,77
677,617	1,14
677,85	3,77
678,083	2,19
678,315	5,43
678,548	3,56
678,78	2,75
679,013	1,54
679,246	2,19
679,478	2,53
679,711	0,09
679,943	2
680,175	-0,31
680,408	4,44
680,64	0,31
680,873	-0,33
681,105	-0,6
681,338	2,57
681,57	1,86
681,802	3,16
682,034	4,41
682,267	6,43
682,499	8,73
682,731	6,7
682,964	6,86
683,196	5,23
683,428	2
683,66	-0,18
683,892	2,86
684,124	6,13
684,356	9,47
684,589	10,44
684,821	8,78
685,053	7,8
685,285	8,52
685,517	9,71
685,749	10,54
685,981	11,95
686,213	11,78
686,445	12,08
686,676	9,09
686,908	11,29
687,14	9,15
687,372	9,05
687,604	4,45
687,836	6,92
688,068	9,03
688,299	8,46
688,531	5,96
688,763	10,43
688,995	9,65
689,226	13,57
689,458	12,07
689,69	10,32
689,921	8,78
690,153	9,07
690,384	9,55
690,616	9,48
690,848	10,92
691,079	7,16
691,311	4,4
691,542	1,18
691,774	-0,76
692,005	2,84
692,237	5,42
692,468	4,06
692,699	3,45
692,931	2,95
693,162	1,4
693,393	1,21
693,625	-0,69
693,856	0,59
694,087	0,78
694,319	2,99
694,55	2,66
694,781	1,5
695,012	-0,44
695,243	-3,54
695,475	-4,12
695,706	-4,16
695,937	-5,76
696,168	-6,73
696,399	-9,61
696,63	-10,53
696,861	-9,75
697,092	-4,62
697,323	-1,64
697,554	-0,84
697,785	0,27
698,016	0,75
698,247	-0,69
698,478	0,34
698,709	1,45
698,94	4,28
699,171	3,03
699,401	-0,53
699,632	1,64
699,863	-2,04
700,094	-1,1
700,325	2,51
700,555	3,29
700,786	4,7
701,017	5,07
701,247	3,81
701,478	4,58
701,709	5,75
701,939	5,74
702,17	8,25
702,401	10,27
702,631	10,21
702,862	8,15
703,092	5,51
703,323	8,95
703,553	10,05
703,784	10,95
704,014	9,99
704,244	5,95
704,475	4,79
704,705	5,94
704,936	5,36
705,166	5,14
705,396	6,01
705,627	5,53
705,857	5,73
706,087	4,68
706,317	1,88
706,548	0,14
706,778	-1,09
707,008	1
707,238	1,4
707,468	-1,15
707,698	-3,22
707,928	-3,11
708,158	-4,83
708,389	-5,17
708,619	-7,76
708,849	-9,83
709,079	-8,78
709,309	-10,88
709,539	-11,91
709,768	-10,14
709,998	-6,56
710,228	-5,44
710,458	-7,6
710,688	-9,81
710,918	-9,21
711,148	-9,27
711,378	-7,07
711,607	-9,66
711,837	-10,23
712,067	-9,39
712,297	-9,62
712,526	-9,32
712,756	-7,89
712,986	-11,8
713,215	-13,91
713,445	-13,33
713,674	-10,42
713,904	-9,96
714,134	-8,11
714,363	-9,59
714,593	-11,56
714,822	-10,64
715,052	-11,74
715,281	-11,38
715,511	-12,72
715,74	-10,81
715,969	-11,51
716,199	-12,14
716,428	-11,18
716,657	-10,39
716,887	-8,59
717,116	-12,1
717,345	-10,77
717,575	-11,16
717,804	-9,74
718,033	-11,3
718,262	-11,12
718,492	-13,11
718,721	-10,79
718,95	-12,1
719,179	-14,02
719,408	-13,34
719,637	-15,41
719,866	-17,57
720,095	-14,3
720,324	-15,41
720,553	-17,45
720,782	-19,11
721,011	-19,27
721,24	-21,26
721,469	-21,08
721,698	-19,97
721,927	-20,34
722,156	-21,49
722,385	-21,38
722,613	-17,48
722,842	-18,28
723,071	-14,18
723,3	-12,37
723,529	-14,19
723,757	-14,49
723,986	-17,58
724,215	-16,79
724,443	-16,82
724,672	-14,24
724,901	-14,48
725,129	-13,36
725,358	-10,86
725,586	-12,34
725,815	-13,09
726,043	-13,36
726,272	-14,72
726,5	-15,03
726,729	-14,46
726,957	-16,87
727,186	-18,67
727,414	-15,96
727,642	-14,7
727,871	-13,52
728,099	-13,68
728,327	-14,1
728,556	-11,99
728,784	-11,02
729,012	-12,53
729,241	-10,57
729,469	-10,95
729,697	-13,29
729,925	-12,65
730,153	-14,21
730,381	-15,22
730,61	-15,2
730,838	-18,37
731,066	-17,05
731,294	-16,79
731,522	-20,26
731,75	-24
731,978	-23,81
732,206	-23,81
732,434	-24,77
732,662	-22,83
732,89	-24,5
733,118	-25,41
733,346	-24,84
733,573	-23,84
733,801	-22,87
734,029	-16,69
734,257	-14,87
734,485	-12,04
734,712	-9,91
734,94	-11,56
735,168	-8,06
735,396	-8,15
735,623	-9,88
735,851	-8,08
736,078	-5,7
736,306	-3,72
736,534	-4,24
736,761	-3,6
736,989	-5,73
737,216	-6,46
737,444	-8,12
737,671	-6,25
737,899	-0,62
738,126	-2,05
738,354	-3,07
738,581	-1,74
738,809	-0,62
739,036	-2,08
739,263	-2,79
739,491	-5,53
739,718	-6,19
739,945	-1,18
740,173	2,04
740,4	2,81
740,627	-0,69
740,854	-0,97
741,081	-3,91
741,309	-5,41
741,536	-9,18
741,763	-10,5
741,99	-9,2
742,217	-10,5
742,444	-10,61
742,671	-9,37
742,898	-9,46
743,125	-11,28
743,352	-14,92
743,579	-14,72
743,806	-15,79
744,033	-12,66
744,26	-11,03
744,487	-10,93
744,714	-11,19
744,941	-11,57
745,167	-8,11
745,394	-8,93
745,621	-9,18
745,848	-8,71
746,075	-7,78
746,301	-4,02
746,528	0,85
746,755	-0,32
746,981	-2,41
747,208	-1,62
747,435	0,29
747,661	1,66
747,888	2,65
748,114	2,25
748,341	3,36
748,567	3,93
748,794	2,16
749,02	1,18
749,247	0,36
749,473	1,31
749,7	0,29
749,926	-0,86
750,152	1,48
750,379	1,54
750,605	1,72
750,831	1,01
751,058	-0,53
751,284	-2,56
751,51	0,51
751,737	2,56
751,963	0,07
752,189	-1,18
752,415	-1,06
752,641	-1,99
752,867	-1,8
753,094	-3,09
753,32	-3,76
753,546	-5,67
753,772	-3,17
753,998	-3,77
754,224	-4,76
754,45	-5,56
754,676	-6,11
754,902	-7,35
755,128	-8,45
755,354	-8,96
755,579	-6,72
755,805	-4,32
756,031	-4,81
756,257	-7,35
756,483	-9,46
756,709	-10,38
756,934	-9,89
757,16	-11,24
757,386	-10,41
757,612	-11,72
757,837	-12,3
758,063	-9,67
758,289	-6,72
758,514	-8,24
758,74	-12,66
758,965	-15,87
759,191	-15,34
759,416	-13,7
759,642	-10,83
759,868	-10,83
760,093	-8,26
760,318	-11,02
760,544	-11,68
760,769	-11,82
760,995	-13,7
761,22	-14,19
761,445	-12,2
761,671	-10,57
761,896	-7,99
762,121	-7,84
762,347	-7,95
762,572	-10,54
762,797	-11,9
763,022	-11,55
763,248	-7,08
763,473	-5,58
763,698	-5,11
763,923	-5,28
764,148	-5,7
764,373	-6,29
764,598	-4,19
764,823	-2,34
765,048	-5,58
765,273	-8,68
765,498	-10,06
765,723	-8,36
765,948	-6,66
766,173	-7,11
766,398	-7
766,623	-10,78
766,848	-11,77
767,073	-13,23
767,298	-12,05
767,522	-12,42
767,747	-12,82
767,972	-11,95
768,197	-11,59
768,421	-14,18
768,646	-16,1
768,871	-19,04
769,095	-18,86
769,32	-17,49
769,545	-18,09
769,769	-15,26
769,994	-14,54
770,218	-17,3
770,443	-16,11
770,667	-15,77
770,892	-15,82
771,116	-16,35
771,341	-14,21
771,565	-15,43
771,79	-15,23
772,014	-16,22
772,238	-17,63
772,463	-15,55
772,687	-14,82
772,911	-13,97
773,136	-16,16
773,36	-14,87
773,584	-11,24
773,808	-13,02
774,033	-14,21
774,257	-14,4
774,481	-14,89
774,705	-15,68
774,929	-15,06
775,153	-14,82
775,377	-13,88
775,602	-13,61
775,826	-11,91
776,05	-10,65
776,274	-12,45
776,498	-11,99
776,722	-13,52
776,945	-12,45
777,169	-12,54
777,393	-14,14
777,617	-14,48
777,841	-13,41
778,065	-11,77
778,289	-12,94
778,512	-12,94
778,736	-13,57
778,96	-12,63
779,184	-10,3
779,407	-11,69
779,631	-11,99
779,855	-13,69
780,078	-13,28
780,302	-16,19
780,526	-18,92
780,749	-18,45
780,973	-16,65
781,196	-16,58
781,42	-19,09
781,643	-18,17
781,867	-17,45
782,09	-19,96
782,314	-19,27
782,537	-20,77
782,76	-23,07
782,984	-21,95
783,207	-22,31
783,431	-21,76
783,654	-21,71
783,877	-22,43
784,1	-23,71
784,324	-23,44
784,547	-23,62
784,77	-27,72
784,993	-28,32
785,216	-29,43
785,44	-29,78
785,663	-30,36
785,886	-28,98
786,109	-29,29
786,332	-28,47
786,555	-27,43
786,778	-26,49
787,001	-25,06
787,224	-22,59
787,447	-21,5
787,67	-18,52
787,893	-18,25
788,116	-16,9
788,339	-13,62
788,561	-14,56
788,784	-18,13
789,007	-19,65
789,23	-21,92
789,453	-21,23
789,675	-20,59
789,898	-21,69
790,121	-22,14
790,344	-22,79
790,566	-23,67
790,789	-23,85
791,012	-22,5
791,234	-21,19
791,457	-18,09
791,679	-16,47
791,902	-16,91
792,124	-16,26
792,347	-17,44
792,569	-17,11
792,792	-19,89
793,014	-16,97
793,237	-16,01
793,459	-16,22
793,681	-14,91
793,904	-16,62
794,126	-17,24
794,348	-18,51
794,571	-18,93
794,793	-19,82
795,015	-20,58
795,237	-22,06
795,46	-20,83
795,682	-21,33
795,904	-17,28
796,126	-19,4
796,348	-19,47
796,57	-17,89
796,792	-17,4
797,014	-13,96
797,237	-11,85
797,459	-10,06
797,681	-8,9
797,903	-9,79
798,124	-9,36
798,346	0,45
798,568	1,06
798,79	4,82
799,012	6,47
799,234	9,26
799,456	10,61
799,678	13,22
799,899	9,58
800,121	7,5
800,343	6,23
800,565	6,7
800,786	7,71
801,008	8,35
801,23	9,87
801,451	10,91
801,673	10,62
801,895	10,01
802,116	11,59
802,338	13,25
802,559	14,52
802,781	11,29
803,002	15,93
803,224	18,97
803,445	17,3
803,667	17,82
803,888	17,06
804,109	16,07
804,331	14,73
804,552	13,46
804,773	13,63
804,995	11,42
805,216	-1,8
805,437	-3,32
805,658	-7,6
805,88	-8,95
806,101	-9,64
806,322	-9,36
806,543	-10,04
806,764	-12,57
806,985	-10,7
807,207	-9,23
807,428	-8,78
807,649	-12,51
807,87	-14,06
808,091	-14,12
808,312	-15,17
808,533	-11,55
808,754	-10,28
808,975	-12,03
809,195	-11,39
809,416	-11,61
809,637	-11,33
809,858	-13,81
810,079	-15,83
810,3	-13,94
810,52	-14,04
810,741	-17,4
810,962	-17,82
811,183	-17,1
811,403	-16,25
811,624	-15,96
811,845	-13,97
812,065	-11,94
812,286	-10,01
812,506	-10,02
812,727	-9,24
812,948	-8,46
813,168	-7,32
813,389	-8,12
813,609	-5,06
813,83	-6,88
814,05	-8,21
814,27	-8,43
814,491	-3,44
814,711	-4,98
814,931	-7,12
815,152	-6,17
815,372	-7,72
815,592	-7,75
815,813	-8,18
816,033	-9,66
816,253	-7,76
816,473	-7,97
816,694	-6,88
816,914	-5,74
817,134	-6,61
817,354	-9,42
817,574	-8,64
817,794	-9,74
818,014	-10,6
818,234	-13,36
818,454	-15,08
818,674	-18,16
818,894	-21,45
819,114	-19,51
819,334	-18,89
819,554	-18,4
819,774	-15,89
819,994	-17,93
820,214	-18,31
820,433	-18,31
820,653	-18,51
820,873	-16,59
821,093	-15,4
821,312	-18,34
821,532	-14,55
821,752	-12,57
821,972	-13,92
822,191	-13,63
822,411	-14,79
822,63	-13,23
822,85	-13,58
823,07	-15,76
823,289	-14,87
823,509	-16,36
823,728	-16,08
823,948	-17,82
824,167	-17,62
824,387	-17,72
824,606	-16,29
824,825	-16,82
825,045	-14,48
825,264	-14,41
825,483	-12,25
825,703	-10,05
825,922	-12,48
826,141	-12,91
826,361	-13,26
826,58	-17,11
826,799	-19,27
827,018	-18,34
827,237	-18,37
827,456	-16,08
827,676	-16,44
827,895	-16,65
828,114	-15,85
828,333	-18,33
828,552	-17,76
828,771	-16,44
828,99	-18,77
829,209	-18,09
829,428	-15,78
829,647	-16,63
829,866	-14,53
830,084	-14,01
830,303	-13,03
830,522	-13,92
830,741	-13,25
830,96	-12,36
831,179	-12,38
831,397	-13,38
831,616	-14,08
831,835	-14,74
832,053	-13,03
832,272	-12,29
832,491	-12,08
832,709	-12,92
832,928	-12,58
833,147	-12,23
833,365	-11
833,584	-7,04
833,802	-4,9
834,021	-3,97
834,239	-3,69
834,458	-5,67
834,676	-9,67
834,894	-10,42
835,113	-9,73
835,331	-11,02
835,55	-11,96
835,768	-11,38
835,986	-11,16
836,204	-14,08
836,423	-12,92
836,641	-14,88
836,859	-17,44
837,077	-16,47
837,296	-16,19
837,514	-16,95
837,732	-18,22
837,95	-18,68
838,168	-15,79
838,386	-15,84
838,604	-13,06
838,822	-12,75
839,04	-13,83
839,258	-11,99
839,476	-9,55
839,694	-8,79
839,912	-10,44
840,13	-11,48
840,348	-9,73
840,566	-13,44
840,783	-12,2
841,001	-13,7
841,219	-11,56
841,437	-10,31
841,655	-8,77
841,872	-9,44
842,09	-9,55
842,308	-9,22
842,525	-9,28
842,743	-9,26
842,961	-10,54
843,178	-13,85
843,396	-9,56
843,613	-7,25
843,831	-6,9
844,048	-7,31
844,266	-6,05
844,483	-6,17
844,701	-6,08
844,918	-6,91
845,136	-6,35
845,353	-8,32
845,57	-7,55
845,788	-5,26
846,005	-8,3
846,222	-10,19
846,439	-8,35
846,657	-7,74
846,874	-6,32
847,091	-9,23
847,308	-6,74
847,526	-8,92
847,743	-8,59
847,96	-10,07
848,177	-9,74
848,394	-10,99
848,611	-10,75
848,828	-11,39
849,045	-12,26
849,262	-11,53
849,479	-11,44
849,696	-11,77
849,913	-11,61
850,13	-17,4
850,347	-14,51
850,564	-14,3
850,78	-15,63
850,997	-17,74
851,214	-16,85
851,431	-14,69
851,647	-17,02
851,864	-15,95
852,081	-14,05
852,298	-18,16
852,514	-20,13
852,731	-18,78
852,948	-16,55
853,164	-17,04
853,381	-17,36
853,597	-18,71
853,814	-20,24
854,03	-23,43
854,247	-22,38
854,463	-23,49
854,68	-23,7
854,896	-22,01
855,113	-20,98
855,329	-20,21
855,545	-18,25
855,762	-19,82
855,978	-22,48
856,194	-24,47
856,411	-20,37
856,627	-18,25
856,843	-15,93
857,059	-15,24
857,275	-16,76
857,492	-15,59
857,708	-11,81
857,924	-10,53
858,14	-10
858,356	-11,6
858,572	-11,8
858,788	-14,99
859,004	-13,33
859,22	-14,49
859,436	-14,17
859,652	-16,39
859,868	-19,1
860,084	-19,47
860,3	-19,6
860,516	-19,8
860,731	-18,75
860,947	-19,75
861,163	-17,27
861,379	-17,22
861,595	-16,35
861,81	-15,99
862,026	-16,61
862,242	-16,84
862,457	-15,87
862,673	-14,14
862,889	-14,3
863,104	-15,65
863,32	-15,48
863,535	-14,79
863,751	-18,84
863,966	-17,31
864,182	-15,42
864,397	-16,89
864,613	-19,27
864,828	-20,83
865,044	-19,11
865,259	-17,81
865,474	-17,56
865,69	-15,66
865,905	-14,87
866,12	-17,66
866,336	-17,66
866,551	-15,69
866,766	-15,64
866,981	-16,73
867,196	-16,41
867,412	-16,38
867,627	-16,93
867,842	-17,58
868,057	-17,31
868,272	-19,06
868,487	-19,98
868,702	-22,27
868,917	-23,15
869,132	-20,91
869,347	-18,91
869,562	-19,12
869,777	-19,96
869,992	-20,6
870,207	-21,55
870,422	-21,33
870,636	-22,61
870,851	-25,31
871,066	-27,01
871,281	-25,76
871,495	-27,48
871,71	-24,64
871,925	-28,09
872,14	-28,69
872,354	-31,15
872,569	-32,18
872,783	-29,42
872,998	-29,07
873,213	-28,99
873,427	-26,32
873,642	-24,74
873,856	-25,1
874,071	-25,02
874,285	-24,42
874,5	-26,7
874,714	-28,1
874,928	-28,41
875,143	-28,3
875,357	-28,21
875,571	-29,15
875,786	-29,39
876	-27,44
876,214	-25,84
876,429	-27,94
876,643	-27,99
876,857	-27,23
877,071	-26,49
877,285	-27,75
877,499	-29,98
877,714	-27,18
877,928	-24,6
878,142	-25,03
878,356	-27,77
878,57	-26,11
878,784	-25,11
878,998	-24,95
879,212	-22,09
879,426	-24,07
879,639	-23,05
879,853	-24,02
880,067	-25,67
880,281	-26,58
880,495	-24,99
880,709	-22,74
880,922	-23,13
881,136	-21,55
881,35	-20,51
881,564	-21,24
881,777	-22,95
881,991	-20,31
882,205	-16,94
882,418	-17,32
882,632	-20,99
882,845	-20,77
883,059	-18,35
883,273	-17,08
883,486	-17,1
883,7	-14,45
883,913	-15,64
884,126	-13,24
884,34	-17,24
884,553	-19,99
884,767	-16,25
884,98	-15,52
885,193	-17,76
885,407	-18,25
885,62	-15,49
885,833	-17,04
886,046	-14,63
886,26	-15,99
886,473	-17,05
886,686	-17,31
886,899	-15,86
887,112	-16,98
887,326	-19,62
887,539	-19,11
887,752	-19,02
887,965	-20,42
888,178	-18,88
888,391	-16,94
888,604	-17,61
888,817	-19,68
889,03	-18,11
889,243	-19,9
889,455	-22,97
889,668	-23,6
889,881	-21,69
890,094	-23,14
890,307	-26,4
890,52	-23,38
890,732	-22,09
890,945	-20,95
891,158	-21,35
891,37	-23,64
891,583	-24,09
891,796	-21,07
892,008	-22,9
892,221	-25,2
892,434	-28,49
892,646	-30,02
892,859	-31,34
893,071	-29,76
893,284	-28,18
893,496	-28,58
893,709	-29,19
893,921	-27,64
894,133	-28,32
894,346	-27,57
894,558	-27,2
894,771	-26,6
894,983	-26,55
895,195	-25,65
895,407	-25,85
895,62	-29,63
895,832	-28,09
896,044	-25,56
896,256	-26,06
896,468	-29,25
896,681	-27,73
896,893	-27,79
897,105	-27,77
897,317	-28,95
897,529	-27,41
897,741	-26,82
897,953	-24,21
898,165	-26,2
898,377	-27,81
898,589	-26,14
898,801	-26,87
899,013	-23,09
899,224	-20,74
899,436	-17,15
899,648	-18,58
899,86	-19,29
900,072	-17,63
900,283	-15,73
900,495	-15,25
900,707	-13,98
900,919	-16,41
901,13	-15,18
901,342	-17,63
901,554	-17,66
901,765	-17,32
901,977	-18,33
902,188	-18,02
902,4	-17,88
902,611	-19,4
902,823	-20,06
903,034	-20,23
903,246	-22,54
903,457	-22,89
903,669	-25,11
903,88	-26,46
904,091	-26,74
904,303	-24,99
904,514	-27,06
904,725	-22,72
904,936	-22,36
905,148	-21,03
905,359	-18,76
905,57	-19,94
905,781	-21,88
905,992	-23,4
906,204	-22,44
906,415	-22,59
906,626	-25,55
906,837	-22,65
907,048	-22,39
907,259	-23,23
907,47	-24,67
907,681	-27
907,892	-24,52
908,103	-25,32
908,314	-27,82
908,525	-26,1
908,735	-25,93
908,946	-26,97
909,157	-27,26
909,368	-25,54
909,579	-25,54
909,789	-26,31
910	-26,2
910,211	-24,03
910,421	-23,34
910,632	-22,06
910,843	-25,74
911,053	-22,23
911,264	-21,75
911,475	-21,73
911,685	-22,74
911,896	-22,28
912,106	-21,68
912,317	-23,82
912,527	-22,43
912,737	-23,9
912,948	-23,48
913,158	-21,57
913,369	-26,32
913,579	-25,47
913,789	-24,01
914	-19,9
914,21	-19,52
914,42	-19,89
914,63	-20,63
914,841	-18,95
915,051	-17,88
915,261	-17,67
915,471	-15,42
915,681	-14,03
915,891	-14,14
916,101	-14,05
916,311	-12,82
916,521	-12,48
916,731	-11,1
916,941	-8,84
917,151	-10,38
917,361	-7,56
917,571	-10,5
917,781	-12,51
917,991	-15,21
918,201	-15,21
918,411	-18,31
918,621	-18,25
918,83	-16,36
919,04	-17,74
919,25	-14,48
919,46	-13,03
919,669	-16,41
919,879	-15,49
920,089	-16,88
920,298	-18,78
920,508	-18,49
920,717	-17,41
920,927	-18,14
921,136	-17,19
921,346	-18,68
921,555	-21,43
921,765	-20,82
921,974	-23,02
922,184	-25,6
922,393	-26,76
922,603	-28,58
922,812	-26,05
923,021	-26,23
923,23	-27,98
923,44	-29,92
923,649	-30,1
923,858	-31,24
924,067	-32,38
924,277	-34,49
924,486	-30,51
924,695	-30,37
924,904	-28,99
925,113	-29,41
925,322	-28,73
925,531	-28,91
925,74	-30,42
925,949	-32,4
926,158	-29,72
926,367	-29,63
926,576	-28,22
926,785	-28,18
926,994	-30,27
927,203	-27,89
927,412	-29,5
927,621	-29,11
927,83	-27,1
928,038	-27,2
928,247	-27,27
928,456	-25,68
928,665	-24,39
928,873	-22,52
929,082	-19,1
929,291	-18,4
929,499	-17,29
929,708	-18,89
929,916	-18,57
930,125	-19,45
930,333	-19,89
930,542	-18,02
930,75	-14,55
930,959	-14,35
931,167	-14,93
931,376	-15,82
931,584	-13,08
931,793	-13,34
932,001	-12,79
932,209	-14,53
932,418	-16,47
932,626	-17,71
932,834	-19,61
933,042	-22,07
933,251	-21,34
933,459	-20,86
933,667	-22,83
933,875	-22,36
934,083	-22,29
934,291	-21,38
934,499	-20,69
934,707	-21,58
934,915	-22,31
935,123	-20,34
935,331	-21,42
935,539	-24,05
935,747	-26,76
935,955	-28,4
936,163	-27,29
936,371	-28,32
936,579	-26,16
936,787	-26,45
936,995	-28,14
937,202	-29,99
937,41	-31,67
937,618	-31,71
937,826	-30,06
938,033	-35,24
938,241	-36,35
938,449	-34,24
938,656	-31,05
938,864	-29,85
939,071	-29,68
939,279	-26,67
939,486	-24,26
939,694	-25,76
939,901	-26,5
940,109	-25,3
940,316	-24,56
940,524	-25,45
940,731	-28,33
940,939	-26,97
941,146	-27,11
941,353	-28,47
941,561	-28,17
941,768	-28,27
941,975	-26,65
942,182	-27,06
942,39	-25,93
942,597	-22,92
942,804	-22,99
943,011	-24,54
943,218	-23,05
943,425	-22,73
943,632	-22,14
943,839	-22,44
944,046	-23,38
944,253	-23,83
944,46	-22,03
944,667	-18,15
944,874	-20,03
945,081	-20,85
945,288	-20,77
945,495	-18,68
945,702	-17,3
945,909	-20,75
946,115	-18,92
946,322	-20,04
946,529	-22,73
946,736	-22,31
946,942	-20,63
947,149	-19,88
947,356	-21,18
947,562	-22,69
947,769	-22,69
947,976	-23,84
948,182	-22,99
948,389	-23,42
948,595	-22,03
948,802	-21,12
949,008	-22,29
949,215	-19,62
949,421	-18,92
949,628	-20,25
949,834	-19,01
950,04	-21,55
950,247	-17,15
950,453	-15,98
950,659	-16,73
950,865	-15,32
951,072	-20,81
951,278	-17,27
951,484	-18,15
951,69	-21,34
951,896	-22,88
952,103	-25,77
952,309	-23,49
952,515	-23,75
952,721	-21,53
952,927	-19,54
953,133	-21,68
953,339	-22,69
953,545	-23,31
953,751	-21,96
953,957	-18
954,163	-18,51
954,369	-19,32
954,574	-21,51
954,78	-22,58
954,986	-21,61
955,192	-20,61
955,398	-22,92
955,603	-25,69
955,809	-24,93
956,015	-23,17
956,22	-23,95
956,426	-21,45
956,632	-25,8
956,837	-25,41
957,043	-25,36
957,248	-25,22
957,454	-23,5
957,66	-26,85
957,865	-27,63
958,07	-25,22
958,276	-26,22
958,481	-26,27
958,687	-26,39
958,892	-26,69
959,097	-26,52
959,303	-26,36
959,508	-25,91
959,713	-26,55
959,919	-26,27
960,124	-27,66
960,329	-28
960,534	-25,55
960,739	-22,86
960,945	-20,83
961,15	-20,71
961,355	-22,66
961,56	-25,65
961,765	-26,58
961,97	-25,42
962,175	-22,99
962,38	-26,76
962,585	-26,32
962,79	-27,34
962,995	-28,56
963,2	-30,27
963,404	-30,14
963,609	-32,47
963,814	-33,85
964,019	-37,05
964,224	-38,57
964,428	-37,11
964,633	-36,76
964,838	-36,73
965,042	-38,65
965,247	-39,91
965,452	-40,01
965,656	-39,19
965,861	-38,66
966,066	-40,57
966,27	-38,77
966,475	-34,87
966,679	-38,64
966,884	-38,06
967,088	-40,74
967,292	-41
967,497	-39,86
967,701	-40
967,906	-38,65
968,11	-35,71
968,314	-32,19
968,518	-33,77
968,723	-31,17
968,927	-29,3
969,131	-28,76
969,335	-25,13
969,539	-24,53
969,744	-23,35
969,948	-21,34
970,152	-19,44
970,356	-16,22
970,56	-14,26
970,764	-16,1
970,968	-11,78
971,172	-10,22
971,376	-9,06
971,58	-8,36
971,784	-8,75
971,988	-9,95
972,192	-7,06
972,395	-4,98
972,599	-8,32
972,803	-9,71
973,007	-7,57
973,21	-8,88
973,414	-8,68
973,618	-8,45
973,822	-9,1
974,025	-7,76
974,229	-8,35
974,432	-12,68
974,636	-15
974,84	-14,35
975,043	-12,65
975,247	-15,06
975,45	-17,3
975,654	-17,14
975,857	-15,46
976,06	-15,52
976,264	-16,52
976,467	-14,75
976,671	-15,67
976,874	-14,61
977,077	-13,98
977,28	-16,97
977,484	-19,45
977,687	-20,57
977,89	-18
978,093	-17,45
978,297	-18,16
978,5	-20,81
978,703	-21,1
978,906	-18,84
979,109	-19,35
979,312	-18,26
979,515	-17,62
979,718	-17,91
979,921	-19,06
980,124	-20,83
980,327	-21,12
980,53	-21,15
980,733	-17,32
980,936	-15,46
981,138	-17,41
981,341	-18,75
981,544	-19,75
981,747	-19,16
981,949	-20,66
982,152	-19,53
982,355	-20,76
982,558	-17,28
982,76	-20,83
982,963	-21,75
983,165	-22,69
983,368	-22,43
983,571	-23,75
983,773	-20,29
983,976	-18,74
984,178	-18,34
984,381	-19,25
984,583	-20,95
984,785	-20,05
984,988	-16,77
985,19	-15,16
985,392	-17,87
985,595	-21,11
985,797	-21,84
985,999	-19,62
986,202	-16,41
986,404	-16,51
986,606	-14,17
986,808	-15,46
987,01	-14,7
987,212	-15,96
987,415	-16,26
987,617	-15,18
987,819	-14,99
988,021	-13,86
988,223	-15,73
988,425	-17,04
988,627	-16,54
988,829	-21,04
989,031	-18,47
989,232	-19,74
989,434	-18,23
989,636	-18,83
989,838	-17,1
990,04	-16,99
990,242	-18,19
990,443	-20,76
990,645	-18,65
990,847	-14,15
991,048	-14,05
991,25	-16,2
991,452	-16,99
991,653	-16,89
991,855	-15,83
992,057	-14,79
992,258	-14,26
992,46	-15,48
992,661	-14,12
992,863	-16,06
993,064	-15,42
993,265	-16,52
993,467	-18,06
993,668	-17,19
993,87	-17,57
994,071	-17,61
994,272	-17,22
994,473	-15,29
994,675	-14,19
994,876	-13,4
995,077	-12,54
995,278	-11,6
995,48	-9,56
995,681	-12,02
995,882	-10,15
996,083	-10,74
996,284	-15,01
996,485	-14,13
996,686	-16,67
996,887	-18,95
997,088	-22,64
997,289	-24,18
997,49	-25,36
997,691	-26,45
997,892	-25,11
998,092	-20,48
998,293	-21,96
998,494	-23,74
998,695	-25,22
998,896	-23,44
999,096	-24,08
999,297	-23,15
999,498	-25,54
999,698	-28,05
999,899	-30,63
1000,1	-31,75
1000,3	-30,75
1000,501	-31,18
1000,701	-31,37
1000,902	-32,77
1001,102	-33,49
1001,303	-32,22
1001,503	-34,87
1001,704	-34,74
1001,904	-34,01
1002,105	-33,75
1002,305	-33,69
1002,505	-32,91
1002,706	-34,43
1002,906	-32,82
1003,106	-31,42
1003,306	-30,27
1003,507	-28,56
1003,707	-28,39
1003,907	-25,6
1004,107	-24,84
1004,307	-28,18
1004,507	-26,51
1004,707	-26,6
1004,907	-27,96
1005,107	-28,66
1005,308	-28,26
1005,507	-29,96
1005,707	-26,22
1005,907	-26,14
1006,107	-22,09
1006,307	-20,95
1006,507	-21,53
1006,707	-21,02
1006,907	-19,52
1007,106	-20,16
1007,306	-21,01
1007,506	-21,25
1007,706	-20,8
1007,905	-23,43
1008,105	-24,08
1008,305	-25,98
1008,504	-25,51
1008,704	-21,38
1008,903	-20,14
1009,103	-18,51
1009,303	-21,43
1009,502	-21,61
1009,702	-22,07
1009,901	-22,03
1010,1	-25,77
1010,3	-24,71
1010,499	-24,37
1010,699	-26,51
1010,898	-27,37
1011,097	-26,05
1011,296	-25,85
1011,496	-26,17
1011,695	-24,38
1011,894	-26,53
1012,093	-23,24
1012,293	-23,9
1012,492	-25,3
1012,691	-25,82
1012,89	-26,32
1013,089	-30,23
1013,288	-28,49
1013,487	-26,58
1013,686	-27,43
1013,885	-28,99
1014,084	-27,87
1014,283	-28,52
1014,482	-29,35
1014,681	-29,52
1014,88	-32,64
1015,078	-31,49
1015,277	-33,48
1015,476	-33,51
1015,675	-33,38
1015,873	-32,95
1016,072	-34,9
1016,271	-31,27
1016,47	-35,92
1016,668	-35,58
1016,867	-35,92
1017,065	-36,86
1017,264	-37,86
1017,463	-38,85
1017,661	-40,1
1017,86	-42,06
1018,058	-40,78
1018,256	-42,66
1018,455	-44,33
1018,653	-41,9
1018,852	-42,04
1019,05	-43,85
1019,248	-44,47
1019,447	-45,95
1019,645	-46,16
1019,843	-46,35
1020,041	-44,91
1020,24	-44,07
1020,438	-39,23
1020,636	-38,54
1020,834	-40,74
1021,032	-38,83
1021,23	-39,88
1021,428	-37,96
1021,626	-34,23
1021,824	-34
1022,022	-35,64
1022,22	-32,44
1022,418	-32,43
1022,616	-30,78
1022,814	-31,67
1023,012	-31,22
1023,21	-29,12
1023,408	-27,95
1023,606	-27,62
1023,803	-21,85
1024,001	-19,91
1024,199	-23,91
1024,397	-22,15
1024,594	-22,75
1024,792	-26,41
1024,99	-24,18
1025,187	-22,92
1025,385	-18,77
1025,582	-18,52
1025,78	-19,03
1025,977	-18,27
1026,175	-17,99
1026,372	-17,93
1026,57	-20,39
1026,767	-18,34
1026,965	-17,31
1027,162	-17,63
1027,359	-18,02
1027,557	-18,15
1027,754	-20,83
1027,951	-21,16
1028,148	-18,79
1028,346	-21,7
1028,543	-23,28
1028,74	-23,84
1028,937	-25,45
1029,134	-25,13
1029,331	-25,85
1029,528	-26,28
1029,725	-27,1
1029,923	-31,32
1030,12	-29,24
1030,317	-28,13
1030,513	-26,51
1030,71	-25,06
1030,907	-21,69
1031,104	-22,46
1031,301	-23,79
1031,498	-23,08
1031,695	-24,03
1031,892	-24,73
1032,088	-24,56
1032,285	-25,88
1032,482	-26,44
1032,678	-29,97
1032,875	-31,7
1033,072	-31,41
1033,268	-30,45
1033,465	-30,42
1033,662	-31,66
1033,858	-31,52
1034,055	-31,54
1034,251	-30,79
1034,448	-30,85
1034,644	-30,72
1034,84	-27,17
1035,037	-25,58
1035,233	-26,24
1035,43	-24,26
1035,626	-25,21
1035,822	-24,5
1036,019	-24,97
1036,215	-29,45
1036,411	-28,5
1036,607	-30,88
1036,803	-32,71
1037	-34,4
1037,196	-37,1
1037,392	-36,85
1037,588	-40,05
1037,784	-37,78
1037,98	-38,54
1038,176	-39,32
1038,372	-40,09
1038,568	-38,25
1038,764	-35,92
1038,96	-34,84
1039,156	-36,41
1039,352	-39,33
1039,547	-37,84
1039,743	-37,33
1039,939	-35,86
1040,135	-36,61
1040,331	-37,87
1040,526	-34,77
1040,722	-35,87
1040,918	-38,29
1041,113	-40,82
1041,309	-41,04
1041,505	-44,26
1041,7	-43,72
1041,896	-42,88
1042,091	-42,12
1042,287	-39,44
1042,482	-38,78
1042,678	-38,99
1042,873	-38,38
1043,069	-38,69
1043,264	-36,53
1043,459	-35,33
1043,655	-34,08
1043,85	-35,88
1044,045	-34,29
1044,24	-33,84
1044,436	-31,06
1044,631	-33,01
1044,826	-32,81
1045,021	-34,35
1045,216	-31,9
