Data from FLMT021711__20__17-56-53-823.txt Node

Date: Tue Nov 05 17:56:53 CET 2024
User: Etudiants TP
Spectrometer: FLMT02171
Trigger mode: 0
Integration Time (sec): 1.000000E-1
Scans to average: 5
Electric dark correction enabled: true
Nonlinearity correction enabled: false
Boxcar width: 15
XAxis mode: Wavelengths
Number of Pixels in Spectrum: 3648
>>>>>Begin Spectral Data<<<<<
194.658	-64.22
194.923	-61.79
195.188	-52.88
195.453	-52.75
195.717	-46.1
195.982	-44.31
196.247	-43.32
196.512	-45.47
196.777	-43.95
197.042	-42.26
197.307	-41.13
197.572	-36.72
197.837	-36.58
198.101	-33.84
198.366	-31.8
198.631	-30.15
198.896	-24.11
199.161	-16.61
199.425	-8.63
199.69	2.36
199.955	2.84
200.22	1.23
200.484	1.4
200.749	1.07
201.014	1.84
201.278	2.93
201.543	4.53
201.807	3.94
202.072	4.33
202.337	4.1
202.601	4.61
202.866	3.27
203.13	5.42
203.395	2.37
203.659	2.49
203.924	-0.04
204.189	-0.34
204.453	1.11
204.717	3.04
204.982	4.25
205.246	6.04
205.511	6.76
205.775	5.9
206.04	10.74
206.304	10.5
206.568	13.13
206.833	13.4
207.097	14.03
207.361	14.87
207.626	18.95
207.89	19.24
208.154	18.77
208.419	20.23
208.683	19.9
208.947	22.07
209.211	21.39
209.476	20.09
209.74	19.94
210.004	20.37
210.268	21.32
210.532	23.9
210.796	25.83
211.061	26.55
211.325	25.77
211.589	24.88
211.853	26.21
212.117	26.98
212.381	28.26
212.645	29.28
212.909	30.06
213.173	27.66
213.437	28.47
213.701	29.39
213.965	30.99
214.229	26.72
214.493	26.96
214.757	24.76
215.021	25.02
215.285	30.32
215.549	33.97
215.813	31.17
216.077	30.5
216.34	33.2
216.604	32.37
216.868	33.66
217.132	34.1
217.396	34.49
217.659	35.1
217.923	31.04
218.187	31.63
218.451	31.52
218.714	29.31
218.978	27.65
219.242	29.62
219.505	30.12
219.769	30.92
220.033	31.02
220.296	31.61
220.56	33.23
220.824	30.49
221.087	31.36
221.351	30.85
221.614	30.32
221.878	31.71
222.142	29.22
222.405	29.09
222.669	31.56
222.932	28.96
223.196	26.28
223.459	21.23
223.722	21.21
223.986	19.19
224.249	18.51
224.513	16.63
224.776	16.21
225.04	15.06
225.303	14.41
225.566	13.96
225.83	16.46
226.093	20.71
226.356	18.47
226.62	16.15
226.883	17.64
227.146	18.72
227.409	18.08
227.673	16.79
227.936	17.82
228.199	18.46
228.462	16.38
228.725	15.11
228.989	15.64
229.252	16.18
229.515	22.35
229.778	19.23
230.041	18.6
230.304	17.26
230.567	18.39
230.83	15.97
231.093	18.65
231.356	19.09
231.619	27.77
231.882	26.18
232.145	29.48
232.408	27.69
232.671	27.37
232.934	27.05
233.197	26.05
233.46	25.84
233.723	27.3
233.986	24.97
234.249	22.48
234.512	25.43
234.775	29.03
235.037	28.7
235.3	28.18
235.563	28.21
235.826	29.13
236.089	29.88
236.351	29.15
236.614	31.37
236.877	30.95
237.14	32.23
237.402	31.25
237.665	24.64
237.928	24.99
238.19	22.6
238.453	24.44
238.716	22.76
238.978	23.12
239.241	21.61
239.503	24.42
239.766	18.79
240.029	16.18
240.291	18.78
240.554	18.3
240.816	18.07
241.079	17.96
241.341	18.11
241.604	16.44
241.866	12.97
242.129	14.12
242.391	14.51
242.653	12.71
242.916	12.93
243.178	11.85
243.441	12.79
243.703	11.73
243.965	9.96
244.228	10.15
244.49	10.02
244.752	11.14
245.015	11.93
245.277	14.18
245.539	13.85
245.801	15.67
246.064	14.64
246.326	13.8
246.588	13.57
246.85	17.09
247.112	17.67
247.374	20.6
247.637	22.4
247.899	21.86
248.161	23.32
248.423	18.14
248.685	18.8
248.947	19.39
249.209	21.06
249.471	20.67
249.733	22.53
249.995	22.41
250.257	22.51
250.519	21.55
250.781	24.6
251.043	21.23
251.305	23.69
251.567	24.51
251.829	25.17
252.091	24.45
252.353	20.52
252.615	21.34
252.876	19.42
253.138	18.12
253.4	14.39
253.662	15.06
253.924	16.93
254.185	18.95
254.447	19.88
254.709	19.95
254.971	21.3
255.232	23.21
255.494	21.53
255.756	19.73
256.017	20.7
256.279	21.24
256.541	20.4
256.802	20.14
257.064	20.95
257.326	19.81
257.587	23.09
257.849	23.01
258.11	25.34
258.372	26.47
258.633	28.45
258.895	26.94
259.156	26.46
259.418	24.4
259.679	21.36
259.941	19.34
260.202	23.5
260.464	25.48
260.725	24.45
260.987	23.94
261.248	23.73
261.509	24.48
261.771	24.36
262.032	25.95
262.293	26.31
262.555	25.01
262.816	23.43
263.077	20.76
263.338	17.08
263.6	16.37
263.861	15.18
264.122	13.78
264.383	15.75
264.645	17.49
264.906	16.67
265.167	15.71
265.428	15.27
265.689	14.91
265.95	13.4
266.211	14.99
266.473	12.67
266.734	9.05
266.995	6.23
267.256	7.15
267.517	9.82
267.778	12
268.039	13.81
268.3	11.64
268.561	10.11
268.822	13.62
269.083	12.08
269.344	10.98
269.604	10.16
269.865	9.78
270.126	5.29
270.387	6.89
270.648	9.29
270.909	8.53
271.17	6.98
271.43	3.7
271.691	1.57
271.952	1.2
272.213	3.36
272.473	0.9
272.734	2.7
272.995	5.01
273.256	5.87
273.516	8.49
273.777	6.24
274.038	7.46
274.298	4.52
274.559	4.41
274.82	9.16
275.08	11.04
275.341	12.54
275.601	11.36
275.862	10.27
276.122	10.36
276.383	10.8
276.643	11.8
276.904	10.08
277.164	12.54
277.425	12.49
277.685	17.04
277.946	16.89
278.206	19.16
278.467	19.19
278.727	19.88
278.987	21.22
279.248	23.02
279.508	25.88
279.768	28.53
280.029	28.46
280.289	24.49
280.549	23.45
280.81	23.72
281.07	22.42
281.33	25.44
281.59	23.61
281.851	26.2
282.111	26.18
282.371	26.18
282.631	28.6
282.891	28.23
283.151	27.15
283.412	25.82
283.672	25.83
283.932	25.15
284.192	26.01
284.452	23.68
284.712	22.77
284.972	21.02
285.232	19.25
285.492	21.6
285.752	19.71
286.012	25.93
286.272	27.22
286.532	25.02
286.792	23.87
287.052	25.67
287.312	25.1
287.571	24.38
287.831	23.64
288.091	22.65
288.351	22.52
288.611	26.22
288.871	24.85
289.13	24.72
289.39	18.38
289.65	19.41
289.91	16.31
290.17	18.95
290.429	21.19
290.689	18.14
290.949	15.07
291.208	17.5
291.468	21.19
291.728	22.25
291.987	24.66
292.247	22.52
292.506	26.12
292.766	28.46
293.026	27.13
293.285	28.17
293.545	31.22
293.804	31.04
294.064	26.57
294.323	23.61
294.583	24.03
294.842	24.99
295.102	24.55
295.361	24.16
295.621	23.67
295.88	25.44
296.139	25.32
296.399	27.05
296.658	21.99
296.917	22.25
297.177	19.37
297.436	22.74
297.695	21.52
297.955	23.47
298.214	22.21
298.473	23.95
298.732	26.74
298.992	30.07
299.251	28.09
299.51	23.41
299.769	23.64
300.028	23.73
300.287	25.06
300.547	23.54
300.806	20.79
301.065	23.88
301.324	25.16
301.583	19.98
301.842	15.89
302.101	14.66
302.36	15.68
302.619	15.54
302.878	15.41
303.137	12.25
303.396	14.05
303.655	16.49
303.914	13.37
304.173	13.64
304.432	12.4
304.691	15.79
304.95	12.63
305.208	17.85
305.467	18.45
305.726	17.44
305.985	18.45
306.244	18.51
306.503	17.93
306.761	15.49
307.02	11.2
307.279	12.23
307.537	13.31
307.796	10.15
308.055	7.02
308.314	8.57
308.572	6.25
308.831	7.62
309.09	8.86
309.348	9.92
309.607	9.39
309.865	13.83
310.124	14.42
310.382	16.21
310.641	17.99
310.9	16.32
311.158	18.17
311.417	17.24
311.675	17.67
311.933	18.8
312.192	20.27
312.45	21.6
312.709	21.37
312.967	21.19
313.226	20.46
313.484	19.3
313.742	18.02
314.001	16.04
314.259	14.54
314.517	14.89
314.776	17.47
315.034	20.96
315.292	19.33
315.55	17.07
315.809	17.32
316.067	18.1
316.325	16.4
316.583	18.65
316.841	17.96
317.1	15.89
317.358	11.67
317.616	12.86
317.874	10.98
318.132	9.43
318.39	9.05
318.648	6.92
318.906	7.59
319.164	6.78
319.422	5.91
319.68	4.43
319.938	4.48
320.196	4.66
320.454	5.42
320.712	4.42
320.97	5.74
321.228	4.11
321.486	5.05
321.744	6.35
322.002	8.05
322.26	7.93
322.517	7.97
322.775	4.86
323.033	2.8
323.291	5.43
323.549	7
323.806	8.27
324.064	7.83
324.322	7.85
324.58	6.04
324.837	8.27
325.095	4.79
325.353	7.58
325.61	8.11
325.868	8.35
326.126	10.47
326.383	9.52
326.641	8.67
326.898	9.48
327.156	9.17
327.413	9.24
327.671	10.26
327.928	11.82
328.186	12.87
328.443	11.21
328.701	16.22
328.958	17.44
329.216	17.49
329.473	16.45
329.731	16.62
329.988	16.85
330.245	17.58
330.503	17.31
330.76	18.29
331.017	20.31
331.275	16.68
331.532	17.25
331.789	14.99
332.047	15.93
332.304	13.69
332.561	14.87
332.818	13.8
333.076	16.05
333.333	17.58
333.59	18.54
333.847	19.43
334.104	17.91
334.361	17.24
334.618	16.87
334.876	15.56
335.133	17.07
335.39	15.9
335.647	16.5
335.904	13.56
336.161	11.06
336.418	12.22
336.675	8.12
336.932	8.91
337.189	8.27
337.446	8.56
337.703	8.66
337.96	4.43
338.216	6.37
338.473	3.15
338.73	3.01
338.987	2.64
339.244	6.4
339.501	5.22
339.757	6.92
340.014	7.85
340.271	9.79
340.528	10.65
340.785	14.23
341.041	15.59
341.298	11.47
341.555	10.96
341.811	10.03
342.068	8.32
342.325	7.94
342.581	10.28
342.838	12.17
343.094	11.22
343.351	11.41
343.608	8.98
343.864	12.86
344.121	14.84
344.377	13.4
344.634	12.58
344.89	11.22
345.147	10.62
345.403	9.22
345.66	9.04
345.916	12.25
346.172	9.06
346.429	9.08
346.685	7.18
346.942	8.24
347.198	4.16
347.454	4.82
347.711	4.99
347.967	1.56
348.223	1.77
348.48	1.25
348.736	4.24
348.992	3.11
349.248	5.91
349.504	4.66
349.761	4.68
350.017	4.95
350.273	5.7
350.529	4.74
350.785	2.61
351.041	1.85
351.297	2.89
351.554	2.61
351.81	-0.94
352.066	-3.27
352.322	-2.87
352.578	-3.25
352.834	-3.67
353.09	-2.2
353.346	-1.06
353.602	-1.62
353.858	-2.63
354.114	-2.35
354.369	-0.52
354.625	2.43
354.881	0.12
355.137	2.98
355.393	2.78
355.649	3.41
355.905	5.21
356.16	5.97
356.416	6.49
356.672	-0.92
356.928	0.04
357.183	0.21
357.439	1.44
357.695	0.86
357.951	5.46
358.206	4.13
358.462	4.07
358.718	3.01
358.973	4.1
359.229	4.54
359.484	4.17
359.74	7.59
359.996	8.37
360.251	12.33
360.507	12.16
360.762	12.57
361.018	15.13
361.273	12.01
361.529	11.79
361.784	11.62
362.04	12.97
362.295	11.34
362.55	11.21
362.806	12.8
363.061	13.48
363.316	13.9
363.572	13.81
363.827	15.04
364.082	12.88
364.338	12.92
364.593	14.17
364.848	14.76
365.104	13.14
365.359	16.03
365.614	15.98
365.869	13.17
366.124	13.68
366.38	13.19
366.635	14.47
366.89	16.29
367.145	16.52
367.4	21.2
367.655	20.5
367.91	20.93
368.165	19.06
368.42	16.4
368.675	16.49
368.93	16.19
369.185	15.25
369.44	16.78
369.695	18.86
369.95	18.46
370.205	18.26
370.46	16.48
370.715	15.92
370.97	16.01
371.225	16.87
371.48	18
371.734	17.84
371.989	18.51
372.244	18.19
372.499	19.71
372.754	18.93
373.008	16.56
373.263	11.21
373.518	13.81
373.773	13.35
374.027	12.45
374.282	13.63
374.537	14.76
374.791	14.83
375.046	12.96
375.301	10.33
375.555	8.4
375.81	9.73
376.064	9.42
376.319	13.6
376.573	14
376.828	10.05
377.082	14.92
377.337	11.82
377.591	8.93
377.846	7.94
378.1	11.36
378.355	12.71
378.609	11.5
378.863	8.19
379.118	8.52
379.372	6.98
379.627	7
379.881	4.62
380.135	4.07
380.389	2.7
380.644	3.32
380.898	5.55
381.152	7.34
381.407	6.73
381.661	7.9
381.915	9.91
382.169	11.03
382.423	10.03
382.677	5.95
382.932	6.38
383.186	7.08
383.44	7.89
383.694	8.8
383.948	7.36
384.202	5.43
384.456	6.21
384.71	8.03
384.964	6.09
385.218	9
385.472	9.99
385.726	9.79
385.98	9.4
386.234	8.96
386.488	8.17
386.742	9.6
386.996	8.82
387.249	9.44
387.503	10.93
387.757	13.63
388.011	13.61
388.265	14.51
388.518	13.66
388.772	14.27
389.026	15.98
389.28	13.02
389.533	12.92
389.787	14.9
390.041	12.53
390.295	13.53
390.548	14.7
390.802	17.83
391.055	16.65
391.309	15.36
391.563	12.8
391.816	13.03
392.07	13.04
392.323	13.9
392.577	15.78
392.83	17.99
393.084	22.65
393.337	25.57
393.591	26.51
393.844	26.68
394.098	31
394.351	34.12
394.604	37.32
394.858	38.56
395.111	39.31
395.364	35.56
395.618	36.88
395.871	35.63
396.124	35.34
396.378	36.21
396.631	36.49
396.884	33.66
397.137	34.04
397.391	34.88
397.644	30.86
397.897	30.91
398.15	30.39
398.403	34.93
398.657	34.73
398.91	34.23
399.163	36.09
399.416	36.28
399.669	36.15
399.922	34.8
400.175	32.22
400.428	31.26
400.681	30.82
400.934	26.64
401.187	25.46
401.44	25.67
401.693	22.94
401.946	18.21
402.199	13.56
402.452	11.9
402.704	9.31
402.957	6.98
403.21	9.12
403.463	8.17
403.716	9.18
403.969	9.78
404.221	7.59
404.474	8.81
404.727	12.18
404.98	13.91
405.232	13.26
405.485	16.39
405.738	20.18
405.99	21.82
406.243	21.75
406.496	22.44
406.748	22.7
407.001	21.27
407.253	22.04
407.506	21.49
407.759	22
408.011	20.33
408.264	20.34
408.516	19.51
408.769	17.3
409.021	18.39
409.274	18.1
409.526	20.61
409.778	22.4
410.031	26.22
410.283	26.19
410.536	30.77
410.788	30.27
411.04	29.65
411.293	30.71
411.545	31.83
411.797	31.44
412.049	32.21
412.302	32.71
412.554	33.26
412.806	31.6
413.058	29.53
413.311	29.12
413.563	26.92
413.815	25.56
414.067	22.79
414.319	21.35
414.571	20.71
414.823	18.98
415.075	17.87
415.328	19.31
415.58	23.95
415.832	25.39
416.084	25.87
416.336	24.2
416.588	27.61
416.84	26.16
417.091	28.56
417.343	25.22
417.595	26.6
417.847	27.78
418.099	27.24
418.351	26.17
418.603	29.03
418.855	29.54
419.106	30.5
419.358	31.25
419.61	30.77
419.862	31.34
420.114	29.58
420.365	28.21
420.617	29.28
420.869	27.52
421.12	26.72
421.372	27.8
421.624	26.87
421.875	27.09
422.127	24.64
422.379	26.29
422.63	28.88
422.882	27.82
423.133	27.69
423.385	27.11
423.636	29.73
423.888	31.78
424.139	34.88
424.391	33.94
424.642	31.79
424.894	29.49
425.145	29.62
425.396	24.7
425.648	25.7
425.899	24.88
426.151	24.06
426.402	22.48
426.653	24.13
426.905	21.58
427.156	18.95
427.407	18.71
427.658	19.34
427.91	16.95
428.161	17.16
428.412	17.92
428.663	19.2
428.914	20.11
429.166	20.11
429.417	20.34
429.668	18.42
429.919	15.53
430.17	14.73
430.421	14.63
430.672	18.29
430.923	18.55
431.174	17.31
431.425	15.77
431.676	13.9
431.927	11.29
432.178	12.59
432.429	12.35
432.68	12.36
432.931	15.43
433.182	20.19
433.433	17.6
433.683	18.98
433.934	19.15
434.185	18.64
434.436	16.33
434.687	18.97
434.937	20.43
435.188	18.54
435.439	17.26
435.69	19.24
435.94	17.6
436.191	19.63
436.442	21.57
436.692	20.81
436.943	17.81
437.194	16.88
437.444	19.22
437.695	24.23
437.945	23.67
438.196	23.15
438.447	21.72
438.697	20.29
438.948	18.19
439.198	15.35
439.449	11.93
439.699	12.32
439.949	10.82
440.2	11.91
440.45	14.04
440.701	12.71
440.951	10.56
441.201	12.28
441.452	10.88
441.702	10.47
441.952	12.16
442.203	12.27
442.453	8.75
442.703	9.46
442.953	10.04
443.204	11.75
443.454	10.24
443.704	10.86
443.954	6.32
444.204	6.12
444.455	6.98
444.705	9.07
444.955	9.91
445.205	10.09
445.455	6.86
445.705	7.34
445.955	7.16
446.205	5.5
446.455	7.15
446.705	8.73
446.955	10.42
447.205	13.13
447.455	14.32
447.705	12.4
447.955	11.71
448.205	10.93
448.454	10.31
448.704	11.99
448.954	10.16
449.204	10.33
449.454	10.51
449.704	8.45
449.953	8.87
450.203	10.99
450.453	9.09
450.703	11.92
450.952	9.82
451.202	11.11
451.452	10.16
451.701	12.85
451.951	15.54
452.201	15.23
452.45	14.16
452.7	15.84
452.949	14.04
453.199	14.89
453.448	17.11
453.698	18.34
453.947	18.2
454.197	18.01
454.446	16.93
454.696	20.25
454.945	19.46
455.195	18.39
455.444	18.98
455.693	22.58
455.943	21.49
456.192	22.82
456.442	22.16
456.691	22.32
456.94	22.98
457.189	21.64
457.439	23.79
457.688	25.24
457.937	24.27
458.186	24.76
458.436	24.68
458.685	26.44
458.934	26.2
459.183	26.1
459.432	29.21
459.681	28.53
459.93	26.66
460.179	26.65
460.429	24.02
460.678	26.77
460.927	28.63
461.176	27.28
461.425	27.37
461.674	29.64
461.923	28.33
462.172	27.92
462.42	26.12
462.669	27.86
462.918	27.34
463.167	27.64
463.416	25.13
463.665	25.99
463.914	26.61
464.162	25.08
464.411	24.8
464.66	25.79
464.909	23.64
465.158	23.61
465.406	22.66
465.655	24.18
465.904	26.56
466.152	27.13
466.401	27.33
466.65	28.77
466.898	28.64
467.147	24.98
467.395	25.2
467.644	28.42
467.893	27.9
468.141	27.92
468.39	26.31
468.638	24.76
468.887	23.32
469.135	22.03
469.384	22.35
469.632	23.68
469.88	23.35
470.129	25.44
470.377	22.6
470.626	25.73
470.874	26.4
471.122	26.9
471.371	26.52
471.619	24.68
471.867	28.15
472.115	29.01
472.364	26.71
472.612	31.08
472.86	29.05
473.108	29.83
473.356	30.35
473.605	28.27
473.853	24.38
474.101	24.12
474.349	22.53
474.597	25.32
474.845	23.44
475.093	21.75
475.341	17.92
475.589	18.55
475.837	20.14
476.085	21.26
476.333	19.66
476.581	21.23
476.829	20.28
477.077	21.53
477.325	20.74
477.573	22.82
477.821	20.81
478.069	22.26
478.317	21.23
478.564	24.13
478.812	21.44
479.06	18.82
479.308	18.77
479.555	19.57
479.803	17.83
480.051	20.02
480.299	18.74
480.546	20
480.794	17.05
481.042	17.95
481.289	18.66
481.537	20.02
481.784	18.95
482.032	21.81
482.28	20.87
482.527	20.36
482.775	21.3
483.022	23.9
483.27	25.93
483.517	29.53
483.765	28.54
484.012	29.73
484.259	28.4
484.507	31.11
484.754	32.34
485.002	32.26
485.249	30.65
485.496	32.63
485.744	31.18
485.991	31.21
486.238	29.57
486.486	33.68
486.733	35.44
486.98	37.33
487.227	34.11
487.474	36.71
487.722	39.46
487.969	36.99
488.216	36.88
488.463	38.02
488.71	34.99
488.957	34.6
489.204	33.68
489.451	34.63
489.699	33.68
489.946	31.11
490.193	32.45
490.44	31.89
490.687	33.01
490.934	30.5
491.18	26.78
491.427	29.45
491.674	31.62
491.921	31.34
492.168	29.27
492.415	25.06
492.662	26.28
492.909	27.93
493.155	26.73
493.402	25.73
493.649	23.69
493.896	23.76
494.142	20
494.389	19.88
494.636	18.63
494.883	17.5
495.129	16.06
495.376	12.19
495.623	14.61
495.869	16.35
496.116	18.22
496.362	20.17
496.609	22
496.855	28.67
497.102	27.83
497.348	28.17
497.595	29.7
497.841	33.84
498.088	33.08
498.334	31.28
498.581	30.1
498.827	29.75
499.074	28.76
499.32	30.48
499.566	34.02
499.813	35.41
500.059	34.64
500.305	34.87
500.552	35.7
500.798	34.78
501.044	39.42
501.29	38.96
501.537	35.82
501.783	38.06
502.029	40.74
502.275	37.85
502.521	36.29
502.767	36.07
503.013	39.39
503.26	37.15
503.506	33.86
503.752	35.4
503.998	34.74
504.244	35.67
504.49	32.26
504.736	34.32
504.982	32.81
505.228	35.13
505.474	34.36
505.72	35.07
505.966	33.86
506.211	37.84
506.457	37.14
506.703	35.04
506.949	32.41
507.195	31.1
507.441	27.87
507.686	31.37
507.932	31.51
508.178	31.29
508.424	30.26
508.669	27.91
508.915	28.73
509.161	32.29
509.406	34.19
509.652	34.45
509.898	39.23
510.143	40.59
510.389	40.05
510.634	36.2
510.88	40.09
511.125	44.47
511.371	44.84
511.616	45.11
511.862	42.83
512.107	41.15
512.353	43.5
512.598	43.86
512.844	42.83
513.089	41.96
513.335	42.1
513.58	43.32
513.825	43.3
514.071	43.91
514.316	44.25
514.561	46.2
514.806	45.03
515.052	49.19
515.297	48.34
515.542	49.68
515.787	50.96
516.033	53.5
516.278	54.7
516.523	55.28
516.768	54.71
517.013	51.27
517.258	50.46
517.503	48.73
517.748	49.72
517.993	50.68
518.238	53.02
518.483	51.31
518.728	49.2
518.973	47.13
519.218	46.62
519.463	47.53
519.708	48.3
519.953	46.41
520.198	47.15
520.443	48.47
520.688	49.8
520.933	49.8
521.177	50.81
521.422	48.8
521.667	53.43
521.912	53.46
522.157	49.94
522.401	52.79
522.646	52.62
522.891	52.99
523.135	53.88
523.38	54.16
523.625	54.26
523.869	56.38
524.114	57.02
524.358	56.06
524.603	57.1
524.848	55.43
525.092	56.86
525.337	57.79
525.581	59.74
525.826	61.52
526.07	62.6
526.315	64.05
526.559	64.1
526.803	62.77
527.048	66.75
527.292	66.35
527.537	67.09
527.781	67.41
528.025	65.09
528.269	66.74
528.514	68.53
528.758	67.12
529.002	68.75
529.247	70.42
529.491	70.73
529.735	76.37
529.979	76.04
530.223	76.89
530.467	74.58
530.712	71.25
530.956	71.01
531.2	71.72
531.444	70.12
531.688	72.75
531.932	72.76
532.176	74.69
532.42	76.57
532.664	77.14
532.908	76.52
533.152	74.82
533.396	74.95
533.64	74.85
533.884	73.02
534.128	72.4
534.371	75.99
534.615	77.48
534.859	77.86
535.103	76.03
535.347	75.69
535.59	77.74
535.834	75.13
536.078	75.24
536.322	76.65
536.565	78.65
536.809	76.29
537.053	77.4
537.296	75.02
537.54	75.56
537.784	75.72
538.027	78.65
538.271	79.11
538.514	77.21
538.758	75.98
539.001	73.61
539.245	73.22
539.488	74.57
539.732	76.41
539.975	76.99
540.219	79.49
540.462	79.74
540.706	82.22
540.949	81.14
541.192	80.87
541.436	86.49
541.679	91.56
541.922	91.17
542.166	85.99
542.409	84.89
542.652	85.31
542.895	87.17
543.139	88.08
543.382	92.39
543.625	93.57
543.868	94.31
544.111	92.65
544.354	91.4
544.598	89.53
544.841	90.24
545.084	88.96
545.327	87.25
545.57	87.25
545.813	88.67
546.056	88.69
546.299	90
546.542	92.9
546.785	95.25
547.028	96.28
547.271	94.62
547.514	94.27
547.756	91.81
547.999	92.02
548.242	92.3
548.485	89.87
548.728	90.91
548.971	85.22
549.213	85.28
549.456	84.58
549.699	85.06
549.942	86.48
550.184	86.55
550.427	85.27
550.67	84.38
550.912	79.37
551.155	79
551.398	78.47
551.64	77.93
551.883	78.17
552.125	77.31
552.368	76.73
552.61	74.89
552.853	76.71
553.095	76.93
553.338	76.54
553.58	78.17
553.823	76.29
554.065	78.69
554.308	73.35
554.55	70.69
554.792	68.67
555.035	66.06
555.277	63.84
555.519	65.56
555.762	63.63
556.004	64.25
556.246	60.46
556.488	61.76
556.731	59.68
556.973	61.32
557.215	60.04
557.457	60.94
557.699	62.96
557.941	60.47
558.183	59.92
558.426	62.46
558.668	59.75
558.91	60.05
559.152	60.3
559.394	60.4
559.636	64.39
559.878	64.1
560.12	64.17
560.362	65.31
560.604	64.62
560.845	63.11
561.087	62.04
561.329	64.86
561.571	61.23
561.813	63.4
562.055	62.89
562.297	64.36
562.538	66.08
562.78	69.72
563.022	66.07
563.264	67.28
563.505	68.12
563.747	68.6
563.989	66.63
564.23	65.07
564.472	62.88
564.714	65.97
564.955	66.5
565.197	63.53
565.438	65.3
565.68	68.46
565.921	66.76
566.163	68.82
566.404	67.93
566.646	71.34
566.887	72.87
567.129	72.56
567.37	73.08
567.612	75.15
567.853	72.68
568.094	73.02
568.336	74.87
568.577	75.7
568.818	74.4
569.06	71.96
569.301	70.29
569.542	70.81
569.783	72.27
570.025	72.28
570.266	71.01
570.507	73.02
570.748	72.61
570.989	74.2
571.23	77.33
571.472	78.18
571.713	77.3
571.954	77.61
572.195	74.7
572.436	75.21
572.677	78.13
572.918	80.26
573.159	77.95
573.4	74.69
573.641	72.87
573.882	73.18
574.123	69.05
574.364	64.66
574.604	65.56
574.845	63.06
575.086	64
575.327	64.25
575.568	63.31
575.809	62.21
576.049	60.21
576.29	59.57
576.531	66.03
576.771	69.07
577.012	71.97
577.253	72.7
577.494	72.72
577.734	72.69
577.975	74.34
578.215	73.25
578.456	71.17
578.697	70.79
578.937	72.43
579.178	71.74
579.418	71.87
579.659	72.87
579.899	70.71
580.14	68.67
580.38	67.06
580.62	67.53
580.861	72.01
581.101	72.08
581.342	72.7
581.582	67.93
581.822	70.87
582.063	70.03
582.303	72.08
582.543	70.09
582.783	71.89
583.024	74.61
583.264	78.02
583.504	77.35
583.744	78.51
583.984	75.38
584.224	75.75
584.465	73.85
584.705	73.4
584.945	74.17
585.185	74.97
585.425	73.96
585.665	74.64
585.905	74.2
586.145	74.29
586.385	72.85
586.625	76.26
586.865	74.97
587.105	75.89
587.345	76.15
587.585	77.59
587.824	76.98
588.064	75.95
588.304	74.14
588.544	75.1
588.784	73.13
589.024	77.44
589.263	77.14
589.503	74.37
589.743	76.47
589.982	77.41
590.222	77.16
590.462	73.83
590.701	72.23
590.941	75.69
591.181	74.39
591.42	74.38
591.66	75.16
591.899	78.55
592.139	77.01
592.378	77.07
592.618	76.28
592.857	75.56
593.097	74.82
593.336	74.57
593.576	74.31
593.815	75.99
594.055	75.01
594.294	75.88
594.533	74.03
594.773	73.49
595.012	73.55
595.251	75.59
595.491	78.43
595.73	81.01
595.969	81.88
596.208	82.69
596.447	87.32
596.687	87.63
596.926	89.95
597.165	85.97
597.404	86.69
597.643	84.83
597.882	84.31
598.121	84.07
598.36	84.72
598.599	85.92
598.838	84.7
599.077	81.63
599.316	79.65
599.555	78.83
599.794	79.77
600.033	81.65
600.272	83.67
600.511	83.39
600.75	85.52
600.989	85.78
601.228	85.43
601.466	84.47
601.705	86.65
601.944	87.33
602.183	90.51
602.422	89.63
602.66	86.6
602.899	85
603.138	84.38
603.376	83.68
603.615	85.25
603.854	83.58
604.092	83.41
604.331	83.61
604.569	86.61
604.808	85.45
605.047	88.12
605.285	88.88
605.524	88.88
605.762	85.61
606	86.77
606.239	87.46
606.477	88.24
606.716	85.42
606.954	86.82
607.193	84.41
607.431	79.75
607.669	77.54
607.908	77.45
608.146	79.33
608.384	79.62
608.622	79.66
608.861	79.21
609.099	76.8
609.337	75.16
609.575	73.22
609.813	73.39
610.052	73.58
610.29	69.13
610.528	67.48
610.766	66.93
611.004	67.26
611.242	66.05
611.48	66.24
611.718	65.31
611.956	64.8
612.194	64.86
612.432	62.62
612.67	61.73
612.908	62.87
613.146	61.98
613.384	61.32
613.621	60.46
613.859	61.27
614.097	60.84
614.335	60.75
614.573	61.72
614.811	64.24
615.048	64.65
615.286	65.03
615.524	63.46
615.761	60.1
615.999	59.75
616.237	60.21
616.474	62.96
616.712	64.47
616.95	63.41
617.187	63.73
617.425	65.27
617.662	68.03
617.9	67.31
618.137	65.54
618.375	63.06
618.612	61.22
618.85	61.57
619.087	62.92
619.325	62.8
619.562	60.36
619.799	60.28
620.037	61.69
620.274	60.63
620.511	63.13
620.749	61
620.986	60.68
621.223	57.22
621.461	57.99
621.698	58.74
621.935	57.65
622.172	55.19
622.409	57.69
622.647	58.2
622.884	55.81
623.121	58.25
623.358	57.39
623.595	57.31
623.832	56.99
624.069	56.59
624.306	57.38
624.543	59.43
624.78	60.96
625.017	59.65
625.254	62.3
625.491	65.13
625.728	66.51
625.965	67.75
626.202	66.26
626.438	64.93
626.675	62.39
626.912	65.12
627.149	66.13
627.386	64.48
627.622	62.88
627.859	61.17
628.096	62.16
628.333	62.06
628.569	62.97
628.806	65.87
629.043	65.04
629.279	66.16
629.516	69.75
629.752	65.13
629.989	65.54
630.225	64.14
630.462	64.57
630.699	63.22
630.935	63.72
631.171	60.1
631.408	61.56
631.644	59.95
631.881	55.41
632.117	53.15
632.354	55.18
632.59	54.52
632.826	52.46
633.063	52.26
633.299	51.14
633.535	50.55
633.771	49.87
634.008	53.55
634.244	53.52
634.48	51.67
634.716	53.31
634.953	52.64
635.189	52
635.425	53.57
635.661	56.94
635.897	55.6
636.133	54.26
636.369	52.99
636.605	50.1
636.841	49.03
637.077	50.58
637.313	49.33
637.549	49.75
637.785	47.22
638.021	48.63
638.257	46.28
638.493	50.32
638.729	46.41
638.965	48.9
639.2	51.75
639.436	50.23
639.672	49.62
639.908	46.11
640.144	51.99
640.379	55.03
640.615	53.92
640.851	54.93
641.086	56.6
641.322	54.78
641.558	55.5
641.793	56.51
642.029	54.27
642.264	53.49
642.5	54.32
642.736	50.71
642.971	51.05
643.207	49.75
643.442	46.83
643.678	48.68
643.913	49.93
644.148	49.1
644.384	52.89
644.619	53.46
644.855	55.15
645.09	57.24
645.325	56.05
645.561	57.71
645.796	53.84
646.031	57.55
646.266	55.07
646.502	53.12
646.737	55.07
646.972	53.8
647.207	54.62
647.442	49.72
647.678	46.17
647.913	49.01
648.148	50.56
648.383	47.51
648.618	47.52
648.853	47.52
649.088	48
649.323	52.06
649.558	53.05
649.793	54.72
650.028	54.89
650.263	50.85
650.498	53.97
650.733	55
650.968	53.07
651.202	54.31
651.437	52.04
651.672	47.19
651.907	45.34
652.142	45.07
652.376	45.48
652.611	46.88
652.846	46.28
653.081	47.17
653.315	46.42
653.55	47.26
653.785	46.69
654.019	49.17
654.254	47.91
654.488	48.37
654.723	45.25
654.958	42.82
655.192	40.45
655.427	36.53
655.661	38.6
655.896	40.71
656.13	40.85
656.364	39.22
656.599	34.6
656.833	42.73
657.068	44.09
657.302	44.84
657.536	43.56
657.771	44.47
658.005	45.05
658.239	46.11
658.474	43.69
658.708	45.58
658.942	45.38
659.176	44.55
659.41	42.37
659.645	42.75
659.879	43.5
660.113	42.01
660.347	40.47
660.581	38.24
660.815	37.45
661.049	36.45
661.283	31.57
661.517	30.39
661.751	29.2
661.985	29.2
662.219	31.42
662.453	30.09
662.687	31.83
662.921	29.04
663.155	27.42
663.389	21.96
663.622	19.98
663.856	22.99
664.09	14.05
664.324	12.52
664.558	11.53
664.791	10.48
665.025	8.96
665.259	9.87
665.492	8.22
665.726	10.77
665.96	10.56
666.193	9.3
666.427	10.07
666.661	9.99
666.894	7.53
667.128	6.55
667.361	6.6
667.595	6.2
667.828	4.54
668.062	3.83
668.295	5.55
668.529	7.12
668.762	8.89
668.995	8.72
669.229	10.5
669.462	11.79
669.695	13.08
669.929	12.03
670.162	13.8
670.395	12.45
670.629	13.95
670.862	16.71
671.095	12.19
671.328	12.78
671.561	10.48
671.795	11.7
672.028	14.15
672.261	14.48
672.494	15.25
672.727	14.4
672.96	15.09
673.193	13.3
673.426	17.83
673.659	19.83
673.892	19.73
674.125	18.4
674.358	17.16
674.591	17.64
674.824	17.9
675.057	18.13
675.29	17.23
675.523	17.6
675.755	17.83
675.988	17.9
676.221	20.2
676.454	20.7
676.687	20.78
676.919	18.9
677.152	17.92
677.385	17.15
677.617	18.22
677.85	19.42
678.083	18.16
678.315	19.94
678.548	18.6
678.78	17.99
679.013	16.46
679.246	16.52
679.478	18.86
679.711	16.22
679.943	17.99
680.175	15.55
680.408	18.59
680.64	15.3
680.873	14.12
681.105	14.86
681.338	18.56
681.57	18.54
681.802	18.46
682.034	18.6
682.267	21.71
682.499	23.76
682.731	21.48
682.964	19.59
683.196	18.37
683.428	15.87
683.66	13.64
683.892	16.06
684.124	19.29
684.356	22.79
684.589	22.56
684.821	20.41
685.053	19.76
685.285	19.69
685.517	21.83
685.749	21.88
685.981	22.22
686.213	23.21
686.445	23.63
686.676	18.37
686.908	19.08
687.14	17.51
687.372	17.21
687.604	14.94
687.836	14.84
688.068	15.63
688.299	16.25
688.531	14.6
688.763	18.93
688.995	18.16
689.226	20.12
689.458	17.56
689.69	15.96
689.921	14.73
690.153	16.05
690.384	18.21
690.616	17.45
690.848	18.69
691.079	13.35
691.311	10.6
691.542	7.87
691.774	7.23
692.005	9.95
692.237	14.48
692.468	12.56
692.699	12.52
692.931	13.65
693.162	10.84
693.393	9.44
693.625	7.15
693.856	9.86
694.087	10.73
694.319	12.48
694.55	12.22
694.781	10.44
695.012	10.07
695.243	7.74
695.475	6.76
695.706	6.78
695.937	5.18
696.168	4.42
696.399	2.97
696.63	3.74
696.861	3.01
697.092	8.82
697.323	9.92
697.554	9.7
697.785	11.11
698.016	12.1
698.247	12.48
698.478	14.29
698.709	15.63
698.94	17.88
699.171	18.7
699.401	13.64
699.632	16.3
699.863	12.86
700.094	12.69
700.325	16.75
700.555	18.64
700.786	21.62
701.017	21.01
701.247	19.48
701.478	17.67
701.709	19.52
701.939	18.64
702.17	20.81
702.401	23.45
702.631	23.9
702.862	22.32
703.092	18.42
703.323	22.17
703.553	22.72
703.784	22.03
704.014	22.64
704.244	17.02
704.475	16.93
704.705	16.21
704.936	16.75
705.166	16.12
705.396	16.93
705.627	15.97
705.857	17.15
706.087	16.05
706.317	12.59
706.548	11.02
706.778	10.11
707.008	11.14
707.238	11.5
707.468	10.25
707.698	7.62
707.928	5.54
708.158	4.25
708.389	3.07
708.619	2.35
708.849	0.34
709.079	2.78
709.309	0.38
709.539	-3.77
709.768	-3.7
709.998	-1.19
710.228	-1.42
710.458	-3.61
710.688	-6.54
710.918	-5.77
711.148	-6.6
711.378	-5.77
711.607	-7.41
711.837	-6.14
712.067	-6.42
712.297	-5.75
712.526	-5.31
712.756	-3.26
712.986	-7.65
713.215	-9.04
713.445	-7.69
713.674	-5.85
713.904	-5.85
714.134	-3.27
714.363	-4
714.593	-4.89
714.822	-4.82
715.052	-3.87
715.281	-2.3
715.511	-2.14
715.74	-1.18
715.969	-1.79
716.199	-3.02
716.428	-2.28
716.657	-0.41
716.887	2.17
717.116	-0.34
717.345	2.08
717.575	2.51
717.804	4.41
718.033	3.4
718.262	4.04
718.492	4.97
718.721	6.99
718.95	5.8
719.179	4.17
719.408	3.72
719.637	0.74
719.866	-1.54
720.095	1.42
720.324	0.95
720.553	-3.42
720.782	-4.09
721.011	-3.78
721.24	-6.85
721.469	-7.9
721.698	-7.57
721.927	-6.52
722.156	-8.76
722.385	-9.34
722.613	-5.81
722.842	-5.81
723.071	-3.08
723.3	-0.98
723.529	-0.81
723.757	-0.25
723.986	-4.02
724.215	-4.64
724.443	-3.81
724.672	-1.27
724.901	-1.5
725.129	0.68
725.358	4.49
725.586	2.54
725.815	0.74
726.043	-1.21
726.272	-2.15
726.5	-1.23
726.729	0.4
726.957	-2.99
727.186	-5.83
727.414	-3.36
727.642	-1.59
727.871	-0.05
728.099	-0.28
728.327	0.45
728.556	2.95
728.784	4.24
729.012	1.49
729.241	3.84
729.469	2.54
729.697	-0.32
729.925	0.46
730.153	-1.55
730.381	-2.92
730.61	-3.69
730.838	-7.01
731.066	-5.79
731.294	-4.98
731.522	-7.62
731.75	-12.27
731.978	-11.96
732.206	-13.47
732.434	-16.43
732.662	-14.41
732.89	-16.57
733.118	-16.32
733.346	-16.35
733.573	-17.65
733.801	-16.23
734.029	-8.66
734.257	-6.88
734.485	-4.93
734.712	-3.41
734.94	-6.68
735.168	-4.47
735.396	-4.07
735.623	-6.27
735.851	-7.32
736.078	-5.39
736.306	-3.55
736.534	-3.25
736.761	-3.15
736.989	-3.58
737.216	-3.71
737.444	-5.15
737.671	-3.91
737.899	2.23
738.126	1.75
738.354	1.84
738.581	2.56
738.809	2.93
739.036	0.46
739.263	1.14
739.491	-0.23
739.718	-0.87
739.945	4.96
740.173	8.02
740.4	7.84
740.627	7.34
740.854	6.82
741.081	3.07
741.309	0.83
741.536	-3.25
741.763	-3.98
741.99	-1.45
742.217	-0.68
742.444	-1.47
742.671	0.52
742.898	1.06
743.125	-0.02
743.352	-4.2
743.579	-4.13
743.806	-3.61
744.033	-2.53
744.26	-2.07
744.487	-1.77
744.714	-1.96
744.941	-3.34
745.167	-0.03
745.394	-1.12
745.621	-0.56
745.848	0.96
746.075	4.7
746.301	7.87
746.528	11.75
746.755	9.95
746.981	8.31
747.208	8.87
747.435	12.03
747.661	12.66
747.888	14.2
748.114	13.12
748.341	16.33
748.567	18.39
748.794	18.18
749.02	17.07
749.247	13.06
749.473	12.92
749.7	12.32
749.926	11.68
750.152	15.8
750.379	16.75
750.605	17.97
750.831	17.51
751.058	15.41
751.284	14.27
751.51	16.78
751.737	18.83
751.963	16.49
752.189	13.94
752.415	13.81
752.641	13.34
752.867	12.46
753.094	9.15
753.32	8.03
753.546	6.02
753.772	8.19
753.998	7.53
754.224	6.78
754.45	5.65
754.676	3.81
754.902	1.41
755.128	2.15
755.354	1.75
755.579	3.2
755.805	4.11
756.031	2.6
756.257	2.92
756.483	2.71
756.709	1.08
756.934	2.5
757.16	0.29
757.386	0.71
757.612	-1.38
757.837	-2.55
758.063	0.91
758.289	4
758.514	2
758.74	-2.27
758.965	-3.73
759.191	-1.55
759.416	0.71
759.642	1.83
759.868	2.51
760.093	5.66
760.318	2.7
760.544	2
760.769	1.16
760.995	-0.43
761.22	-0.93
761.445	0.64
761.671	3.54
761.896	5.95
762.121	6.55
762.347	3.82
762.572	-0.25
762.797	-0.39
763.022	-0.04
763.248	3.61
763.473	4.56
763.698	4.21
763.923	3.53
764.148	2.29
764.373	0.95
764.598	2.21
764.823	3.19
765.048	-0.54
765.273	-3.74
765.498	-4.53
765.723	-4.02
765.948	-3.28
766.173	-5
766.398	-5.9
766.623	-7.99
766.848	-8.41
767.073	-10.08
767.298	-9.44
767.522	-9.52
767.747	-8.35
767.972	-7.74
768.197	-7.06
768.421	-7.13
768.646	-9.62
768.871	-12.65
769.095	-14.84
769.32	-11.44
769.545	-10.65
769.769	-9.8
769.994	-7.13
770.218	-10.4
770.443	-8.27
770.667	-6.58
770.892	-6.87
771.116	-6.24
771.341	-4
771.565	-4.31
771.79	-3.22
772.014	-1.85
772.238	-3.34
772.463	-0.04
772.687	2.01
772.911	0.98
773.136	-1.02
773.36	1.03
773.584	2.27
773.808	-0.13
774.033	-0.3
774.257	-0.91
774.481	-0.82
774.705	-2.67
774.929	-2.72
775.153	-2.59
775.377	-3.28
775.602	-3.33
775.826	-0.9
776.05	2.41
776.274	2.02
776.498	1.66
776.722	0.49
776.945	0.69
777.169	0.91
777.393	-2.27
777.617	-3.06
777.841	-2.46
778.065	-1.18
778.289	-2.49
778.512	-3.84
778.736	-4.03
778.96	-5.8
779.184	-3.06
779.407	-3.53
779.631	-2.3
779.855	-2.82
780.078	-1.25
780.302	-4.54
780.526	-6.8
780.749	-4.86
780.973	-3.24
781.196	-1.18
781.42	-3.34
781.643	-2.36
781.867	-0.56
782.09	-3.7
782.314	-5.45
782.537	-6.66
782.76	-7.91
782.984	-7.21
783.207	-8.82
783.431	-7.26
783.654	-7.6
783.877	-10.33
784.1	-11.23
784.324	-11.04
784.547	-11.86
784.77	-14.85
784.993	-17.19
785.216	-17.76
785.44	-15.9
785.663	-18.11
785.886	-14.51
786.109	-15.17
786.332	-15.58
786.555	-17.19
786.778	-14.53
787.001	-13.71
787.224	-11.52
787.447	-9.42
787.67	-9.2
787.893	-9.36
788.116	-10.28
788.339	-8.93
788.561	-9.7
788.784	-13.5
789.007	-14.24
789.23	-14.79
789.453	-13.83
789.675	-14.84
789.898	-15.99
790.121	-17.36
790.344	-18.13
790.566	-17.34
790.789	-15.93
791.012	-14.33
791.234	-12.25
791.457	-9.82
791.679	-8.84
791.902	-8.48
792.124	-7.43
792.347	-8.64
792.569	-8.43
792.792	-13.13
793.014	-9.38
793.237	-8.66
793.459	-8.32
793.681	-8.24
793.904	-9.87
794.126	-11.47
794.348	-11.95
794.571	-10.62
794.793	-12.28
795.015	-10.24
795.237	-9.24
795.46	-8.72
795.682	-7.55
795.904	-3.88
796.126	-3.21
796.348	-4.29
796.57	-1.75
796.792	-2
797.014	1.73
797.237	4.08
797.459	5.98
797.681	6.62
797.903	3.29
798.124	4.56
798.346	16.38
798.568	17.87
798.79	21.67
799.012	22.68
799.234	23.38
799.456	25.22
799.678	27.91
799.899	24.64
800.121	21.53
800.343	20.88
800.565	21.57
800.786	23.33
801.008	25.09
801.23	24.38
801.451	24.91
801.673	24.68
801.895	23.61
802.116	24.37
802.338	27.31
802.559	26.87
802.781	23.09
803.002	25.65
803.224	28.21
803.445	25.23
803.667	26.65
803.888	24.66
804.109	24.28
804.331	23.39
804.552	23
804.773	25.82
804.995	23.16
805.216	9.09
805.437	7.74
805.658	4.3
805.88	2.02
806.101	2.07
806.322	1.05
806.543	0.71
806.764	-0.67
806.985	1.57
807.207	2.7
807.428	2.41
807.649	-1.47
807.87	-2.81
808.091	-2.11
808.312	-2.56
808.533	1.72
808.754	2.99
808.975	1.23
809.195	2.47
809.416	3.25
809.637	4.85
809.858	0.61
810.079	-0.57
810.3	1.73
810.52	0.79
810.741	-0.73
810.962	-3.49
811.183	-4.12
811.403	-2.89
811.624	-4.31
811.845	-3.14
812.065	-1.51
812.286	-0.38
812.506	0.86
812.727	1.49
812.948	2.6
813.168	5.8
813.389	3.81
813.609	4.82
813.83	5.34
814.05	3.39
814.27	4.25
814.491	8.2
814.711	6.49
814.931	4.06
815.152	3.09
815.372	1.34
815.592	0.19
815.813	-0.07
816.033	-3.48
816.253	-2.95
816.473	-4.44
816.694	-2.04
816.914	-1.1
817.134	-2.26
817.354	-4.21
817.574	-2.52
817.794	-2.45
818.014	-4.17
818.234	-5.98
818.454	-6.67
818.674	-9.62
818.894	-11.95
819.114	-9.75
819.334	-9.85
819.554	-7.87
819.774	-5.77
819.994	-9.11
820.214	-9.12
820.433	-9.45
820.653	-11.59
820.873	-8.95
821.093	-8.74
821.312	-11.6
821.532	-9.15
821.752	-5.71
821.972	-7.02
822.191	-6.06
822.411	-8.29
822.63	-8.33
822.85	-6.65
823.07	-9.25
823.289	-8.33
823.509	-10.24
823.728	-8.41
823.948	-9.61
824.167	-10.27
824.387	-12.13
824.606	-10.71
824.825	-11.3
825.045	-9.3
825.264	-8.06
825.483	-6.29
825.703	-4.87
825.922	-8.33
826.141	-9.82
826.361	-10.73
826.58	-14.95
826.799	-16.68
827.018	-15.14
827.237	-13.66
827.456	-11.69
827.676	-11.6
827.895	-12.11
828.114	-8.59
828.333	-8.25
828.552	-9.16
828.771	-7.45
828.99	-10.94
829.209	-9.82
829.428	-5.82
829.647	-6.34
829.866	-4
830.084	-3.39
830.303	-2.3
830.522	-4.59
830.741	-3.7
830.96	-3.09
831.179	-1.89
831.397	-2.81
831.616	-1.35
831.835	-2.44
832.053	-1.35
832.272	-0.68
832.491	0.81
832.709	0.38
832.928	1.98
833.147	2.95
833.365	4.91
833.584	8.5
833.802	11.03
834.021	10.56
834.239	11.3
834.458	9.46
834.676	6.49
834.894	3.84
835.113	2.37
835.331	1.61
835.55	0.78
835.768	2.66
835.986	2.99
836.204	-0.89
836.423	-0.63
836.641	-2.19
836.859	-3.19
837.077	-2.58
837.296	-1.14
837.514	-1.88
837.732	-3.24
837.95	-3.94
838.168	-1.01
838.386	-1.84
838.604	0.41
838.822	0.71
839.04	-0.43
839.258	0.77
839.476	3.33
839.694	3.39
839.912	1.16
840.13	0.43
840.348	2.62
840.566	-0.93
840.783	0.32
841.001	-0.98
841.219	-0.4
841.437	1.25
841.655	1.48
841.872	1.01
842.09	-0
842.308	1.25
842.525	1.23
842.743	2.16
842.961	1.87
843.178	0.28
843.396	3.66
843.613	5.46
843.831	6.46
844.048	5.95
844.266	7.14
844.483	7.88
844.701	6.45
844.918	4.97
845.136	4.04
845.353	2.58
845.57	2.62
845.788	6.28
846.005	2.71
846.222	0.8
846.439	1.2
846.657	3.07
846.874	3.16
847.091	0.78
847.308	2.28
847.526	0.77
847.743	1.33
847.96	-0.06
848.177	-0.09
848.394	0.86
848.611	0.39
848.828	0.1
849.045	-0.4
849.262	-0.47
849.479	-0.99
849.696	-1.2
849.913	-3.61
850.13	-8.25
850.347	-7.44
850.564	-7.19
850.78	-10.31
850.997	-12.34
851.214	-11.43
851.431	-10.58
851.647	-12.06
851.864	-10.84
852.081	-10.22
852.298	-14
852.514	-15.87
852.731	-14.03
852.948	-10.92
853.164	-9.95
853.381	-11.67
853.597	-13.04
853.814	-14.37
854.03	-17.12
854.247	-14.77
854.463	-14.83
854.68	-14.59
854.896	-13.48
855.113	-14.94
855.329	-12.85
855.545	-10.72
855.762	-11.41
855.978	-14.6
856.194	-17.08
856.411	-14.47
856.627	-11.53
856.843	-10.81
857.059	-7.47
857.275	-11.33
857.492	-8.67
857.708	-6.51
857.924	-6.05
858.14	-2.97
858.356	-5.14
858.572	-5.89
858.788	-7.39
859.004	-5.48
859.22	-7.26
859.436	-7.19
859.652	-9.36
859.868	-9.95
860.084	-10.02
860.3	-9.68
860.516	-9.61
860.731	-8.53
860.947	-12.05
861.163	-11.84
861.379	-10.96
861.595	-10.36
861.81	-8.81
862.026	-9.29
862.242	-8.94
862.457	-8.76
862.673	-7.88
862.889	-5.58
863.104	-5.34
863.32	-5.06
863.535	-3.58
863.751	-9.29
863.966	-5.43
864.182	-3.12
864.397	-2.43
864.613	-3.95
864.828	-6.31
865.044	-4.61
865.259	-2.71
865.474	-2.79
865.69	-0.94
865.905	-0.64
866.12	-2.53
866.336	-2.71
866.551	-2.01
866.766	-3.81
866.981	-4.05
867.196	-4.59
867.412	-4.05
867.627	-3.71
867.842	-4.52
868.057	-3.87
868.272	-5.07
868.487	-5.59
868.702	-7.13
868.917	-7.65
869.132	-6.14
869.347	-4.12
869.562	-6.98
869.777	-7.86
869.992	-9.07
870.207	-9.51
870.422	-9.41
870.636	-12.9
870.851	-14.94
871.066	-17.08
871.281	-17.25
871.495	-17.54
871.71	-14.42
871.925	-16.29
872.14	-17.05
872.354	-18.55
872.569	-19.79
872.783	-16.69
872.998	-16.47
873.213	-17.63
873.427	-13.8
873.642	-12.3
873.856	-12.39
874.071	-12.21
874.285	-12.45
874.5	-13.48
874.714	-16.32
874.928	-17.04
875.143	-17.99
875.357	-18.4
875.571	-19.18
875.786	-18.53
876	-15.04
876.214	-12.01
876.429	-14.85
876.643	-13.6
876.857	-11.48
877.071	-10.23
877.285	-9.27
877.499	-12.98
877.714	-10.18
877.928	-7.29
878.142	-9.16
878.356	-11.8
878.57	-10.82
878.784	-10.11
878.998	-11.82
879.212	-8.75
879.426	-11.7
879.639	-11.19
879.853	-12.79
880.067	-13.34
880.281	-15.64
880.495	-13.65
880.709	-12.16
880.922	-11.33
881.136	-10.1
881.35	-7.29
881.564	-8.08
881.777	-9.93
881.991	-8.35
882.205	-5.12
882.418	-5.84
882.632	-9.64
882.845	-11.15
883.059	-10.27
883.273	-11.47
883.486	-14.47
883.7	-12.56
883.913	-11.73
884.126	-9.87
884.34	-13.76
884.553	-15.17
884.767	-11.16
884.98	-10.8
885.193	-12.66
885.407	-13.69
885.62	-11.93
885.833	-12.17
886.046	-10.63
886.26	-11.25
886.473	-12.2
886.686	-12.46
886.899	-9.63
887.112	-11.54
887.326	-13.52
887.539	-12.95
887.752	-11.84
887.965	-14.26
888.178	-13.05
888.391	-12
888.604	-12.92
888.817	-15.82
889.03	-14.84
889.243	-16.31
889.455	-17.82
889.668	-16.65
889.881	-12.54
890.094	-12.21
890.307	-14.54
890.52	-13.71
890.732	-12.11
890.945	-13.12
891.158	-12.43
891.37	-13.89
891.583	-13.29
891.796	-9.41
892.008	-10.92
892.221	-12.36
892.434	-15.86
892.646	-16.18
892.859	-16.55
893.071	-14.54
893.284	-12.98
893.496	-13.51
893.709	-12.56
893.921	-12.04
894.133	-12.16
894.346	-13.95
894.558	-13.49
894.771	-13.73
894.983	-11.37
895.195	-9.39
895.407	-8.49
895.62	-12.12
895.832	-10.37
896.044	-8.04
896.256	-9.15
896.468	-12.47
896.681	-10.97
896.893	-10.4
897.105	-10.02
897.317	-11.36
897.529	-7.41
897.741	-6.76
897.953	-4.73
898.165	-6.22
898.377	-9.73
898.589	-7.11
898.801	-6.15
899.013	-2.9
899.224	-0.85
899.436	0.61
899.648	-0.58
899.86	-3.55
900.072	-0.68
900.283	0.21
900.495	0.96
900.707	1.16
900.919	-0.14
901.13	1.34
901.342	-0.12
901.554	0.15
901.765	-0.03
901.977	-2.58
902.188	-2.41
902.4	-3.93
902.611	-4.77
902.823	-6.33
903.034	-8.51
903.246	-10.33
903.457	-9.56
903.669	-11.49
903.88	-10.91
904.091	-12.13
904.303	-11.88
904.514	-14.68
904.725	-13.46
904.936	-12.51
905.148	-12.85
905.359	-11.16
905.57	-12.4
905.781	-15.38
905.992	-16.27
906.204	-14.52
906.415	-14.17
906.626	-17.82
906.837	-16.77
907.048	-17.77
907.259	-18.36
907.47	-19.18
907.681	-21.25
907.892	-17.78
908.103	-20.22
908.314	-23.06
908.525	-20.94
908.735	-20.91
908.946	-21.89
909.157	-22.2
909.368	-18.97
909.579	-16.91
909.789	-18.43
910	-21.05
910.211	-18.51
910.421	-18.68
910.632	-17.96
910.843	-21.34
911.053	-17.5
911.264	-15.17
911.475	-16.34
911.685	-15.22
911.896	-14.8
912.106	-13.15
912.317	-14.59
912.527	-13.2
912.737	-14.47
912.948	-12.69
913.158	-11.02
913.369	-13.22
913.579	-9.99
913.789	-9.45
914	-6.01
914.21	-5.06
914.42	-5.93
914.63	-5.65
914.841	-5.72
915.051	-3.34
915.261	-1.54
915.471	2.13
915.681	1.81
915.891	1.87
916.101	0.57
916.311	1.38
916.521	1.95
916.731	1.95
916.941	3.74
917.151	2.72
917.361	4.73
917.571	0.62
917.781	-0.45
917.991	-2.09
918.201	-3
918.411	-6.36
918.621	-7.58
918.83	-5.92
919.04	-7.49
919.25	-4.97
919.46	-3.43
919.669	-6.16
919.879	-5.41
920.089	-8.05
920.298	-9.96
920.508	-9.79
920.717	-7.87
920.927	-9.04
921.136	-8.69
921.346	-8.25
921.555	-11.91
921.765	-11.74
921.974	-14.8
922.184	-16.4
922.393	-17.21
922.603	-17.85
922.812	-14.72
923.021	-15.03
923.23	-17.35
923.44	-20.11
923.649	-19.7
923.858	-20.12
924.067	-19.72
924.277	-22.15
924.486	-18.63
924.695	-18.71
924.904	-15.81
925.113	-15.98
925.322	-13.66
925.531	-12.97
925.74	-14.58
925.949	-16.81
926.158	-14.12
926.367	-14.51
926.576	-14.12
926.785	-12.7
926.994	-14.09
927.203	-14.96
927.412	-15.86
927.621	-15.75
927.83	-13.19
928.038	-11.9
928.247	-13.63
928.456	-12.38
928.665	-12.37
928.873	-11.33
929.082	-9.27
929.291	-9.9
929.499	-8.25
929.708	-9.56
929.916	-8.16
930.125	-8.9
930.333	-10.15
930.542	-7.23
930.75	-4.45
930.959	-4.43
931.167	-4.76
931.376	-6.96
931.584	-5.68
931.793	-6.69
932.001	-7.49
932.209	-10.23
932.418	-11.95
932.626	-14.95
932.834	-16.76
933.042	-18.51
933.251	-19.18
933.459	-19.78
933.667	-19.98
933.875	-20.18
934.083	-19.41
934.291	-19.48
934.499	-19.88
934.707	-19.71
934.915	-20.06
935.123	-15.9
935.331	-16.21
935.539	-17.78
935.747	-18.79
935.955	-19.61
936.163	-19.01
936.371	-19.4
936.579	-17.52
936.787	-16.51
936.995	-19.08
937.202	-21.09
937.41	-21.37
937.618	-21.92
937.826	-20.65
938.033	-25.23
938.241	-27.69
938.449	-24.84
938.656	-21.23
938.864	-21.14
939.071	-20.92
939.279	-16.64
939.486	-14.38
939.694	-13.95
939.901	-15.47
940.109	-15.06
940.316	-13.69
940.524	-15.19
940.731	-17.45
940.939	-15.54
941.146	-15.35
941.353	-15.82
941.561	-17.91
941.768	-19.66
941.975	-17.61
942.182	-17.38
942.39	-17.02
942.597	-12.48
942.804	-12.12
943.011	-13.37
943.218	-12.96
943.425	-12.04
943.632	-11.35
943.839	-12.73
944.046	-13.26
944.253	-12.39
944.46	-11.86
944.667	-7.73
944.874	-9.73
945.081	-9.42
945.288	-7.38
945.495	-4.42
945.702	-6.08
945.909	-8.46
946.115	-6.58
946.322	-7.18
946.529	-8.98
946.736	-9.62
946.942	-8.6
947.149	-8.53
947.356	-10.44
947.562	-12.16
947.769	-12.82
947.976	-12.99
948.182	-11.87
948.389	-13.07
948.595	-13.91
948.802	-13.48
949.008	-15.82
949.215	-15.01
949.421	-15.19
949.628	-16.08
949.834	-16.75
950.04	-17.3
950.247	-12.06
950.453	-10.16
950.659	-12.16
950.865	-9.51
951.072	-13.41
951.278	-9.6
951.484	-10.9
951.69	-14.6
951.896	-15.79
952.103	-18.05
952.309	-15.8
952.515	-16.78
952.721	-13.56
952.927	-12.03
953.133	-12.54
953.339	-12.48
953.545	-12.61
953.751	-12.22
953.957	-9.08
954.163	-9.69
954.369	-9.45
954.574	-10.48
954.78	-10.23
954.986	-8.55
955.192	-6.23
955.398	-7.23
955.603	-10.46
955.809	-8.91
956.015	-7.92
956.22	-6.48
956.426	-5.93
956.632	-10.13
956.837	-10.85
957.043	-10.22
957.248	-9.19
957.454	-8.63
957.66	-12.52
957.865	-12.09
958.07	-10.05
958.276	-12.57
958.481	-12.7
958.687	-13.8
958.892	-14.76
959.097	-14.04
959.303	-14.16
959.508	-15.06
959.713	-15.18
959.919	-14.46
960.124	-14.55
960.329	-13.88
960.534	-10.93
960.739	-9.22
960.945	-7.72
961.15	-8.99
961.355	-10.87
961.56	-15.21
961.765	-17.11
961.97	-16.05
962.175	-14.8
962.38	-18.37
962.585	-17.24
962.79	-17.99
962.995	-17.03
963.2	-18.33
963.404	-18.22
963.609	-21.05
963.814	-22.8
964.019	-24.78
964.224	-27.96
964.428	-26.62
964.633	-24.08
964.838	-21.23
965.042	-21.85
965.247	-24.06
965.452	-26.49
965.656	-24.68
965.861	-22.86
966.066	-24.52
966.27	-22.58
966.475	-18.48
966.679	-23.12
966.884	-22.09
967.088	-23.58
967.292	-23.84
967.497	-20.88
967.701	-20.96
967.906	-18.62
968.11	-15.23
968.314	-11.32
968.518	-13.37
968.723	-9.96
968.927	-9.39
969.131	-8.75
969.335	-7.54
969.539	-7.06
969.744	-5.74
969.948	-3.74
970.152	-1.03
970.356	-0.29
970.56	1.37
970.764	0.03
970.968	2.76
971.172	1.48
971.376	3.14
971.58	5.34
971.784	7.77
971.988	4.95
972.192	8.2
972.395	8.83
972.599	5.81
972.803	3.33
973.007	6.48
973.21	6.64
973.414	5.46
973.618	5.03
973.822	3.9
974.025	4.62
974.229	3.83
974.432	0.1
974.636	-1.77
974.84	0.21
975.043	1.2
975.247	-1.69
975.45	-2.88
975.654	-3.09
975.857	-1.23
976.06	-1.44
976.264	-2.91
976.467	-1.4
976.671	-1.07
976.874	-0.54
977.077	-0.24
977.28	-1.67
977.484	-3.21
977.687	-4.94
977.89	-2.62
978.093	-3.75
978.297	-2.5
978.5	-5.6
978.703	-4.36
978.906	-2.37
979.109	-2.92
979.312	-2.07
979.515	-4.24
979.718	-3.81
979.921	-4.21
980.124	-6.95
980.327	-7.29
980.53	-8.33
980.733	-5.29
980.936	-3.69
981.138	-6.23
981.341	-6.46
981.544	-6.35
981.747	-6.57
981.949	-7.37
982.152	-7.49
982.355	-8.86
982.558	-5.08
982.76	-9.15
982.963	-8.75
983.165	-8.48
983.368	-8.89
983.571	-9.92
983.773	-7.51
983.976	-6.88
984.178	-6.76
984.381	-7.9
984.583	-10.79
984.785	-10.79
984.988	-9.88
985.19	-9.89
985.392	-10.58
985.595	-13.46
985.797	-12.76
985.999	-10.41
986.202	-8.23
986.404	-8.91
986.606	-6.02
986.808	-6.66
987.01	-5.72
987.212	-6.15
987.415	-6.98
987.617	-6.94
987.819	-7.06
988.021	-5.53
988.223	-7.6
988.425	-8.35
988.627	-8.26
988.829	-12.97
989.031	-10.3
989.232	-11.87
989.434	-10.89
989.636	-10.75
989.838	-10.83
990.04	-10.13
990.242	-9.92
990.443	-13.08
990.645	-10.15
990.847	-6.31
991.048	-6.17
991.25	-8.06
991.452	-7.71
991.653	-8.99
991.855	-8.42
992.057	-10.04
992.258	-10.28
992.46	-12.34
992.661	-9.93
992.863	-11.83
993.064	-9.52
993.265	-11.16
993.467	-13.61
993.668	-11.66
993.87	-11.22
994.071	-10.74
994.272	-10.24
994.473	-8.67
994.675	-7.37
994.876	-6.93
995.077	-6.96
995.278	-6.5
995.48	-5.96
995.681	-6.82
995.882	-5.02
996.083	-4.51
996.284	-8.09
996.485	-8
996.686	-8.48
996.887	-8.93
997.088	-13.19
997.289	-15.89
997.49	-15.3
997.691	-15.89
997.892	-15.43
998.092	-11.88
998.293	-11.66
998.494	-11.62
998.695	-11.59
998.896	-9.85
999.096	-10.81
999.297	-11.09
999.498	-12.45
999.698	-14.51
999.899	-16.53
1000.1	-19.37
1000.3	-19.58
1000.501	-21.13
1000.701	-20.91
1000.902	-22.39
1001.102	-22.54
1001.303	-19.43
1001.503	-21.49
1001.704	-19.69
1001.904	-21.3
1002.105	-21.61
1002.305	-21.91
1002.505	-22.85
1002.706	-23.03
1002.906	-22.87
1003.106	-24.79
1003.306	-22.51
1003.507	-19.79
1003.707	-20.88
1003.907	-19.18
1004.107	-17.61
1004.307	-18.74
1004.507	-15.63
1004.707	-17.03
1004.907	-17.73
1005.107	-18.82
1005.308	-16.88
1005.507	-18.36
1005.707	-16.39
1005.907	-15.09
1006.107	-12.85
1006.307	-11.43
1006.507	-12.54
1006.707	-11.37
1006.907	-11.39
1007.106	-10.68
1007.306	-11.3
1007.506	-11.47
1007.706	-10.99
1007.905	-14.38
1008.105	-13.43
1008.305	-14.09
1008.504	-13.47
1008.704	-7.7
1008.903	-8.12
1009.103	-5.62
1009.303	-7.06
1009.502	-6.35
1009.702	-8.35
1009.901	-7.63
1010.1	-10.14
1010.3	-9.87
1010.499	-11.93
1010.699	-13.86
1010.898	-14.87
1011.097	-14.07
1011.296	-13.41
1011.496	-15.4
1011.695	-15.66
1011.894	-16.02
1012.093	-14.49
1012.293	-14.94
1012.492	-14.45
1012.691	-15.06
1012.89	-15.71
1013.089	-17.77
1013.288	-16.92
1013.487	-16.01
1013.686	-15.4
1013.885	-16.38
1014.084	-15.02
1014.283	-14.97
1014.482	-15.55
1014.681	-16.29
1014.88	-21.44
1015.078	-21.16
1015.277	-24.43
1015.476	-25.28
1015.675	-25.97
1015.873	-23.15
1016.072	-25.19
1016.271	-22.45
1016.47	-25.08
1016.668	-23.66
1016.867	-25.89
1017.065	-26.28
1017.264	-27.33
1017.463	-28.36
1017.661	-28.03
1017.86	-27.9
1018.058	-27.45
1018.256	-28.87
1018.455	-30.88
1018.653	-31.83
1018.852	-30.37
1019.05	-31.13
1019.248	-31.47
1019.447	-32.96
1019.645	-32.76
1019.843	-34.67
1020.041	-32.91
1020.24	-32.88
1020.438	-29.79
1020.636	-31.39
1020.834	-33.12
1021.032	-28.99
1021.23	-29.5
1021.428	-27.1
1021.626	-23.16
1021.824	-23.75
1022.022	-26.03
1022.22	-22.56
1022.418	-21.72
1022.616	-20.97
1022.814	-21.27
1023.012	-21.05
1023.21	-18.94
1023.408	-19.18
1023.606	-19.59
1023.803	-14.55
1024.001	-13.64
1024.199	-16.55
1024.397	-14.78
1024.594	-13.94
1024.792	-14.44
1024.99	-13.48
1025.187	-14.55
1025.385	-9.73
1025.582	-8.72
1025.78	-10.02
1025.977	-9.1
1026.175	-9.56
1026.372	-9.46
1026.57	-12.27
1026.767	-9.04
1026.965	-8.58
1027.162	-9.11
1027.359	-10.25
1027.557	-10.5
1027.754	-13.69
1027.951	-14.21
1028.148	-11.4
1028.346	-13.41
1028.543	-16.84
1028.74	-17.57
1028.937	-19.31
1029.134	-18.71
1029.331	-20.26
1029.528	-18.55
1029.725	-18.14
1029.923	-22.7
1030.12	-20.1
1030.317	-18.07
1030.513	-17.41
1030.71	-15.23
1030.907	-13.59
1031.104	-13.89
1031.301	-14.27
1031.498	-16.25
1031.695	-17.22
1031.892	-17.1
1032.088	-18.88
1032.285	-20.88
1032.482	-21.82
1032.678	-24.76
1032.875	-28.46
1033.072	-27.85
1033.268	-28.79
1033.465	-27.25
1033.662	-29.56
1033.858	-28.18
1034.055	-27.1
1034.251	-25.79
1034.448	-27
1034.644	-26.29
1034.84	-23.37
1035.037	-21.76
1035.233	-22.12
1035.43	-20.84
1035.626	-21.68
1035.822	-21.5
1036.019	-21.37
1036.215	-24.79
1036.411	-25.9
1036.607	-27.45
1036.803	-30.55
1037	-30.84
1037.196	-32.8
1037.392	-33.27
1037.588	-35.63
1037.784	-34.51
1037.98	-35.06
1038.176	-33.32
1038.372	-32.84
1038.568	-30.48
1038.764	-27.15
1038.96	-23.03
1039.156	-24.36
1039.352	-25.94
1039.547	-24.5
1039.743	-22.32
1039.939	-21.68
1040.135	-22.23
1040.331	-24.77
1040.526	-21.41
1040.722	-22.86
1040.918	-25.54
1041.113	-27.11
1041.309	-26.42
1041.505	-28.22
1041.7	-28.17
1041.896	-28.21
1042.091	-28.23
1042.287	-26.95
1042.482	-25.91
1042.678	-26.16
1042.873	-24.92
1043.069	-25.7
1043.264	-24.62
1043.459	-22.27
1043.655	-20.56
1043.85	-21.92
1044.045	-20.17
1044.24	-20.91
1044.436	-18.53
1044.631	-19.68
1044.826	-20.87
1045.021	-24.48
1045.216	-22.76
