Data from FLMT021711__14__17-55-48-248.txt Node

Date: Tue Nov 05 17:55:48 CET 2024
User: Etudiants TP
Spectrometer: FLMT02171
Trigger mode: 0
Integration Time (sec): 1.000000E-1
Scans to average: 5
Electric dark correction enabled: true
Nonlinearity correction enabled: false
Boxcar width: 15
XAxis mode: Wavelengths
Number of Pixels in Spectrum: 3648
>>>>>Begin Spectral Data<<<<<
194.658	-63.68
194.923	-60.51
195.188	-54.17
195.453	-54.4
195.717	-48.3
195.982	-46.85
196.247	-45.29
196.512	-46.76
196.777	-46.04
197.042	-44.31
197.307	-44.37
197.572	-39.35
197.837	-40.04
198.101	-37.88
198.366	-35.44
198.631	-34.32
198.896	-28.33
199.161	-21.03
199.425	-14.84
199.69	-5.28
199.955	-5.42
200.22	-10.31
200.484	-12
200.749	-12.39
201.014	-11.68
201.278	-13.08
201.543	-12.69
201.807	-12.92
202.072	-10.65
202.337	-10.08
202.601	-9.65
202.866	-10.93
203.13	-9.56
203.395	-10.74
203.659	-10.32
203.924	-11.37
204.189	-10.21
204.453	-8.35
204.717	-6.89
204.982	-4.77
205.246	-2.94
205.511	-0.62
205.775	-2.27
206.04	3.48
206.304	3.5
206.568	6.48
206.833	7.06
207.097	6.77
207.361	7.08
207.626	10.87
207.89	12.24
208.154	13.4
208.419	16.93
208.683	17.33
208.947	21.49
209.211	21.28
209.476	21.8
209.74	22.23
210.004	22.47
210.268	23.48
210.532	25.72
210.796	26.87
211.061	28.03
211.325	27.73
211.589	26.27
211.853	27.71
212.117	26.42
212.381	26.46
212.645	26.17
212.909	27.47
213.173	23.71
213.437	23.85
213.701	24.59
213.965	25.63
214.229	20.73
214.493	21.19
214.757	19.42
215.021	18.92
215.285	23.47
215.549	26.08
215.813	24.03
216.077	22.3
216.34	24.41
216.604	22.9
216.868	24.07
217.132	23.95
217.396	23.56
217.659	25.04
217.923	21.03
218.187	20.5
218.451	19.11
218.714	16.99
218.978	14.91
219.242	15.98
219.505	17.24
219.769	18.6
220.033	18.88
220.296	20.76
220.56	20.14
220.824	18.11
221.087	17.79
221.351	19.08
221.614	18.16
221.878	17.56
222.142	14.72
222.405	15.22
222.669	16.78
222.932	11.64
223.196	10.22
223.459	7.46
223.722	8.29
223.986	7.59
224.249	6.8
224.513	6.54
224.776	6.85
225.04	6.43
225.303	5.87
225.566	5.6
225.83	6.58
226.093	9.78
226.356	8
226.62	6.48
226.883	7.74
227.146	8.77
227.409	8.63
227.673	6.19
227.936	5.07
228.199	4.7
228.462	2.29
228.725	1.48
228.989	0.96
229.252	1.53
229.515	6.69
229.778	5.58
230.041	5.44
230.304	3.67
230.567	5.71
230.83	4.19
231.093	8.1
231.356	7.89
231.619	13.5
231.882	11.65
232.145	14.13
232.408	13.08
232.671	11.8
232.934	10.85
233.197	8.79
233.46	8.6
233.723	10.23
233.986	8.47
234.249	5.82
234.512	7.47
234.775	11.14
235.037	10
235.3	10.9
235.563	10.76
235.826	11.89
236.089	13.08
236.351	12.8
236.614	15.25
236.877	17.34
237.14	19.47
237.402	19.51
237.665	13.54
237.928	12.55
238.19	10.82
238.453	15
238.716	13.23
238.978	12.99
239.241	11.07
239.503	13.51
239.766	8.47
240.029	5.71
240.291	7.46
240.554	7.95
240.816	6.46
241.079	7.44
241.341	7.86
241.604	6.06
241.866	2.06
242.129	3.63
242.391	5.79
242.653	4.64
242.916	4.33
243.178	4.2
243.441	5.42
243.703	4.42
243.965	1.17
244.228	1.36
244.49	0.49
244.752	1.37
245.015	0.53
245.277	3.26
245.539	2.1
245.801	3.58
246.064	3.51
246.326	2.57
246.588	1.89
246.85	3.8
247.112	3.61
247.374	5.75
247.637	7.93
247.899	6.6
248.161	8.63
248.423	3.63
248.685	4.79
248.947	5.57
249.209	5.7
249.471	7.57
249.733	8.47
249.995	8.37
250.257	7.03
250.519	5.58
250.781	9.75
251.043	8.62
251.305	10.61
251.567	11.88
251.829	12.16
252.091	12.72
252.353	8.94
252.615	10.62
252.876	8.36
253.138	7.87
253.4	2.62
253.662	3.97
253.924	5.88
254.185	8.54
254.447	8.66
254.709	7.42
254.971	7.38
255.232	9.06
255.494	6.86
255.756	3.84
256.017	5.89
256.279	5.46
256.541	6.66
256.802	6.27
257.064	6.77
257.326	5.56
257.587	5.02
257.849	5.78
258.11	8.9
258.372	8.5
258.633	9.41
258.895	6.94
259.156	4.93
259.418	2.23
259.679	-1.87
259.941	-3.76
260.202	-2.18
260.464	0.62
260.725	-0.27
260.987	-0.62
261.248	-2.27
261.509	-0.41
261.771	-2.34
262.032	-1.49
262.293	-1.91
262.555	-2.22
262.816	-3.05
263.077	-4.85
263.338	-6.53
263.6	-5.48
263.861	-5.06
264.122	-5.77
264.383	-4.1
264.645	-4.54
264.906	-6.25
265.167	-5.09
265.428	-5.65
265.689	-3.95
265.95	-7.03
266.211	-5.67
266.473	-4.94
266.734	-8.34
266.995	-10.81
267.256	-9.09
267.517	-4.65
267.778	-1.86
268.039	-1.58
268.3	-1.45
268.561	-3.61
268.822	-0.98
269.083	-1.97
269.344	-2.23
269.604	-3.34
269.865	-2.35
270.126	-6.8
270.387	-6.48
270.648	-3.34
270.909	-2.82
271.17	-2.77
271.43	-6.2
271.691	-9.16
271.952	-11.12
272.213	-10.17
272.473	-11.3
272.734	-9.06
272.995	-5.76
273.256	-5.6
273.516	-3.15
273.777	-6.34
274.038	-4.07
274.298	-6.52
274.559	-7.08
274.82	-1.07
275.08	1.28
275.341	1.91
275.601	-0.1
275.862	-2.7
276.122	-0.64
276.383	-0.27
276.643	2.61
276.904	0.31
277.164	2.85
277.425	2.1
277.685	6.82
277.946	7.29
278.206	9.69
278.467	9.7
278.727	7.55
278.987	7.21
279.248	6.49
279.508	8.51
279.768	11.86
280.029	13.91
280.289	10.9
280.549	9.16
280.81	7.81
281.07	5.48
281.33	7.68
281.59	5.56
281.851	8.38
282.111	8.42
282.371	7.57
282.631	9.09
282.891	6.78
283.151	5.88
283.412	4.04
283.672	4.2
283.932	4.22
284.192	5.24
284.452	3.85
284.712	1.11
284.972	0.57
285.232	-2.01
285.492	1.7
285.752	-1.06
286.012	5.86
286.272	7.68
286.532	6.27
286.792	7.31
287.052	9.35
287.312	9.8
287.571	8.94
287.831	9.05
288.091	6.26
288.351	7.68
288.611	12.42
288.871	12.94
289.13	13.68
289.39	9.65
289.65	11.79
289.91	8.7
290.17	11.07
290.429	13.28
290.689	11.09
290.949	7.37
291.208	8.27
291.468	11.53
291.728	11.69
291.987	14.05
292.247	11.12
292.506	13.14
292.766	16.34
293.026	14.27
293.285	15.99
293.545	17.05
293.804	17.04
294.064	11.07
294.323	8.81
294.583	8.64
294.842	9.15
295.102	8.98
295.361	9.52
295.621	10.26
295.88	10.82
296.139	10.65
296.399	10
296.658	3.67
296.917	3.12
297.177	-0.05
297.436	0.74
297.695	-1.04
297.955	0.98
298.214	-1.44
298.473	-1.01
298.732	0.92
298.992	5.71
299.251	5.86
299.51	2.58
299.769	3.37
300.028	1.82
300.287	3.09
300.547	2.26
300.806	-0.61
301.065	3.35
301.324	5.31
301.583	2.43
301.842	-2.25
302.101	-3.69
302.36	-2.82
302.619	-2.44
302.878	-2.55
303.137	-6.04
303.396	-5.1
303.655	-3.26
303.914	-6.91
304.173	-4.96
304.432	-4.79
304.691	-1.17
304.95	-3.3
305.208	2.56
305.467	2.99
305.726	2.51
305.985	4.66
306.244	6.66
306.503	7.17
306.761	6.86
307.02	3.55
307.279	3.08
307.537	3.67
307.796	0.11
308.055	-1.84
308.314	0.2
308.572	-0.72
308.831	0.97
309.09	0.79
309.348	-0.07
309.607	-0.75
309.865	2.85
310.124	3.15
310.382	4.47
310.641	5.06
310.9	3.87
311.158	5.68
311.417	5.03
311.675	5.65
311.933	7.11
312.192	8.07
312.45	7.91
312.709	7.99
312.967	7.8
313.226	6.89
313.484	6.73
313.742	5.77
314.001	3.18
314.259	2.32
314.517	2.83
314.776	3.5
315.034	5.65
315.292	4.13
315.55	1.28
315.809	2.61
316.067	3.39
316.325	1.47
316.583	2.48
316.841	1.72
317.1	0.78
317.358	-1.56
317.616	-2.07
317.874	-1.73
318.132	-2.84
318.39	-4.06
318.648	-5.26
318.906	-5.01
319.164	-6.13
319.422	-6.58
319.68	-8.86
319.938	-8.79
320.196	-8.81
320.454	-6.71
320.712	-6.85
320.97	-5.75
321.228	-8.97
321.486	-8.36
321.744	-7.44
322.002	-5.3
322.26	-6.94
322.517	-8
322.775	-10.5
323.033	-12.17
323.291	-10.25
323.549	-7.66
323.806	-6.81
324.064	-5.65
324.322	-5.49
324.58	-6.21
324.837	-3.33
325.095	-6.34
325.353	-4.85
325.61	-1.56
325.868	-2.72
326.126	-1.23
326.383	-1.53
326.641	-1.18
326.898	0.06
327.156	1.64
327.413	2.52
327.671	2.96
327.928	4.65
328.186	4.21
328.443	2.18
328.701	6.18
328.958	7.2
329.216	8.46
329.473	6.8
329.731	8.15
329.988	7.95
330.245	9.59
330.503	10.77
330.76	9.93
331.017	12.84
331.275	10.44
331.532	10.58
331.789	8.2
332.047	8.06
332.304	5.26
332.561	5.62
332.818	2.48
333.076	6.11
333.333	7.63
333.59	7.77
333.847	9.69
334.104	10
334.361	7.99
334.618	6.28
334.876	3.89
335.133	3.96
335.39	1.69
335.647	3.26
335.904	1
336.161	-0.78
336.418	0.07
336.675	-5.02
336.932	-4.84
337.189	-5
337.446	-2.95
337.703	-5.11
337.96	-9.76
338.216	-8.97
338.473	-12.22
338.73	-10.45
338.987	-10.54
339.244	-7.39
339.501	-10.1
339.757	-8.41
340.014	-7.4
340.271	-5.39
340.528	-5.44
340.785	-1.44
341.041	-2.27
341.298	-6.3
341.555	-7.64
341.811	-9.04
342.068	-11.73
342.325	-11.05
342.581	-8.78
342.838	-7.93
343.094	-8.67
343.351	-8.41
343.608	-11.22
343.864	-8.66
344.121	-6.37
344.377	-7.63
344.634	-8.24
344.89	-8.62
345.147	-8.96
345.403	-11.04
345.66	-10.41
345.916	-7.47
346.172	-10.6
346.429	-11.04
346.685	-12.56
346.942	-12.71
347.198	-16.35
347.454	-14.4
347.711	-14.13
347.967	-17.23
348.223	-16.07
348.48	-17.16
348.736	-13.76
348.992	-15.14
349.248	-12.29
349.504	-13.12
349.761	-12.21
350.017	-11.69
350.273	-11.09
350.529	-11.9
350.785	-10.1
351.041	-10.56
351.297	-9.72
351.554	-10.94
351.81	-13.49
352.066	-15.31
352.322	-15.06
352.578	-13.86
352.834	-15.05
353.09	-15.16
353.346	-14.13
353.602	-15.94
353.858	-15.07
354.114	-14.7
354.369	-13.01
354.625	-10.44
354.881	-12.6
355.137	-10.83
355.393	-10.39
355.649	-10.45
355.905	-9.56
356.16	-8.89
356.416	-6.78
356.672	-14.55
356.928	-13.94
357.183	-14.11
357.439	-13.46
357.695	-15.67
357.951	-10.65
358.206	-11.7
358.462	-11.86
358.718	-15.77
358.973	-14.09
359.229	-12.99
359.484	-10.94
359.74	-7.23
359.996	-5.91
360.251	-2.78
360.507	-3.53
360.762	-3.21
361.018	-1.65
361.273	-4.94
361.529	-3.86
361.784	-5.99
362.04	-4.55
362.295	-5.63
362.55	-5.19
362.806	-2.41
363.061	-1.28
363.316	-1
363.572	-0.8
363.827	1.6
364.082	-2.99
364.338	-4.23
364.593	-2.04
364.848	-0.58
365.104	-1.95
365.359	0.76
365.614	2.68
365.869	-0.95
366.124	0.72
366.38	-0.33
366.635	2.66
366.89	3.28
367.145	3.71
367.4	6.38
367.655	5.36
367.91	5.11
368.165	3
368.42	0.97
368.675	1.88
368.93	2.58
369.185	1.89
369.44	3.29
369.695	6.35
369.95	5.18
370.205	5.45
370.46	4.14
370.715	3.27
370.97	4.93
371.225	5.44
371.48	6.48
371.734	6.47
371.989	8.66
372.244	9.28
372.499	10.67
372.754	10.36
373.008	7.2
373.263	2.05
373.518	3.38
373.773	2.72
374.027	0.01
374.282	2.25
374.537	2.67
374.791	3.42
375.046	0.54
375.301	-1.65
375.555	-4.01
375.81	-2.4
376.064	-1.18
376.319	2.67
376.573	1.84
376.828	-1.74
377.082	3.56
377.337	1.12
377.591	-1.66
377.846	-0.32
378.1	2.15
378.355	2.87
378.609	2.41
378.863	-0.87
379.118	-0.23
379.372	-0.71
379.627	-3.29
379.881	-4.31
380.135	-5.03
380.389	-6.65
380.644	-7.29
380.898	-5.37
381.152	-3.07
381.407	-3.93
381.661	-3.07
381.915	-0.62
382.169	0.18
382.423	-0.94
382.677	-4.46
382.932	-4.13
383.186	-3.12
383.44	-1.31
383.694	0.36
383.948	-1.47
384.202	-2.76
384.456	0.16
384.71	2.18
384.964	-0.19
385.218	1.78
385.472	1.54
385.726	0.17
385.98	-1
386.234	-2.4
386.488	-5.19
386.742	-4.59
386.996	-7.42
387.249	-6.89
387.503	-4.38
387.757	-3.15
388.011	-2.41
388.265	-1.47
388.518	0.16
388.772	2.31
389.026	2.36
389.28	0.95
389.533	1.55
389.787	3.93
390.041	1.19
390.295	1.88
390.548	2.81
390.802	6.97
391.055	5.66
391.309	4.31
391.563	0.79
391.816	1.28
392.07	-0.1
392.323	-0.53
392.577	-0.1
392.83	1.98
393.084	7.13
393.337	11.69
393.591	12.95
393.844	13.33
394.098	18.14
394.351	21.54
394.604	22.97
394.858	25.26
395.111	25.55
395.364	23.48
395.618	25.73
395.871	23.85
396.124	21.59
396.378	20.77
396.631	20.74
396.884	19.12
397.137	18.32
397.391	17.81
397.644	14.2
397.897	14.78
398.15	14.92
398.403	17.48
398.657	15.27
398.91	15.33
399.163	15.99
399.416	16.87
399.669	16.06
399.922	15.59
400.175	13.45
400.428	12.16
400.681	11.8
400.934	7.15
401.187	5.32
401.44	5.03
401.693	3.6
401.946	-1.32
402.199	-5.86
402.452	-6.35
402.704	-9.57
402.957	-11.43
403.21	-9.05
403.463	-11.72
403.716	-10.75
403.969	-7.8
404.221	-8.68
404.474	-8.2
404.727	-5.56
404.98	-3.48
405.232	-2.64
405.485	-0.7
405.738	2.5
405.99	1.89
406.243	2.53
406.496	3.37
406.748	2.29
407.001	0.46
407.253	-0.35
407.506	-0.61
407.759	-0.11
408.011	-2.51
408.264	-0.91
408.516	-1.03
408.769	-3.12
409.021	-2.39
409.274	-1.64
409.526	0.54
409.778	0.38
410.031	4.75
410.283	4.76
410.536	10.12
410.788	8.32
411.04	6.81
411.293	8.76
411.545	9.15
411.797	6.85
412.049	7.04
412.302	7.83
412.554	8.8
412.806	6.99
413.058	4.18
413.311	4.82
413.563	2.44
413.815	3.47
414.067	0.66
414.319	1.23
414.571	3.39
414.823	2.66
415.075	2.3
415.328	2.69
415.58	5.3
415.832	7.83
416.084	8.36
416.336	7.67
416.588	11.63
416.84	10.47
417.091	12.07
417.343	9.93
417.595	12.64
417.847	12.47
418.099	12.13
418.351	11.12
418.603	13.67
418.855	15.08
419.106	15.22
419.358	16.24
419.61	16.19
419.862	17.7
420.114	16.09
420.365	15.52
420.617	17.73
420.869	16.51
421.12	15.52
421.372	15.61
421.624	14.03
421.875	13.5
422.127	10.74
422.379	10.13
422.63	12.76
422.882	11.64
423.133	12.39
423.385	12.22
423.636	13.25
423.888	14.4
424.139	15.2
424.391	13.4
424.642	10.78
424.894	9.57
425.145	8.66
425.396	4.82
425.648	6.54
425.899	6.04
426.151	6.16
426.402	6.36
426.653	6.05
426.905	6.04
427.156	4.05
427.407	4.8
427.658	3.21
427.91	1.63
428.161	0.36
428.412	-0.24
428.663	1.93
428.914	2.59
429.166	4.94
429.417	5.08
429.668	4.59
429.919	2.49
430.17	1.8
430.421	1.81
430.672	5.16
430.923	5.27
431.174	3.61
431.425	4.28
431.676	3.68
431.927	1.93
432.178	3.19
432.429	3.95
432.68	2.34
432.931	5.3
433.182	10.04
433.433	7.82
433.683	9.67
433.934	8.33
434.185	6.63
434.436	4.05
434.687	4.15
434.937	6.35
435.188	5.77
435.439	5.75
435.69	7.12
435.94	5.99
436.191	7.8
436.442	6.56
436.692	5.16
436.943	1.89
437.194	1.43
437.444	5.08
437.695	10.17
437.945	10.56
438.196	8.88
438.447	8.34
438.697	7.34
438.948	7.37
439.198	3.48
439.449	-0.54
439.699	0.5
439.949	-0.2
440.2	-0.32
440.45	1.15
440.701	-0.17
440.951	-1.13
441.201	-1.23
441.452	-3.1
441.702	-3.15
441.952	-0.14
442.203	1.72
442.453	0.08
442.703	1.44
442.953	1.2
443.204	2.09
443.454	-0.05
443.704	1.57
443.954	-2.23
444.204	-0.64
444.455	1.46
444.705	4.84
444.955	5.79
445.205	3.69
445.455	-0.06
445.705	0.51
445.955	1.39
446.205	-0.18
446.455	0.98
446.705	2.56
446.955	4.82
447.205	5.94
447.455	6.29
447.705	3.5
447.955	2.35
448.205	2.67
448.454	2.98
448.704	3.38
448.954	3.6
449.204	4.91
449.454	5.71
449.704	2.83
449.953	1.96
450.203	4.53
450.453	0.93
450.703	2.81
450.952	1.47
451.202	3.53
451.452	2.9
451.701	6.99
451.951	11.89
452.201	11.54
452.45	8.56
452.7	8.86
452.949	9.7
453.199	10.91
453.448	12.15
453.698	12.23
453.947	11.42
454.197	11.47
454.446	9.88
454.696	12.26
454.945	13.14
455.195	12.64
455.444	15.34
455.693	19.57
455.943	18.07
456.192	19.3
456.442	19.27
456.691	18.57
456.94	17.1
457.189	14.97
457.439	17.99
457.688	19.74
457.937	19.71
458.186	21.62
458.436	21.61
458.685	24.12
458.934	22.86
459.183	22.32
459.432	23.81
459.681	21.49
459.93	19.38
460.179	20.98
460.429	19.46
460.678	21.37
460.927	23.98
461.176	23.65
461.425	24.84
461.674	27.75
461.923	27.02
462.172	25.69
462.42	24.85
462.669	26.17
462.918	25.75
463.167	26.1
463.416	22.29
463.665	22.65
463.914	22.06
464.162	19.81
464.411	21.52
464.66	23.71
464.909	22.82
465.158	21.5
465.406	21.8
465.655	22.69
465.904	24.12
466.152	24.54
466.401	23.28
466.65	24.81
466.898	24.29
467.147	19.97
467.395	20.47
467.644	22.93
467.893	22
468.141	23.65
468.39	20.61
468.638	18.1
468.887	17.02
469.135	15.6
469.384	15.73
469.632	17.47
469.88	18.16
470.129	19.02
470.377	16.44
470.626	19.31
470.874	20.32
471.122	23.52
471.371	23.05
471.619	22.57
471.867	25.93
472.115	25.64
472.364	24.07
472.612	27.99
472.86	27.75
473.108	27.96
473.356	26.79
473.605	25.71
473.853	22.97
474.101	23.57
474.349	22.8
474.597	25.68
474.845	25.72
475.093	24.11
475.341	22.64
475.589	23.44
475.837	23.06
476.085	25.79
476.333	24.51
476.581	25.81
476.829	25.13
477.077	27.24
477.325	26.93
477.573	29.42
477.821	26.94
478.069	27.8
478.317	27.2
478.564	29.11
478.812	26.12
479.06	25.84
479.308	24.94
479.555	24.78
479.803	22.04
480.051	23.73
480.299	23.34
480.546	23.45
480.794	19.51
481.042	20.84
481.289	20.25
481.537	21.73
481.784	20.56
482.032	22.7
482.28	21.69
482.527	21.53
482.775	22.02
483.022	22.56
483.27	22.13
483.517	26.23
483.765	24.34
484.012	22.69
484.259	19.49
484.507	22.8
484.754	23.42
485.002	22.58
485.249	20.13
485.496	22.99
485.744	23.44
485.991	21
486.238	18.89
486.486	22.09
486.733	21.5
486.98	23.67
487.227	22.9
487.474	25.58
487.722	26.98
487.969	24.41
488.216	24.02
488.463	26.02
488.71	23.24
488.957	22.46
489.204	23.67
489.451	24.03
489.699	23.94
489.946	22.12
490.193	21.07
490.44	20.18
490.687	21.03
490.934	20.4
491.18	16.28
491.427	17.85
491.674	22.21
491.921	23.84
492.168	22.98
492.415	19.43
492.662	21.51
492.909	24.46
493.155	23.9
493.402	23.31
493.649	22.69
493.896	22.76
494.142	20.34
494.389	21.71
494.636	18.84
494.883	16.06
495.129	14.91
495.376	13.78
495.623	15.69
495.869	17.44
496.116	18.91
496.362	20.75
496.609	24.17
496.855	27.67
497.102	27.46
497.348	27.23
497.595	27.18
497.841	31.24
498.088	30.29
498.334	29.44
498.581	27.04
498.827	27.65
499.074	28.53
499.32	30.31
499.566	34.25
499.813	33.39
500.059	32.79
500.305	32.18
500.552	30.75
500.798	29.73
501.044	32.98
501.29	31.66
501.537	29.28
501.783	30.39
502.029	33.26
502.275	32.7
502.521	32.02
502.767	32.43
503.013	34.95
503.26	31.69
503.506	28.21
503.752	28.39
503.998	27.09
504.244	26.57
504.49	24.59
504.736	26.25
504.982	25.41
505.228	28.63
505.474	29.19
505.72	29.42
505.966	28.29
506.211	32.44
506.457	32.43
506.703	28.25
506.949	25.72
507.195	22.86
507.441	20.15
507.686	22.53
507.932	22.32
508.178	24.43
508.424	22.79
508.669	19.57
508.915	20.98
509.161	23.45
509.406	24.1
509.652	23.04
509.898	25.56
510.143	27.32
510.389	26.96
510.634	22.22
510.88	26.76
511.125	29.11
511.371	30.4
511.616	31.52
511.862	29.27
512.107	25.25
512.353	26.58
512.598	27.26
512.844	24.81
513.089	21.85
513.335	23.28
513.58	23.95
513.825	24.51
514.071	23.1
514.316	25.12
514.561	25.86
514.806	24.07
515.052	27.94
515.297	26.92
515.542	27.22
515.787	26.86
516.033	30.68
516.278	31.69
516.523	31.1
516.768	29.85
517.013	28.58
517.258	28.18
517.503	28.92
517.748	28.26
517.993	28.39
518.238	29.67
518.483	28.09
518.728	28.87
518.973	27.44
519.218	26.97
519.463	27.32
519.708	27.24
519.953	24.74
520.198	25.5
520.443	26.63
520.688	29.55
520.933	29.35
521.177	29.73
521.422	26.91
521.667	30.35
521.912	29.76
522.157	26.8
522.401	30.82
522.646	30.11
522.891	29.54
523.135	29.93
523.38	29.93
523.625	27.03
523.869	29.49
524.114	31.66
524.358	31.34
524.603	31.41
524.848	28.87
525.092	28.06
525.337	29.87
525.581	30.35
525.826	31.15
526.07	31.36
526.315	31.49
526.559	31.1
526.803	28.98
527.048	32.69
527.292	34.09
527.537	33.54
527.781	32.66
528.025	31.73
528.269	32.91
528.514	33.65
528.758	32.35
529.002	32.01
529.247	34.4
529.491	34.08
529.735	38.92
529.979	37.87
530.223	38.21
530.467	36.06
530.712	35.02
530.956	34.57
531.2	35.73
531.444	32.89
531.688	33.97
531.932	33.59
532.176	35.53
532.42	36.83
532.664	37.39
532.908	36.39
533.152	35.72
533.396	36.39
533.64	35.78
533.884	33.85
534.128	32.81
534.371	33.86
534.615	34.79
534.859	33.94
535.103	33.4
535.347	32.54
535.59	34.28
535.834	30.66
536.078	31.26
536.322	33.86
536.565	37.88
536.809	36.94
537.053	38.7
537.296	37.47
537.54	37.97
537.784	38.38
538.027	41.6
538.271	40.25
538.514	39.23
538.758	38.9
539.001	37.6
539.245	37.16
539.488	38
539.732	37.74
539.975	39.42
540.219	41.06
540.462	41.21
540.706	43.02
540.949	42.98
541.192	43.32
541.436	48.56
541.679	53.88
541.922	54.91
542.166	50.36
542.409	51.96
542.652	52.83
542.895	54.94
543.139	55.25
543.382	60.87
543.625	59.72
543.868	58.04
544.111	56.89
544.354	54.41
544.598	54.11
544.841	54.47
545.084	53.47
545.327	52.28
545.57	51.72
545.813	54
546.056	54.18
546.299	54.98
546.542	57.93
546.785	60.02
547.028	60.46
547.271	60.77
547.514	59.45
547.756	57.1
547.999	57.62
548.242	58.9
548.485	56.71
548.728	57.64
548.971	53.75
549.213	52.2
549.456	51.97
549.699	51.19
549.942	49.27
550.184	49.21
550.427	47.93
550.67	48
550.912	42.38
551.155	45.1
551.398	44.5
551.64	43.25
551.883	43.76
552.125	42.67
552.368	41.84
552.61	39.83
552.853	41.21
553.095	40.53
553.338	40.11
553.58	40.15
553.823	39.51
554.065	41.18
554.308	37.56
554.55	35.83
554.792	34.15
555.035	34.01
555.277	34.01
555.519	34.72
555.762	31.65
556.004	32.47
556.246	29.15
556.488	29.81
556.731	28.04
556.973	29.67
557.215	29.99
557.457	33.73
557.699	37.02
557.941	35.56
558.183	35.12
558.426	38.19
558.668	34.6
558.91	37
559.152	37.98
559.394	36.79
559.636	38.65
559.878	39.33
560.12	38.39
560.362	40.99
560.604	41.05
560.845	41.27
561.087	40.91
561.329	42.71
561.571	40.94
561.813	42.58
562.055	41.9
562.297	42.44
562.538	42.08
562.78	45.23
563.022	43.14
563.264	46.04
563.505	46.07
563.747	48
563.989	46.09
564.23	45.36
564.472	44.23
564.714	47.01
564.955	46.31
565.197	42.36
565.438	44.33
565.68	48.24
565.921	46.35
566.163	48.97
566.404	47.57
566.646	50.98
566.887	53.78
567.129	54.44
567.37	54.28
567.612	57.07
567.853	54.23
568.094	57.14
568.336	57.49
568.577	58.85
568.818	58.91
569.06	57.73
569.301	56.37
569.542	58.04
569.783	59.38
570.025	59.83
570.266	60.14
570.507	61.93
570.748	62
570.989	63.84
571.23	65.78
571.472	67.51
571.713	68.15
571.954	68.81
572.195	66.94
572.436	68.94
572.677	72.1
572.918	74.31
573.159	71.53
573.4	69.74
573.641	68.5
573.882	70.23
574.123	66.39
574.364	62.03
574.604	63.79
574.845	62.27
575.086	64.5
575.327	65.52
575.568	63.9
575.809	62.99
576.049	62.49
576.29	60.92
576.531	67.17
576.771	71.76
577.012	74.7
577.253	77.42
577.494	78.43
577.734	78.4
577.975	79.28
578.215	79.3
578.456	76.58
578.697	77.54
578.937	79.46
579.178	79.27
579.418	80.5
579.659	83.15
579.899	80.65
580.14	80.86
580.38	80.97
580.62	82.41
580.861	87.38
581.101	88.35
581.342	89.62
581.582	87
581.822	92.06
582.063	92.55
582.303	96
582.543	96.07
582.783	99.71
583.024	103.66
583.264	109.38
583.504	110.41
583.744	115.23
583.984	112.18
584.224	113.15
584.465	112.91
584.705	113.38
584.945	116.71
585.185	117.97
585.425	120.15
585.665	121.38
585.905	125.35
586.145	126.94
586.385	127.11
586.625	132.45
586.865	134.13
587.105	135.49
587.345	138.19
587.585	139.86
587.824	140.29
588.064	140.52
588.304	140.82
588.544	143.5
588.784	143.96
589.024	149.32
589.263	149.54
589.503	149.26
589.743	153.08
589.982	154.48
590.222	155.88
590.462	155.45
590.701	154.34
590.941	157.68
591.181	157.15
591.42	159.79
591.66	164.97
591.899	171.16
592.139	171.58
592.378	172.59
592.618	173.96
592.857	177.4
593.097	179.71
593.336	180.97
593.576	182.16
593.815	186.31
594.055	187.02
594.294	189.27
594.533	190.64
594.773	192.65
595.012	196.67
595.251	200.21
595.491	206.94
595.73	212.62
595.969	215.55
596.208	218.5
596.447	226.84
596.687	230.26
596.926	233.53
597.165	232.71
597.404	238
597.643	237.42
597.882	239.98
598.121	243.18
598.36	246.38
598.599	248.72
598.838	250.45
599.077	248.66
599.316	250.76
599.555	253.95
599.794	258.21
600.033	262.1
600.272	264.31
600.511	265.13
600.75	268.9
600.989	272.73
601.228	273.37
601.466	275.49
601.705	278.06
601.944	280.97
602.183	285.2
602.422	286.07
602.66	286.13
602.899	287.12
603.138	288.93
603.376	290.2
603.615	293.17
603.854	291.5
604.092	294.31
604.331	298.13
604.569	301.18
604.808	300.96
605.047	305.32
605.285	305.84
605.524	306.65
605.762	307.02
606	311.33
606.239	313.08
606.477	313.31
606.716	309.58
606.954	309.54
607.193	307.13
607.431	304.16
607.669	302.63
607.908	303.76
608.146	306.43
608.384	306.26
608.622	306.31
608.861	306.74
609.099	306.26
609.337	304.79
609.575	303.65
609.813	304.67
610.052	304.84
610.29	300.01
610.528	297.22
610.766	296.05
611.004	295.88
611.242	294.99
611.48	294.34
611.718	289.41
611.956	289
612.194	287.88
612.432	287.58
612.67	286.89
612.908	288.56
613.146	286.6
613.384	285.2
613.621	284.04
613.859	284.86
614.097	284.39
614.335	283.89
614.573	286.03
614.811	288.79
615.048	287.4
615.286	286.59
615.524	284.36
615.761	281.68
615.999	283.29
616.237	281.89
616.474	283.38
616.712	285.57
616.95	283.78
617.187	282.77
617.425	284.49
617.662	285.68
617.9	283.88
618.137	281.54
618.375	277.94
618.612	275.91
618.85	277.55
619.087	281.01
619.325	279.86
619.562	278.33
619.799	275.01
620.037	275.23
620.274	272.3
620.511	273.95
620.749	270.84
620.986	269.6
621.223	265.7
621.461	266.25
621.698	267.78
621.935	265.63
622.172	261.63
622.409	263.77
622.647	264.43
622.884	262.64
623.121	265.42
623.358	262.27
623.595	262.5
623.832	261.64
624.069	258.73
624.306	260.08
624.543	260.66
624.78	260.32
625.017	260.19
625.254	261.25
625.491	263.26
625.728	265.93
625.965	265.92
626.202	264.21
626.438	263.03
626.675	261.67
626.912	262.49
627.149	263.55
627.386	262.17
627.622	261.06
627.859	259.25
628.096	259.76
628.333	259.06
628.569	260.8
628.806	260.83
629.043	259.59
629.279	260.55
629.516	262.17
629.752	259.33
629.989	259.12
630.225	256.81
630.462	255.26
630.699	253.97
630.935	252.62
631.171	249.07
631.408	248.66
631.644	245.97
631.881	242.05
632.117	240.06
632.354	240.06
632.59	238.04
632.826	237.44
633.063	236.32
633.299	234.52
633.535	232.2
633.771	230.45
634.008	231.83
634.244	231.03
634.48	229.01
634.716	229.13
634.953	227.69
635.189	226.82
635.425	226.65
635.661	229.21
635.897	226.69
636.133	225.86
636.369	223.01
636.605	218.51
636.841	216.58
637.077	216.47
637.313	213.76
637.549	214.36
637.785	212.5
638.021	213.09
638.257	210.93
638.493	213.34
638.729	211.76
638.965	213.75
639.2	214.37
639.436	211.95
639.672	210.52
639.908	209.32
640.144	211.78
640.379	213.45
640.615	212.1
640.851	212.25
641.086	211.35
641.322	209.62
641.558	207.68
641.793	207.78
642.029	204.64
642.264	203.49
642.5	202.95
642.736	198.24
642.971	197.19
643.207	195.17
643.442	193.41
643.678	194.09
643.913	194.14
644.148	192.98
644.384	194.34
644.619	194.24
644.855	193.4
645.09	192.5
645.325	190.01
645.561	189.15
645.796	184.96
646.031	187.16
646.266	182.95
646.502	182.18
646.737	184.64
646.972	182.85
647.207	181.54
647.442	177.22
647.678	172.34
647.913	172.71
648.148	173.49
648.383	172.36
648.618	169.85
648.853	171.18
649.088	171.62
649.323	173.8
649.558	174.28
649.793	173.54
650.028	175.33
650.263	171.33
650.498	173.44
650.733	171.57
650.968	168.95
651.202	169.98
651.437	168.07
651.672	163.38
651.907	161.46
652.142	160.6
652.376	161.66
652.611	163.46
652.846	164.76
653.081	163.84
653.315	161.34
653.55	161.78
653.785	160.6
654.019	160.98
654.254	158.71
654.488	159.24
654.723	157.82
654.958	155.27
655.192	154.76
655.427	149.09
655.661	149.03
655.896	151.78
656.13	153.24
656.364	149.79
656.599	146.27
656.833	153.55
657.068	155.28
657.302	154.89
657.536	152.71
657.771	153.38
658.005	153.3
658.239	154.87
658.474	151.09
658.708	151.52
658.942	151.73
659.176	149.99
659.41	147.28
659.645	145.11
659.879	143.31
660.113	139.43
660.347	138.3
660.581	134.95
660.815	133.44
661.049	131.07
661.283	126.52
661.517	124.59
661.751	122.26
661.985	120.02
662.219	120.36
662.453	116.87
662.687	118.25
662.921	114.69
663.155	112.58
663.389	105.07
663.622	103.85
663.856	104.93
664.09	95.87
664.324	93.12
664.558	90.92
664.791	89.56
665.025	86.62
665.259	85.64
665.492	83.1
665.726	85.29
665.96	85.51
666.193	82.82
666.427	83.21
666.661	82.36
666.894	79.75
667.128	79.26
667.361	79.48
667.595	78.23
667.828	77.5
668.062	75.63
668.295	75.35
668.529	75.78
668.762	76.25
668.995	74.39
669.229	77.37
669.462	78.52
669.695	79.64
669.929	77.05
670.162	77.88
670.395	74.99
670.629	76.03
670.862	76.07
671.095	72.82
671.328	71.85
671.561	68.08
671.795	69.27
672.028	71.55
672.261	72.8
672.494	73.4
672.727	72
672.96	73.63
673.193	70.33
673.426	73.94
673.659	73.92
673.892	74.36
674.125	72.53
674.358	71.02
674.591	70.08
674.824	69.48
675.057	69.12
675.29	68.68
675.523	70.24
675.755	68.01
675.988	68.3
676.221	72.26
676.454	69.66
676.687	69.3
676.919	69.14
677.152	70.16
677.385	69.11
677.617	69.99
677.85	70.86
678.083	70.07
678.315	72.12
678.548	70.51
678.78	70.15
679.013	67.33
679.246	65.78
679.478	65.68
679.711	63.12
679.943	63.65
680.175	57.85
680.408	61.52
680.64	56.64
680.873	57.65
681.105	57.34
681.338	61.5
681.57	60.29
681.802	61.52
682.034	61.43
682.267	63.17
682.499	64.9
682.731	62.03
682.964	61.36
683.196	58.38
683.428	54.91
683.66	52.59
683.892	55.1
684.124	56.05
684.356	57.35
684.589	56.93
684.821	55.11
685.053	54.66
685.285	55.13
685.517	55.97
685.749	55.81
685.981	58.14
686.213	59.79
686.445	59.73
686.676	55.99
686.908	56.98
687.14	56.3
687.372	57.4
687.604	54.69
687.836	57.3
688.068	56.54
688.299	56.38
688.531	54.2
688.763	57.7
688.995	55.99
689.226	59.29
689.458	57.97
689.69	55.61
689.921	53.97
690.153	54.95
690.384	57.7
690.616	56.22
690.848	57.81
691.079	54
691.311	50.73
691.542	47.28
691.774	45.68
692.005	48.78
692.237	50.53
692.468	49.12
692.699	47.03
692.931	46.85
693.162	44.95
693.393	43.18
693.625	42.08
693.856	42.56
694.087	43.21
694.319	44.09
694.55	44.16
694.781	43.41
695.012	42.33
695.243	40.26
695.475	39.53
695.706	38.67
695.937	38.12
696.168	37
696.399	34.35
696.63	34.14
696.861	34.18
697.092	39.69
697.323	42.09
697.554	42.46
697.785	43.46
698.016	43.79
698.247	41.69
698.478	43.02
698.709	45.16
698.94	46.68
699.171	44.94
699.401	40.74
699.632	41.09
699.863	39.36
700.094	38.98
700.325	39.98
700.555	41.66
700.786	43.67
701.017	43.81
701.247	41.11
701.478	40.99
701.709	41.51
701.939	38.79
702.17	39.95
702.401	41.73
702.631	41.06
702.862	39.51
703.092	36.01
703.323	39.23
703.553	40.32
703.784	39.31
704.014	39.26
704.244	33
704.475	30.15
704.705	30.06
704.936	28.87
705.166	26.78
705.396	28.03
705.627	27.65
705.857	27.06
706.087	27.75
706.317	25.98
706.548	24.21
706.778	22.61
707.008	21.93
707.238	23.25
707.468	20.91
707.698	19.3
707.928	17.2
708.158	17.08
708.389	17.05
708.619	14.67
708.849	12.74
709.079	13.4
709.309	10.27
709.539	6.47
709.768	7.99
709.998	9.87
710.228	10.19
710.458	8.47
710.688	5.19
710.918	4.68
711.148	3.88
711.378	5.78
711.607	4.42
711.837	3.69
712.067	4.24
712.297	5.66
712.526	6.51
712.756	7.8
712.986	4.3
713.215	1.41
713.445	2.44
713.674	3.53
713.904	4.36
714.134	7.17
714.363	7.81
714.593	7.23
714.822	6.17
715.052	5.03
715.281	5.23
715.511	5.11
715.74	5.66
715.969	4.98
716.199	4.22
716.428	5.01
716.657	5.61
716.887	6.95
717.116	5.01
717.345	6.74
717.575	6.25
717.804	6.57
718.033	6.8
718.262	6.19
718.492	6.63
718.721	7
718.95	6.73
719.179	4.83
719.408	4.15
719.637	0.35
719.866	-2.42
720.095	-0.34
720.324	-0.7
720.553	-5.88
720.782	-7.13
721.011	-7.64
721.24	-9.16
721.469	-12.79
721.698	-11.24
721.927	-10.66
722.156	-11.69
722.385	-12.25
722.613	-9.83
722.842	-10.19
723.071	-5.82
723.3	-2.94
723.529	-4.1
723.757	-3.02
723.986	-7.61
724.215	-9.82
724.443	-8.56
724.672	-6.98
724.901	-6.58
725.129	-5.63
725.358	-3.1
725.586	-7.66
725.815	-7.34
726.043	-9.19
726.272	-9.95
726.5	-9.95
726.729	-8.72
726.957	-10.85
727.186	-12.24
727.414	-12.16
727.642	-8.58
727.871	-6.42
728.099	-6.52
728.327	-6.58
728.556	-4.84
728.784	-5.52
729.012	-7.97
729.241	-4.94
729.469	-6.55
729.697	-8.9
729.925	-7.82
730.153	-11.18
730.381	-10.61
730.61	-10.79
730.838	-13.35
731.066	-10.83
731.294	-9.54
731.522	-13.97
731.75	-17.81
731.978	-17.14
732.206	-18.4
732.434	-20.2
732.662	-15.7
732.89	-19.51
733.118	-20.16
733.346	-20.08
733.573	-20.73
733.801	-20.13
734.029	-14.06
734.257	-13.37
734.485	-9.39
734.712	-8.35
734.94	-9.97
735.168	-7.47
735.396	-7.87
735.623	-8.67
735.851	-8.43
736.078	-6.7
736.306	-5.77
736.534	-6.2
736.761	-5.7
736.989	-7.59
737.216	-7.97
737.444	-11.09
737.671	-7.72
737.899	-2.77
738.126	-3.71
738.354	-3.67
738.581	-3.47
738.809	-2.26
739.036	-4.81
739.263	-4.2
739.491	-6.72
739.718	-7.74
739.945	-0.75
740.173	0.98
740.4	2.98
740.627	1.24
740.854	1.04
741.081	-2.52
741.309	-4.15
741.536	-8.37
741.763	-8.61
741.99	-6.56
742.217	-6.82
742.444	-5.8
742.671	-4.14
742.898	-3.8
743.125	-5.37
743.352	-8.52
743.579	-9.13
743.806	-10.1
744.033	-7.4
744.26	-6.46
744.487	-6.05
744.714	-7.99
744.941	-8.49
745.167	-5.25
745.394	-6.25
745.621	-5.62
745.848	-5.18
746.075	-2.7
746.301	0.5
746.528	5.33
746.755	3.77
746.981	2.4
747.208	4.53
747.435	5.35
747.661	7.14
747.888	7.9
748.114	6.69
748.341	9.96
748.567	11.93
748.794	8.63
749.02	6.18
749.247	3.47
749.473	1.62
749.7	0.76
749.926	-0.18
750.152	3.33
750.379	2.93
750.605	4.44
750.831	4.06
751.058	1.63
751.284	0.38
751.51	3.01
751.737	5.78
751.963	3.93
752.189	2.51
752.415	2.12
752.641	1.88
752.867	1.62
753.094	0.08
753.32	-2.87
753.546	-4.7
753.772	-2.18
753.998	-3.61
754.224	-4.98
754.45	-5.67
754.676	-5.32
754.902	-6.34
755.128	-5.61
755.354	-6.75
755.579	-5.83
755.805	-3.12
756.031	-4.14
756.257	-5.1
756.483	-5.93
756.709	-7.33
756.934	-6.27
757.16	-9.22
757.386	-9.15
757.612	-10.54
757.837	-11.04
758.063	-8.2
758.289	-5.85
758.514	-7.8
758.74	-12.19
758.965	-14.37
759.191	-13.51
759.416	-11.37
759.642	-9.96
759.868	-10.22
760.093	-9.07
760.318	-9.28
760.544	-9.89
760.769	-11.64
760.995	-12.67
761.22	-13.07
761.445	-11.53
761.671	-9.85
761.896	-7.2
762.121	-6.79
762.347	-7.24
762.572	-10.58
762.797	-11.4
763.022	-10.49
763.248	-4.57
763.473	-3.51
763.698	-2.82
763.923	-2.33
764.148	-3.21
764.373	-2.43
764.598	-1.75
764.823	0.2
765.048	-2.87
765.273	-5.96
765.498	-6.92
765.723	-7.56
765.948	-6.35
766.173	-7.47
766.398	-6.75
766.623	-9.89
766.848	-9.37
767.073	-11.29
767.298	-10.95
767.522	-11.45
767.747	-9.52
767.972	-9.1
768.197	-7.76
768.421	-9.79
768.646	-13.72
768.871	-17.1
769.095	-16.87
769.32	-15.38
769.545	-14.62
769.769	-12.62
769.994	-10.79
770.218	-15.31
770.443	-14.06
770.667	-13.45
770.892	-13.88
771.116	-14
771.341	-13.98
771.565	-13.85
771.79	-14.11
772.014	-13.65
772.238	-14.24
772.463	-11.71
772.687	-9.8
772.911	-11.01
773.136	-12.89
773.36	-12.41
773.584	-9.96
773.808	-13.55
774.033	-11.6
774.257	-11.87
774.481	-12.72
774.705	-14.88
774.929	-14.48
775.153	-15.18
775.377	-13.79
775.602	-12.79
775.826	-11.26
776.05	-9.02
776.274	-10.73
776.498	-10.32
776.722	-12.64
776.945	-13.45
777.169	-12.88
777.393	-14.79
777.617	-16.26
777.841	-15.01
778.065	-14.27
778.289	-15.14
778.512	-15.66
778.736	-14.73
778.96	-15.38
779.184	-13.22
779.407	-14.65
779.631	-15.26
779.855	-15.39
780.078	-14.52
780.302	-17.16
780.526	-19.92
780.749	-17.54
780.973	-15.78
781.196	-15.29
781.42	-16.04
781.643	-16.06
781.867	-15.21
782.09	-17.8
782.314	-18.84
782.537	-19.2
782.76	-20.23
782.984	-19.88
783.207	-19.46
783.431	-19.69
783.654	-19.14
783.877	-21.02
784.1	-22.73
784.324	-23.35
784.547	-22.82
784.77	-28.32
784.993	-28.73
785.216	-29.52
785.44	-30.16
785.663	-32.63
785.886	-29.45
786.109	-30.18
786.332	-30.24
786.555	-28.57
786.778	-25.71
787.001	-25.03
787.224	-22.46
787.447	-20.3
787.67	-19.42
787.893	-20.92
788.116	-21.2
788.339	-20.4
788.561	-21.25
788.784	-24.79
789.007	-25.59
789.23	-26.01
789.453	-27.18
789.675	-28.55
789.898	-31.09
790.121	-33.19
790.344	-32.49
790.566	-32.2
790.789	-30.97
791.012	-30.44
791.234	-27.4
791.457	-25.33
791.679	-22.31
791.902	-21.86
792.124	-20.88
792.347	-20.72
792.569	-19.52
792.792	-23.23
793.014	-21.44
793.237	-19.32
793.459	-19.87
793.681	-21.68
793.904	-22.86
794.126	-25.03
794.348	-25.93
794.571	-24.89
794.793	-26.36
795.015	-25.66
795.237	-25.86
795.46	-24.18
795.682	-23.12
795.904	-19.74
796.126	-21.76
796.348	-21.08
796.57	-17.48
796.792	-17.93
797.014	-13.59
797.237	-12.54
797.459	-11.13
797.681	-9.92
797.903	-10.28
798.124	-10.14
798.346	1.83
798.568	3.53
798.79	7.03
799.012	8.5
799.234	9.63
799.456	11.1
799.678	13.18
799.899	10.76
800.121	6.6
800.343	5.57
800.565	6.61
800.786	7.78
801.008	9.65
801.23	9.92
801.451	10.51
801.673	9.58
801.895	8.18
802.116	11.22
802.338	13.42
802.559	13.25
802.781	10.84
803.002	14.15
803.224	15.77
803.445	12.9
803.667	15.77
803.888	13.42
804.109	13.12
804.331	11.26
804.552	9.72
804.773	12.28
804.995	9.06
805.216	-5.2
805.437	-7.81
805.658	-11.63
805.88	-13.58
806.101	-12.81
806.322	-12.92
806.543	-14.31
806.764	-15.6
806.985	-11.97
807.207	-11.68
807.428	-11.42
807.649	-15.6
807.87	-17.18
808.091	-16.63
808.312	-15.94
808.533	-10.88
808.754	-8.63
808.975	-11.57
809.195	-10.64
809.416	-9.59
809.637	-9.59
809.858	-13.07
810.079	-15.27
810.3	-13.55
810.52	-15.3
810.741	-17.53
810.962	-18.86
811.183	-18.84
811.403	-17.36
811.624	-18.74
811.845	-16.19
812.065	-13.87
812.286	-12.75
812.506	-11.9
812.727	-11.28
812.948	-11.09
813.168	-11.08
813.389	-11.64
813.609	-9.53
813.83	-11.35
814.05	-12.14
814.27	-11.77
814.491	-7.29
814.711	-8.96
814.931	-11.03
815.152	-12.84
815.372	-15.68
815.592	-16.97
815.813	-17.83
816.033	-20.57
816.253	-19.48
816.473	-20.48
816.694	-17.46
816.914	-15.2
817.134	-15.14
817.354	-16.7
817.574	-15.46
817.794	-16.22
818.014	-17.94
818.234	-17.98
818.454	-19.06
818.674	-21.19
818.894	-23.95
819.114	-21.87
819.334	-22.2
819.554	-19.28
819.774	-16.27
819.994	-17.9
820.214	-18.05
820.433	-17.99
820.653	-18.35
820.873	-14.79
821.093	-15.15
821.312	-17.37
821.532	-14.19
821.752	-12.45
821.972	-13.75
822.191	-11.7
822.411	-12.97
822.63	-11.55
822.85	-10.81
823.07	-14.23
823.289	-12.99
823.509	-15.09
823.728	-13.7
823.948	-15.22
824.167	-15.89
824.387	-16.36
824.606	-13.83
824.825	-14.06
825.045	-15.59
825.264	-15.76
825.483	-14.04
825.703	-12.71
825.922	-15.57
826.141	-14.91
826.361	-17.54
826.58	-22.65
826.799	-25.38
827.018	-24.07
827.237	-23.73
827.456	-21.67
827.676	-23.19
827.895	-22.96
828.114	-20.3
828.333	-21.09
828.552	-20.8
828.771	-19.17
828.99	-22.32
829.209	-21.41
829.428	-19.32
829.647	-20.37
829.866	-19.63
830.084	-19.53
830.303	-19.97
830.522	-19.8
830.741	-19.17
830.96	-18.87
831.179	-18.87
831.397	-21.49
831.616	-20.23
831.835	-20.03
832.053	-19.26
832.272	-18.25
832.491	-16.61
832.709	-16.64
832.928	-16.61
833.147	-16.46
833.365	-14.51
833.584	-10.1
833.802	-8.67
834.021	-9.13
834.239	-9.02
834.458	-10.21
834.676	-14.1
834.894	-16.17
835.113	-17.29
835.331	-18.26
835.55	-18.79
835.768	-17.51
835.986	-16.69
836.204	-18.96
836.423	-17.75
836.641	-18.59
836.859	-19.6
837.077	-16.7
837.296	-17.71
837.514	-18.69
837.732	-19.01
837.95	-19.62
838.168	-16.09
838.386	-17.18
838.604	-13.08
838.822	-12.54
839.04	-14.2
839.258	-15.69
839.476	-13.85
839.694	-14.24
839.912	-13.61
840.13	-13.63
840.348	-11.62
840.566	-13.7
840.783	-12.56
841.001	-15.32
841.219	-14.23
841.437	-11.53
841.655	-10.28
841.872	-9.41
842.09	-10.13
842.308	-9.61
842.525	-8.56
842.743	-6.88
842.961	-8.47
843.178	-11.17
843.396	-6.44
843.613	-5.44
843.831	-6.92
844.048	-8.17
844.266	-7.93
844.483	-6.96
844.701	-7.28
844.918	-7.92
845.136	-7.48
845.353	-10.94
845.57	-11.04
845.788	-7.74
846.005	-9.1
846.222	-10.45
846.439	-8.12
846.657	-9.49
846.874	-9.61
847.091	-11.44
847.308	-9.39
847.526	-10.16
847.743	-9.49
847.96	-10.53
848.177	-10.21
848.394	-11.26
848.611	-12.51
848.828	-12.06
849.045	-13
849.262	-14.6
849.479	-15.89
849.696	-14.89
849.913	-15.9
850.13	-20.88
850.347	-17.59
850.564	-15.95
850.78	-16.36
850.997	-17.28
851.214	-17.55
851.431	-16.27
851.647	-19.75
851.864	-18.49
852.081	-17.33
852.298	-19.94
852.514	-22.82
852.731	-21.36
852.948	-19.74
853.164	-21.3
853.381	-21.97
853.597	-22.71
853.814	-25.2
854.03	-28.48
854.247	-27.84
854.463	-26.82
854.68	-27.95
854.896	-27.74
855.113	-27.47
855.329	-25.57
855.545	-22.56
855.762	-24.07
855.978	-26.05
856.194	-27.44
856.411	-24.51
856.627	-21.02
856.843	-19.56
857.059	-17.87
857.275	-19.98
857.492	-19.47
857.708	-15.61
857.924	-14.83
858.14	-13.09
858.356	-13.23
858.572	-14.09
858.788	-13.01
859.004	-11.69
859.22	-12.9
859.436	-12.33
859.652	-13.58
859.868	-14.04
860.084	-13.32
860.3	-14.06
860.516	-14.69
860.731	-13.66
860.947	-15.09
861.163	-14.19
861.379	-13.07
861.595	-12.21
861.81	-10.84
862.026	-13
862.242	-14.13
862.457	-13.49
862.673	-12.49
862.889	-13.23
863.104	-13.55
863.32	-14.02
863.535	-13.35
863.751	-19.11
863.966	-16.7
864.182	-15.15
864.397	-18.53
864.613	-20.03
864.828	-21.81
865.044	-18.67
865.259	-15.84
865.474	-18.32
865.69	-16.65
865.905	-15.24
866.12	-17.19
866.336	-17.63
866.551	-15.65
866.766	-15.96
866.981	-16.76
867.196	-15.26
867.412	-15.75
867.627	-16.15
867.842	-17.87
868.057	-19.03
868.272	-20.21
868.487	-21.9
868.702	-21.7
868.917	-23.31
869.132	-22.52
869.347	-21.28
869.562	-20.18
869.777	-20.38
869.992	-21.21
870.207	-21.52
870.422	-22.41
870.636	-23.67
870.851	-25.56
871.066	-26.1
871.281	-26.26
871.495	-28.09
871.71	-27.15
871.925	-31.99
872.14	-31.54
872.354	-33.19
872.569	-34.97
872.783	-32.3
872.998	-32.4
873.213	-33.54
873.427	-30.74
873.642	-29.29
873.856	-28.25
874.071	-28.08
874.285	-28.12
874.5	-29.64
874.714	-29.99
874.928	-30.76
875.143	-30.79
875.357	-30.8
875.571	-30.21
875.786	-28.7
876	-24.73
876.214	-24
876.429	-26.25
876.643	-25.08
876.857	-24.8
877.071	-22.22
877.285	-24.41
877.499	-26.34
877.714	-24.67
877.928	-22.83
878.142	-23.27
878.356	-25.73
878.57	-22.24
878.784	-22.36
878.998	-22.98
879.212	-19.57
879.426	-22.58
879.639	-20.24
879.853	-22.02
880.067	-23.67
880.281	-24.96
880.495	-24.25
880.709	-22.71
880.922	-21.02
881.136	-19.08
881.35	-16.86
881.564	-17.2
881.777	-19.61
881.991	-18.88
882.205	-16.82
882.418	-16.85
882.632	-21.41
882.845	-22.4
883.059	-22.39
883.273	-24.18
883.486	-24.78
883.7	-22.45
883.913	-21.96
884.126	-20.99
884.34	-22.98
884.553	-24.99
884.767	-20.81
884.98	-20.61
885.193	-23.22
885.407	-24.01
885.62	-22.1
885.833	-22.76
886.046	-20.95
886.26	-23.23
886.473	-22.38
886.686	-22.99
886.899	-21.43
887.112	-22.82
887.326	-25.16
887.539	-25.86
887.752	-24.81
887.965	-26.29
888.178	-25.08
888.391	-23.33
888.604	-22.89
888.817	-24.64
889.03	-23.9
889.243	-24.95
889.455	-27.3
889.668	-26.02
889.881	-22.33
890.094	-22.81
890.307	-27.13
890.52	-24.77
890.732	-23.34
890.945	-23.05
891.158	-22.01
891.37	-23.77
891.583	-23.38
891.796	-20.52
892.008	-22.03
892.221	-23.39
892.434	-27.78
892.646	-29.09
892.859	-29.28
893.071	-28.76
893.284	-26.45
893.496	-25.98
893.709	-26.74
893.921	-25.17
894.133	-25.14
894.346	-25.85
894.558	-26.82
894.771	-26.25
894.983	-24.63
895.195	-24.3
895.407	-23.56
895.62	-26.79
895.832	-25.2
896.044	-21.49
896.256	-22.9
896.468	-25.14
896.681	-23.93
896.893	-22.18
897.105	-23.62
897.317	-24.47
897.529	-22.36
897.741	-21.2
897.953	-19.08
898.165	-21.42
898.377	-23.65
898.589	-21.09
898.801	-21.96
899.013	-18.07
899.224	-14.41
899.436	-13.07
899.648	-13.61
899.86	-15.56
900.072	-15.33
900.283	-14.57
900.495	-13.58
900.707	-13.24
900.919	-16.06
901.13	-14.05
901.342	-15.72
901.554	-16.87
901.765	-17.55
901.977	-20.2
902.188	-20.49
902.4	-22.55
902.611	-24.69
902.823	-24.71
903.034	-26.55
903.246	-29.41
903.457	-30.18
903.669	-31.39
903.88	-31.99
904.091	-33.34
904.303	-32.91
904.514	-35.12
904.725	-32.73
904.936	-31.32
905.148	-32.2
905.359	-30.37
905.57	-31.02
905.781	-33.59
905.992	-34.49
906.204	-34.77
906.415	-34.08
906.626	-35.7
906.837	-33.09
907.048	-33.77
907.259	-34.69
907.47	-35.5
907.681	-36.83
907.892	-33.33
908.103	-34.6
908.314	-35.62
908.525	-33.23
908.735	-31.17
908.946	-30.44
909.157	-31.02
909.368	-29.2
909.579	-28.04
909.789	-27.8
910	-28.44
910.211	-25.74
910.421	-25.8
910.632	-24.9
910.843	-27.67
911.053	-23.51
911.264	-21.41
911.475	-22.12
911.685	-20.98
911.896	-19.98
912.106	-19.75
912.317	-21.4
912.527	-18.73
912.737	-17.19
912.948	-17.42
913.158	-16.68
913.369	-19.69
913.579	-17.77
913.789	-15.73
914	-11.17
914.21	-10.81
914.42	-13.17
914.63	-13.51
914.841	-12.74
915.051	-11.5
915.261	-12.33
915.471	-9.32
915.681	-7.71
915.891	-7.85
916.101	-9.28
916.311	-8.95
916.521	-7.14
916.731	-6.34
916.941	-2.51
917.151	-4.59
917.361	-1.27
917.571	-6.06
917.781	-7.87
917.991	-11.54
918.201	-11.36
918.411	-15.01
918.621	-14.6
918.83	-12.84
919.04	-15.63
919.25	-13.92
919.46	-12.17
919.669	-14.58
919.879	-14.7
920.089	-16.37
920.298	-18.42
920.508	-19.13
920.717	-16.91
920.927	-18.39
921.136	-16.07
921.346	-16.98
921.555	-20.89
921.765	-21.07
921.974	-24.81
922.184	-27.98
922.393	-28.37
922.603	-27.73
922.812	-24.74
923.021	-27.06
923.23	-30.33
923.44	-34.06
923.649	-32.71
923.858	-34.11
924.067	-34.28
924.277	-35.45
924.486	-31.61
924.695	-32.9
924.904	-30.84
925.113	-31.47
925.322	-30.76
925.531	-30.07
925.74	-33.83
925.949	-34.97
926.158	-32.47
926.367	-31.6
926.576	-31.42
926.785	-32.72
926.994	-33.4
927.203	-34.45
927.412	-33.77
927.621	-35.01
927.83	-32.33
928.038	-31.25
928.247	-30.75
928.456	-29.34
928.665	-28
928.873	-26.46
929.082	-25.53
929.291	-24.72
929.499	-22.4
929.708	-22.4
929.916	-21.29
930.125	-22.69
930.333	-23.49
930.542	-20.35
930.75	-17.01
930.959	-17.02
931.167	-16.87
931.376	-17.8
931.584	-16.86
931.793	-16.19
932.001	-17.47
932.209	-18.68
932.418	-20.67
932.626	-22.04
932.834	-24.07
933.042	-26.67
933.251	-26.59
933.459	-27.18
933.667	-27.27
933.875	-26.22
934.083	-25.23
934.291	-24.95
934.499	-23.42
934.707	-25.3
934.915	-26.55
935.123	-23.67
935.331	-24.95
935.539	-27.35
935.747	-30.76
935.955	-31.42
936.163	-30.22
936.371	-30.97
936.579	-28.08
936.787	-27.77
936.995	-30.04
937.202	-32.69
937.41	-31.78
937.618	-32.17
937.826	-30.9
938.033	-35.96
938.241	-39.01
938.449	-34.92
938.656	-32.94
938.864	-33.56
939.071	-33.02
939.279	-30.4
939.486	-27.84
939.694	-27.57
939.901	-28.56
940.109	-28.14
940.316	-28.58
940.524	-28.93
940.731	-31.83
940.939	-29.88
941.146	-28.38
941.353	-28.17
941.561	-29.13
941.768	-30.12
941.975	-27.83
942.182	-28.09
942.39	-28
942.597	-25.34
942.804	-25.39
943.011	-26.63
943.218	-25.89
943.425	-26.44
943.632	-26.19
943.839	-27.8
944.046	-28.69
944.253	-27.74
944.46	-26.11
944.667	-22.19
944.874	-24.24
945.081	-21.11
945.288	-17.8
945.495	-15.68
945.702	-16.02
945.909	-17.65
946.115	-16.28
946.322	-16.53
946.529	-18.84
946.736	-19.09
946.942	-17.99
947.149	-17.5
947.356	-21.38
947.562	-23.42
947.769	-22.78
947.976	-23.51
948.182	-21.79
948.389	-23.71
948.595	-22.13
948.802	-21.27
949.008	-23.71
949.215	-22.83
949.421	-23.91
949.628	-25.24
949.834	-22.82
950.04	-23.61
950.247	-20.94
950.453	-19.12
950.659	-21.68
950.865	-20.86
951.072	-25.21
951.278	-22.78
951.484	-26.16
951.69	-31.13
951.896	-32.4
952.103	-32.73
952.309	-31.19
952.515	-30.65
952.721	-28.21
952.927	-25.66
953.133	-26.31
953.339	-26.94
953.545	-26.96
953.751	-26.03
953.957	-22.97
954.163	-24.33
954.369	-24.28
954.574	-26.53
954.78	-25.92
954.986	-24.51
955.192	-23.49
955.398	-24.64
955.603	-26.92
955.809	-25.19
956.015	-24.7
956.22	-25.46
956.426	-23.81
956.632	-25.41
956.837	-25.4
957.043	-24.26
957.248	-21.58
957.454	-21.25
957.66	-24.56
957.865	-23.95
958.07	-20.75
958.276	-22.14
958.481	-23.33
958.687	-25.62
958.892	-25.73
959.097	-26.29
959.303	-26.5
959.508	-26.26
959.713	-26.97
959.919	-27.45
960.124	-27.38
960.329	-27.6
960.534	-23.44
960.739	-23.24
960.945	-21.19
961.15	-21.18
961.355	-23.4
961.56	-26.87
961.765	-27.58
961.97	-26.07
962.175	-24.28
962.38	-27.3
962.585	-27.1
962.79	-30.2
962.995	-31.45
963.2	-32.91
963.404	-32.81
963.609	-36.67
963.814	-37.89
964.019	-40.19
964.224	-43.35
964.428	-42.03
964.633	-39.76
964.838	-38.72
965.042	-38.93
965.247	-41.04
965.452	-42.35
965.656	-41.08
965.861	-39.84
966.066	-40.79
966.27	-37.62
966.475	-32.91
966.679	-35.98
966.884	-37.13
967.088	-38.36
967.292	-39.24
967.497	-37.95
967.701	-37.69
967.906	-36.59
968.11	-33.74
968.314	-29.43
968.518	-30.88
968.723	-28.09
968.927	-27.8
969.131	-25.92
969.335	-23.28
969.539	-22.48
969.744	-21.04
969.948	-17.67
970.152	-16.08
970.356	-14.92
970.56	-13.88
970.764	-16.53
970.968	-15.13
971.172	-15.05
971.376	-13.89
971.58	-12.2
971.784	-11.55
971.988	-14.31
972.192	-12.92
972.395	-13.91
972.599	-17.44
972.803	-21.08
973.007	-18.92
973.21	-19.62
973.414	-19.2
973.618	-19.65
973.822	-20.46
974.025	-20.58
974.229	-21.32
974.432	-24.63
974.636	-27.6
974.84	-26.61
975.043	-26.14
975.247	-28.27
975.45	-28.43
975.654	-28.76
975.857	-27.74
976.06	-29.3
976.264	-30.48
976.467	-28.63
976.671	-28.57
976.874	-26.65
977.077	-27.03
977.28	-27.88
977.484	-29.21
977.687	-29.01
977.89	-28.09
978.093	-27.47
978.297	-25.26
978.5	-27.26
978.703	-25.66
978.906	-24.82
979.109	-23.86
979.312	-22.57
979.515	-22.63
979.718	-22.53
979.921	-22.06
980.124	-23
980.327	-23.08
980.53	-21.32
980.733	-19.25
980.936	-17.55
981.138	-19.21
981.341	-17.63
981.544	-17.47
981.747	-18.96
981.949	-19.71
982.152	-18.99
982.355	-19.12
982.558	-16.98
982.76	-19.05
982.963	-19.61
983.165	-19.56
983.368	-17.76
983.571	-18.57
983.773	-15.66
983.976	-16.37
984.178	-15.65
984.381	-15.5
984.583	-19.48
984.785	-18.8
984.988	-16.26
985.19	-13.93
985.392	-15.46
985.595	-18.84
985.797	-18.15
985.999	-15.95
986.202	-13.97
986.404	-13.77
986.606	-11.1
986.808	-13.05
987.01	-11.7
987.212	-14.45
987.415	-15.27
987.617	-16.46
987.819	-15.04
988.021	-12.84
988.223	-15.07
988.425	-16.25
988.627	-15.24
988.829	-19.22
989.031	-17.47
989.232	-17.11
989.434	-15.86
989.636	-15.41
989.838	-15.85
990.04	-15.85
990.242	-15.84
990.443	-17.71
990.645	-16.53
990.847	-13.06
991.048	-14.23
991.25	-15.42
991.452	-16.68
991.653	-18
991.855	-17.67
992.057	-17.92
992.258	-17.96
992.46	-19.69
992.661	-18.8
992.863	-21.27
993.064	-18.14
993.265	-19.85
993.467	-20.08
993.668	-16.95
993.87	-16
994.071	-17.77
994.272	-16.99
994.473	-15.95
994.675	-14.83
994.876	-16.06
995.077	-14.83
995.278	-14.86
995.48	-14.05
995.681	-16.55
995.882	-16.17
996.083	-16.61
996.284	-20.84
996.485	-20.67
996.686	-21.17
996.887	-21.49
997.088	-25.26
997.289	-26.36
997.49	-27.72
997.691	-28.03
997.892	-26.79
998.092	-22.22
998.293	-23.52
998.494	-25.24
998.695	-25.63
998.896	-23.93
999.096	-24.07
999.297	-25.64
999.498	-27.36
999.698	-29.65
999.899	-33.88
1000.1	-36.74
1000.3	-35.74
1000.501	-37.78
1000.701	-37.13
1000.902	-37.01
1001.102	-34.76
1001.303	-33.49
1001.503	-35.06
1001.704	-35.14
1001.904	-34.4
1002.105	-35.47
1002.305	-34.54
1002.505	-34.9
1002.706	-35.36
1002.906	-36.02
1003.106	-37.04
1003.306	-34.95
1003.507	-33.68
1003.707	-33.49
1003.907	-30.1
1004.107	-29.43
1004.307	-32.53
1004.507	-30.5
1004.707	-30.13
1004.907	-30.78
1005.107	-31.39
1005.308	-30.81
1005.507	-32.65
1005.707	-28.86
1005.907	-28.03
1006.107	-25.47
1006.307	-24.65
1006.507	-25.11
1006.707	-23.31
1006.907	-23.31
1007.106	-25.45
1007.306	-27.83
1007.506	-27.43
1007.706	-28.03
1007.905	-29.53
1008.105	-29.84
1008.305	-29.73
1008.504	-29.72
1008.704	-24.03
1008.903	-22.66
1009.103	-20.63
1009.303	-22
1009.502	-20.78
1009.702	-20.97
1009.901	-20.69
1010.1	-24.46
1010.3	-22.5
1010.499	-23.19
1010.699	-25.22
1010.898	-26.96
1011.097	-27.86
1011.296	-28.99
1011.496	-29.68
1011.695	-28.3
1011.894	-30.42
1012.093	-27.08
1012.293	-27.82
1012.492	-27.15
1012.691	-26.75
1012.89	-28.06
1013.089	-29.64
1013.288	-28.26
1013.487	-26.89
1013.686	-27.37
1013.885	-27.82
1014.084	-25.88
1014.283	-26.18
1014.482	-27.47
1014.681	-27.69
1014.88	-31.93
1015.078	-31.36
1015.277	-33
1015.476	-34.07
1015.675	-34.46
1015.873	-32.33
1016.072	-33.99
1016.271	-30.41
1016.47	-35.11
1016.668	-33.93
1016.867	-33.85
1017.065	-34.33
1017.264	-34.1
1017.463	-33.48
1017.661	-33
1017.86	-33.99
1018.058	-32.59
1018.256	-34.19
1018.455	-34.95
1018.653	-34.46
1018.852	-33.4
1019.05	-34.93
1019.248	-36.69
1019.447	-37.98
1019.645	-37.91
1019.843	-39.31
1020.041	-37.55
1020.24	-38.5
1020.438	-34.35
1020.636	-34.09
1020.834	-36.01
1021.032	-33.65
1021.23	-33.95
1021.428	-32.22
1021.626	-28.99
1021.824	-28.94
1022.022	-31.32
1022.22	-28.73
1022.418	-28.81
1022.616	-28.85
1022.814	-29.26
1023.012	-29.47
1023.21	-26.89
1023.408	-26.67
1023.606	-27.72
1023.803	-22.79
1024.001	-21.76
1024.199	-24.91
1024.397	-23.55
1024.594	-22.59
1024.792	-24.81
1024.99	-24.43
1025.187	-24.43
1025.385	-19.63
1025.582	-19.61
1025.78	-21.84
1025.977	-21.78
1026.175	-20.86
1026.372	-20.33
1026.57	-23.51
1026.767	-20.56
1026.965	-19.45
1027.162	-18.78
1027.359	-19.64
1027.557	-19.23
1027.754	-22.36
1027.951	-23.99
1028.148	-22.49
1028.346	-24.9
1028.543	-28.03
1028.74	-27.49
1028.937	-29.38
1029.134	-29.6
1029.331	-31.56
1029.528	-31.13
1029.725	-31.51
1029.923	-34.9
1030.12	-32.68
1030.317	-31.06
1030.513	-30.1
1030.71	-29.53
1030.907	-26.45
1031.104	-27.86
1031.301	-27.44
1031.498	-28.09
1031.695	-26.95
1031.892	-25.3
1032.088	-24.54
1032.285	-26.51
1032.482	-27.01
1032.678	-28.31
1032.875	-31.23
1033.072	-30.88
1033.268	-33.3
1033.465	-33.56
1033.662	-37.09
1033.858	-35.54
1034.055	-34.51
1034.251	-31.85
1034.448	-31.09
1034.644	-30.13
1034.84	-28.26
1035.037	-26.37
1035.233	-26.14
1035.43	-23.73
1035.626	-24.35
1035.822	-23.15
1036.019	-24.27
1036.215	-28.22
1036.411	-28.95
1036.607	-32.9
1036.803	-35.17
1037	-36.61
1037.196	-37.52
1037.392	-38.62
1037.588	-40.48
1037.784	-39.45
1037.98	-40.57
1038.176	-40.15
1038.372	-41.42
1038.568	-40.8
1038.764	-39.65
1038.96	-36.95
1039.156	-37.9
1039.352	-36.98
1039.547	-35.44
1039.743	-33.08
1039.939	-31.07
1040.135	-31.9
1040.331	-34.57
1040.526	-33.3
1040.722	-35.28
1040.918	-37.41
1041.113	-39.39
1041.309	-40.21
1041.505	-42.03
1041.7	-41.57
1041.896	-41.87
1042.091	-42.23
1042.287	-40.65
1042.482	-39.76
1042.678	-38.22
1042.873	-36.98
1043.069	-37.4
1043.264	-36.86
1043.459	-34.86
1043.655	-33.61
1043.85	-35.7
1044.045	-34.39
1044.24	-35.06
1044.436	-32.18
1044.631	-32.49
1044.826	-32.68
1045.021	-35.76
1045.216	-35.05
