Data from FLMT021711__15__17-56-03-995.txt Node

Date: Tue Nov 05 17:56:03 CET 2024
User: Etudiants TP
Spectrometer: FLMT02171
Trigger mode: 0
Integration Time (sec): 1.000000E-1
Scans to average: 5
Electric dark correction enabled: true
Nonlinearity correction enabled: false
Boxcar width: 15
XAxis mode: Wavelengths
Number of Pixels in Spectrum: 3648
>>>>>Begin Spectral Data<<<<<
194.658	-63.01
194.923	-61.33
195.188	-53.02
195.453	-53.15
195.717	-48.8
195.982	-48.5
196.247	-47.69
196.512	-50.38
196.777	-47.32
197.042	-44.84
197.307	-44.42
197.572	-39.56
197.837	-40.69
198.101	-38.69
198.366	-35.82
198.631	-34.46
198.896	-27.94
199.161	-21.54
199.425	-12.99
199.69	-4.18
199.955	-5.2
200.22	-8.7
200.484	-9.76
200.749	-10.74
201.014	-8.89
201.278	-9.45
201.543	-8.81
201.807	-8.51
202.072	-7.35
202.337	-7.49
202.601	-7.18
202.866	-8.96
203.13	-7.86
203.395	-10.62
203.659	-10.74
203.924	-11.48
204.189	-8.78
204.453	-5.88
204.717	-3.1
204.982	-4.08
205.246	-2.73
205.511	-1.24
205.775	-2.67
206.04	3.06
206.304	4.06
206.568	4.95
206.833	5.81
207.097	6.32
207.361	9.56
207.626	11.01
207.89	11.81
208.154	12.92
208.419	15.68
208.683	16.32
208.947	18.87
209.211	17.62
209.476	17.79
209.74	18.23
210.004	17.22
210.268	17.74
210.532	21.36
210.796	22.38
211.061	22.4
211.325	23.54
211.589	21.63
211.853	22.08
212.117	22.33
212.381	22.01
212.645	20.4
212.909	20.32
213.173	18.7
213.437	18.07
213.701	19.11
213.965	20.98
214.229	15.1
214.493	14.67
214.757	13.51
215.021	13.87
215.285	16.47
215.549	17.81
215.813	17.08
216.077	16.3
216.34	18.48
216.604	15.77
216.868	15.9
217.132	15.53
217.396	16.18
217.659	17.01
217.923	14.22
218.187	13.96
218.451	13.54
218.714	10.07
218.978	9.06
219.242	11.94
219.505	12.05
219.769	13.3
220.033	14.25
220.296	14.73
220.56	14.63
220.824	13.06
221.087	14.29
221.351	12.96
221.614	11.9
221.878	11.86
222.142	9.07
222.405	10.79
222.669	13.02
222.932	9.08
223.196	6.58
223.459	4.61
223.722	4.34
223.986	0.95
224.249	0.41
224.513	0.73
224.776	1.66
225.04	1.41
225.303	0.91
225.566	-0.31
225.83	1.11
226.093	4.13
226.356	2.99
226.62	0.87
226.883	3.99
227.146	5.96
227.409	3.79
227.673	2.24
227.936	1.81
228.199	2.62
228.462	0.27
228.725	-0.92
228.989	0.22
229.252	-0.06
229.515	7.75
229.778	7.83
230.041	7.32
230.304	5.91
230.567	7.23
230.83	4.93
231.093	8.07
231.356	8.12
231.619	15.42
231.882	14.07
232.145	17.56
232.408	17.45
232.671	15.84
232.934	14.77
233.197	13.01
233.46	12.34
233.723	14.04
233.986	14.01
234.249	10.65
234.512	12.77
234.775	17.24
235.037	16.46
235.3	15.86
235.563	16.38
235.826	17.13
236.089	20
236.351	19.33
236.614	22.57
236.877	22.93
237.14	24.24
237.402	24.49
237.665	17.83
237.928	17.99
238.19	16.31
238.453	18.51
238.716	18.12
238.978	18.34
239.241	17.23
239.503	19.58
239.766	12.36
240.029	9.56
240.291	12.08
240.554	11.93
240.816	11.93
241.079	12.2
241.341	12.6
241.604	12.29
241.866	9.66
242.129	9.74
242.391	11.77
242.653	11.01
242.916	9.52
243.178	7.46
243.441	8.58
243.703	7.72
243.965	5.91
244.228	5.81
244.49	5.18
244.752	5.6
245.015	6.77
245.277	8.18
245.539	6.65
245.801	7.4
246.064	5.1
246.326	4.59
246.588	4.64
246.85	6.14
247.112	6.57
247.374	8.71
247.637	10.91
247.899	10.91
248.161	14.05
248.423	8.52
248.685	9.38
248.947	9.33
249.209	9.48
249.471	11.05
249.733	11.37
249.995	10.91
250.257	11.21
250.519	10.56
250.781	13.74
251.043	11.25
251.305	12.7
251.567	13.63
251.829	15.18
252.091	15.63
252.353	11.11
252.615	12.13
252.876	9.13
253.138	6.54
253.4	3.46
253.662	4.39
253.924	6.33
254.185	7.62
254.447	7.87
254.709	7.9
254.971	8.97
255.232	9.84
255.494	7.78
255.756	4.53
256.017	5.45
256.279	5.05
256.541	7.15
256.802	6.38
257.064	7.43
257.326	6.81
257.587	7.05
257.849	7.54
258.11	10.28
258.372	9.12
258.633	9.19
258.895	7.1
259.156	6.31
259.418	6.03
259.679	1.04
259.941	-1.54
260.202	0.7
260.464	3.42
260.725	2.23
260.987	2.17
261.248	2.34
261.509	1.69
261.771	0.99
262.032	3.13
262.293	3.54
262.555	3.44
262.816	0.83
263.077	-2.09
263.338	-4.45
263.6	-3.62
263.861	-4.52
264.122	-4.52
264.383	-2.43
264.645	-2.75
264.906	-4.3
265.167	-5.25
265.428	-5.43
265.689	-4.53
265.95	-5.9
266.211	-5.79
266.473	-5.74
266.734	-8.69
266.995	-11.75
267.256	-10.33
267.517	-7.2
267.778	-2.81
268.039	-0.87
268.3	-3.17
268.561	-5.51
268.822	-1.94
269.083	-3.45
269.344	-4.3
269.604	-3.61
269.865	-2.95
270.126	-7.15
270.387	-6.36
270.648	-4.43
270.909	-3.67
271.17	-5.74
271.43	-9.03
271.691	-11.69
271.952	-12.37
272.213	-10.2
272.473	-13.32
272.734	-10.74
272.995	-7.86
273.256	-7.36
273.516	-4.26
273.777	-6.68
274.038	-4.76
274.298	-6.78
274.559	-5.32
274.82	0.84
275.08	3.83
275.341	6.2
275.601	3.38
275.862	2.17
276.122	2.32
276.383	3.38
276.643	4.61
276.904	3.2
277.164	5.57
277.425	6.39
277.685	10.41
277.946	10.87
278.206	12.17
278.467	13.46
278.727	12.86
278.987	12.29
279.248	15.26
279.508	18.46
279.768	20.48
280.029	22.7
280.289	18.6
280.549	17.11
280.81	16.9
281.07	14.43
281.33	16.11
281.59	13.56
281.851	17.45
282.111	17.38
282.371	16.36
282.631	16.72
282.891	13.48
283.151	11.41
283.412	7.45
283.672	7.42
283.932	6.03
284.192	6.99
284.452	5.25
284.712	3.2
284.972	1.37
285.232	-0.22
285.492	1.68
285.752	-0.57
286.012	5.25
286.272	7.32
286.532	4.96
286.792	4.54
287.052	6.84
287.312	5.57
287.571	3.2
287.831	4.68
288.091	2.07
288.351	3.47
288.611	7.33
288.871	5.69
289.13	6.21
289.39	1.65
289.65	3.46
289.91	-1.37
290.17	0.92
290.429	5.02
290.689	2.32
290.949	-0.38
291.208	2.06
291.468	6.73
291.728	7.36
291.987	9.25
292.247	7.66
292.506	9.59
292.766	12.83
293.026	11.56
293.285	13
293.545	14.85
293.804	14.03
294.064	10.04
294.323	7.78
294.583	8.69
294.842	9.43
295.102	8.21
295.361	8.79
295.621	10.07
295.88	10.27
296.139	10
296.399	10
296.658	6.3
296.917	7.03
297.177	4.34
297.436	7.15
297.695	4.73
297.955	7.55
298.214	5.85
298.473	4.95
298.732	6.5
298.992	9.69
299.251	8.61
299.51	3.93
299.769	4.33
300.028	4.31
300.287	4.66
300.547	4.43
300.806	2.28
301.065	5.01
301.324	7.37
301.583	4.21
301.842	0.87
302.101	-1.23
302.36	-1.03
302.619	-1.29
302.878	-0.95
303.137	-1.89
303.396	-1.63
303.655	0.77
303.914	-2.41
304.173	-1.54
304.432	-1.01
304.691	1.99
304.95	-0.83
305.208	5.28
305.467	5.18
305.726	5.4
305.985	6.56
306.244	6.73
306.503	7.23
306.761	6.5
307.02	3.98
307.279	5
307.537	5.99
307.796	3.46
308.055	1.21
308.314	1.46
308.572	-0.59
308.831	1.58
309.09	2.28
309.348	3.1
309.607	3.64
309.865	7.94
310.124	8.31
310.382	8.83
310.641	9.62
310.9	7.98
311.158	8.69
311.417	9.01
311.675	8.74
311.933	9.38
312.192	10.48
312.45	9.65
312.709	9.24
312.967	9.1
313.226	6.62
313.484	5.95
313.742	4.94
314.001	2.41
314.259	1.2
314.517	1.5
314.776	3.88
315.034	7.8
315.292	6.2
315.55	4.21
315.809	4.15
316.067	5.08
316.325	3.99
316.583	5.71
316.841	3.61
317.1	1.17
317.358	-2.14
317.616	-3.79
317.874	-6
318.132	-6.25
318.39	-3.99
318.648	-6.43
318.906	-6.5
319.164	-7.1
319.422	-8.33
319.68	-9.44
319.938	-7.99
320.196	-7.61
320.454	-5.16
320.712	-5.8
320.97	-6.15
321.228	-6.44
321.486	-4
321.744	-2.59
322.002	-0.15
322.26	-1.63
322.517	-0.82
322.775	-4.22
323.033	-7.54
323.291	-5.59
323.549	-2.4
323.806	-0.76
324.064	-1.03
324.322	0.92
324.58	0.27
324.837	2.68
325.095	1.6
325.353	2.67
325.61	5.37
325.868	4.66
326.126	6.06
326.383	3.48
326.641	3.94
326.898	5.19
327.156	5.57
327.413	6.06
327.671	6.33
327.928	7.54
328.186	6.39
328.443	3.68
328.701	8.05
328.958	10.09
329.216	10.3
329.473	7.63
329.731	7.59
329.988	7.6
330.245	11.19
330.503	11.94
330.76	12.31
331.017	15.36
331.275	12.62
331.532	11.29
331.789	9.16
332.047	8.52
332.304	4.96
332.561	4.94
332.818	3.79
333.076	6.07
333.333	6.66
333.59	6.04
333.847	8.7
334.104	7.67
334.361	6.62
334.618	6.28
334.876	4.22
335.133	3.15
335.39	1.91
335.647	3.11
335.904	-0.12
336.161	-1.1
336.418	-0.32
336.675	-4.47
336.932	-3.44
337.189	-3.85
337.446	-2.72
337.703	-3.36
337.96	-7.82
338.216	-9.02
338.473	-12.09
338.73	-11.52
338.987	-11.34
339.244	-7.71
339.501	-9.12
339.757	-8.21
340.014	-5.4
340.271	-5.05
340.528	-3.82
340.785	0.61
341.041	1.01
341.298	-1.52
341.555	-1.69
341.811	-2.56
342.068	-4.99
342.325	-3.95
342.581	-1.28
342.838	0.34
343.094	0.89
343.351	1.86
343.608	-1.03
343.864	0.75
344.121	1.07
344.377	1.59
344.634	1.32
344.89	-0.2
345.147	-1.52
345.403	-2.28
345.66	-1.72
345.916	0.63
346.172	-1.36
346.429	-3.34
346.685	-5.12
346.942	-6.78
347.198	-11.4
347.454	-9.67
347.711	-9
347.967	-12.59
348.223	-10.4
348.48	-10.13
348.736	-8.2
348.992	-8.67
349.248	-6.22
349.504	-5.62
349.761	-6.77
350.017	-6.07
350.273	-6.43
350.529	-7.56
350.785	-7.51
351.041	-7.38
351.297	-7.26
351.554	-8.47
351.81	-9.93
352.066	-9.9
352.322	-11.16
352.578	-10.33
352.834	-10.28
353.09	-9.71
353.346	-10.14
353.602	-12.57
353.858	-13.19
354.114	-13.76
354.369	-10.57
354.625	-7.98
354.881	-8.47
355.137	-5.73
355.393	-5.98
355.649	-6.06
355.905	-4.82
356.16	-5.55
356.416	-6.03
356.672	-13.51
356.928	-14.43
357.183	-15.47
357.439	-16.31
357.695	-16.73
357.951	-13.42
358.206	-13.92
358.462	-14.16
358.718	-16.68
358.973	-15.38
359.229	-15
359.484	-14.36
359.74	-10.93
359.996	-9.72
360.251	-6.14
360.507	-8.83
360.762	-9.1
361.018	-7.21
361.273	-8.55
361.529	-7.74
361.784	-8.44
362.04	-6.02
362.295	-8.06
362.55	-8.86
362.806	-6.2
363.061	-6.62
363.316	-6.53
363.572	-7.12
363.827	-6.24
364.082	-8.77
364.338	-8.85
364.593	-7.14
364.848	-5.12
365.104	-5.81
365.359	-3.3
365.614	-1.52
365.869	-2.5
366.124	-2.04
366.38	-3.52
366.635	0.08
366.89	-0.24
367.145	-0
367.4	4.99
367.655	4.4
367.91	5.34
368.165	2.81
368.42	1.76
368.675	1.84
368.93	2.82
369.185	0.44
369.44	1.81
369.695	5.13
369.95	3.88
370.205	3.64
370.46	2.79
370.715	3.15
370.97	5.4
371.225	6.56
371.48	8.26
371.734	9.42
371.989	11.25
372.244	11.36
372.499	12.39
372.754	10.37
373.008	6.51
373.263	0.99
373.518	2.44
373.773	0.31
374.027	-0.45
374.282	2.95
374.537	2.11
374.791	4.04
375.046	2.25
375.301	0.02
375.555	-2.18
375.81	-2.99
376.064	-2.32
376.319	1.24
376.573	0.38
376.828	-4.13
377.082	0.26
377.337	-2.07
377.591	-4.84
377.846	-3.51
378.1	0.56
378.355	2.94
378.609	0.34
378.863	-2.44
379.118	-0.29
379.372	-1.61
379.627	-3.86
379.881	-5.38
380.135	-6.1
380.389	-6.72
380.644	-5.89
380.898	-3.36
381.152	-0.9
381.407	-1.73
381.661	0.41
381.915	1.92
382.169	0.4
382.423	-0.28
382.677	-3.66
382.932	-1.92
383.186	-0.91
383.44	0.39
383.694	2.5
383.948	0.41
384.202	-1.54
384.456	2.27
384.71	5.28
384.964	5.25
385.218	8.21
385.472	8.3
385.726	7.7
385.98	6.32
386.234	5.17
386.488	3.5
386.742	4.19
386.996	-0.81
387.249	0.95
387.503	2.75
387.757	4.19
388.011	5.21
388.265	6.12
388.518	7.84
388.772	10.04
389.026	11.7
389.28	9.91
389.533	8.56
389.787	11.05
390.041	9.46
390.295	8.82
390.548	8.89
390.802	11.98
391.055	10.42
391.309	9.74
391.563	7.93
391.816	10.62
392.07	10.15
392.323	10.29
392.577	11.17
392.83	11.04
393.084	15.13
393.337	18.44
393.591	18.59
393.844	18.66
394.098	21.22
394.351	24.56
394.604	25.99
394.858	29.49
395.111	28.81
395.364	26.37
395.618	27.51
395.871	25.13
396.124	23.93
396.378	22.27
396.631	22.39
396.884	19.11
397.137	19.34
397.391	21.27
397.644	16.24
397.897	16.75
398.15	19.2
398.403	22.18
398.657	20.38
398.91	19.07
399.163	19.56
399.416	19.39
399.669	16.7
399.922	17.33
400.175	13.77
400.428	12.66
400.681	13.28
400.934	10.04
401.187	9.76
401.44	10.34
401.693	9.36
401.946	7.34
402.199	2.46
402.452	1.56
402.704	-2.44
402.957	-3.23
403.21	-1.51
403.463	-2.73
403.716	-1.03
403.969	-0.31
404.221	-0.58
404.474	0.64
404.727	3.66
404.98	5.27
405.232	4.54
405.485	6.21
405.738	8.27
405.99	6.62
406.243	5.54
406.496	7.32
406.748	7.74
407.001	6.54
407.253	7.12
407.506	7.69
407.759	7.85
408.011	6.81
408.264	6.76
408.516	6.03
408.769	3.58
409.021	4.27
409.274	3.37
409.526	4.3
409.778	3.19
410.031	6.74
410.283	6.14
410.536	11.14
410.788	9.49
411.04	10.35
411.293	12.75
411.545	13.7
411.797	13.34
412.049	13.1
412.302	13.9
412.554	15.16
412.806	13.27
413.058	10.61
413.311	12.46
413.563	11.7
413.815	12.94
414.067	11.59
414.319	9.67
414.571	10
414.823	8.9
415.075	7.27
415.328	6.81
415.58	9.12
415.832	11.48
416.084	13.18
416.336	12.66
416.588	14.82
416.84	12.22
417.091	14.95
417.343	12.33
417.595	14.15
417.847	14.98
418.099	16.5
418.351	15.26
418.603	19.47
418.855	18.8
419.106	18.4
419.358	17.19
419.61	16.48
419.862	16.75
420.114	14.14
420.365	13.89
420.617	14.48
420.869	14.52
421.12	12.7
421.372	13.39
421.624	12.93
421.875	12.84
422.127	9.1
422.379	9.94
422.63	12.39
422.882	11.36
423.133	12.36
423.385	12.78
423.636	13.11
423.888	13.6
424.139	14.42
424.391	12.75
424.642	11.72
424.894	10.28
425.145	9.74
425.396	6.72
425.648	8.66
425.899	6.19
426.151	7.88
426.402	5.2
426.653	5.73
426.905	4
427.156	2.9
427.407	3.66
427.658	3.22
427.91	1.01
428.161	0.22
428.412	1.25
428.663	2.46
428.914	3.76
429.166	4.6
429.417	4.8
429.668	5.21
429.919	4.64
430.17	2.78
430.421	3.25
430.672	7.21
430.923	7.6
431.174	5.46
431.425	5.92
431.676	4.4
431.927	1.96
432.178	3.84
432.429	4.15
432.68	2.13
432.931	5.64
433.182	9.69
433.433	6.14
433.683	9.32
433.934	7.03
434.185	7.17
434.436	5.42
434.687	7.1
434.937	8.47
435.188	6.51
435.439	6.55
435.69	8.79
435.94	8.33
436.191	9.75
436.442	9.88
436.692	8.11
436.943	5.5
437.194	2.36
437.444	4.47
437.695	7.6
437.945	9.07
438.196	6.68
438.447	5.23
438.697	4.23
438.948	3.66
439.198	0.62
439.449	-3.12
439.699	-1.24
439.949	-1.78
440.2	-2.52
440.45	-0.47
440.701	-2.39
440.951	-4.43
441.201	-2.88
441.452	-4.18
441.702	-5.38
441.952	-4.72
442.203	-3.24
442.453	-4.76
442.703	-3.59
442.953	-2.36
443.204	-0.46
443.454	-2.1
443.704	-2.22
443.954	-5.76
444.204	-6.2
444.455	-4.84
444.705	-3.22
444.955	-2.07
445.205	-3.64
445.455	-5.91
445.705	-4.81
445.955	-4.26
446.205	-5.82
446.455	-4.84
446.705	-2.84
446.955	-2.15
447.205	-0
447.455	1.23
447.705	-0.29
447.955	-0.24
448.205	0.56
448.454	1.22
448.704	2.35
448.954	1.58
449.204	1.24
449.454	2.23
449.704	0.8
449.953	0.05
450.203	2.13
450.453	-0.22
450.703	1.38
450.952	-1.2
451.202	0.11
451.452	-0.51
451.701	2.6
451.951	7.26
452.201	7.48
452.45	6.56
452.7	8.2
452.949	8.1
453.199	8.83
453.448	9.74
453.698	10.91
453.947	11.05
454.197	10.19
454.446	8.28
454.696	10.65
454.945	11.44
455.195	9.92
455.444	11.07
455.693	14.14
455.943	11.79
456.192	12.2
456.442	11.98
456.691	11.32
456.94	11.07
457.189	9.55
457.439	11.6
457.688	13.05
457.937	12.78
458.186	14.35
458.436	14.08
458.685	15.69
458.934	14.05
459.183	13.22
459.432	14.41
459.681	13.03
459.93	11.82
460.179	11.86
460.429	9.57
460.678	11.03
460.927	14.04
461.176	13.68
461.425	13.09
461.674	15.27
461.923	15.96
462.172	14.33
462.42	13.69
462.669	15.69
462.918	15.01
463.167	14.74
463.416	11.56
463.665	12.63
463.914	12.27
464.162	11.01
464.411	12.45
464.66	13.73
464.909	13.92
465.158	14.66
465.406	14.34
465.655	15.26
465.904	16.9
466.152	18.57
466.401	19.37
466.65	22.23
466.898	21.18
467.147	18.09
467.395	17.92
467.644	20.77
467.893	19.64
468.141	21.38
468.39	20
468.638	17.75
468.887	15.55
469.135	14.84
469.384	14
469.632	13.97
469.88	14.43
470.129	15.98
470.377	12.03
470.626	15.26
470.874	17.51
471.122	20.38
471.371	18.19
471.619	17.71
471.867	19.72
472.115	19.24
472.364	18.53
472.612	20.67
472.86	18.68
473.108	19.41
473.356	21.12
473.605	19.71
473.853	15.72
474.101	14.47
474.349	13.22
474.597	16.33
474.845	15.98
475.093	14.77
475.341	12.4
475.589	13.18
475.837	14.26
476.085	15.53
476.333	14.06
476.581	15.59
476.829	15.35
477.077	18.39
477.325	18.65
477.573	21.55
477.821	19.48
478.069	21.38
478.317	19.25
478.564	20.81
478.812	18.14
479.06	18.61
479.308	16.9
479.555	16.56
479.803	14.42
480.051	13.89
480.299	12.87
480.546	13.02
480.794	9.25
481.042	8.98
481.289	6.75
481.537	8.83
481.784	7.89
482.032	11.25
482.28	11.83
482.527	10.03
482.775	10.01
483.022	11.17
483.27	11.47
483.517	13.61
483.765	12.29
484.012	12.99
484.259	10.74
484.507	13.97
484.754	12.74
485.002	12.08
485.249	10
485.496	12.62
485.744	11.81
485.991	12.01
486.238	9.66
486.486	13.62
486.733	15.13
486.98	17.41
487.227	15.7
487.474	18.6
487.722	22.03
487.969	20.35
488.216	19.77
488.463	21.31
488.71	16.87
488.957	17.94
489.204	16.84
489.451	17.62
489.699	16.62
489.946	12.53
490.193	13.71
490.44	12.76
490.687	12.36
490.934	11.9
491.18	7.12
491.427	9
491.674	10.31
491.921	10.95
492.168	8.03
492.415	5.87
492.662	6.51
492.909	8.71
493.155	6.69
493.402	5.53
493.649	3.71
493.896	3.99
494.142	-1.11
494.389	-1.77
494.636	-2.69
494.883	-4.25
495.129	-6.01
495.376	-9.22
495.623	-7.22
495.869	-5.85
496.116	-5.33
496.362	-3.08
496.609	-0.57
496.855	3.94
497.102	3.87
497.348	2.53
497.595	3.66
497.841	6.43
498.088	5.27
498.334	3.96
498.581	2.2
498.827	2.81
499.074	3.55
499.32	5.23
499.566	8.7
499.813	10.45
500.059	9.34
500.305	10.01
500.552	9.08
500.798	10.09
501.044	13.65
501.29	12.89
501.537	10.13
501.783	12.4
502.029	14.76
502.275	12.08
502.521	11.47
502.767	12.92
503.013	15.78
503.26	14.54
503.506	12.31
503.752	14.52
503.998	12.76
504.244	13.27
504.49	9.73
504.736	10.97
504.982	9.7
505.228	12.15
505.474	12.32
505.72	13.35
505.966	14.17
506.211	18.05
506.457	18.78
506.703	15.19
506.949	12.74
507.195	10.87
507.441	6.84
507.686	9.95
507.932	9.57
508.178	10.12
508.424	7.43
508.669	4.62
508.915	6.17
509.161	8.74
509.406	9.13
509.652	9.56
509.898	12.56
510.143	14.07
510.389	13.18
510.634	9.82
510.88	11.68
511.125	14.43
511.371	14.13
511.616	15.53
511.862	12.22
512.107	11.02
512.353	11.17
512.598	12.79
512.844	11.08
513.089	9.07
513.335	10.64
513.58	9.61
513.825	8.83
514.071	7.66
514.316	7
514.561	8.28
514.806	6.99
515.052	10.91
515.297	8.67
515.542	9.49
515.787	10.99
516.033	12.65
516.278	14.17
516.523	13.04
516.768	12.54
517.013	11.15
517.258	8.73
517.503	8.79
517.748	7.79
517.993	6.91
518.238	6.88
518.483	5.72
518.728	5.83
518.973	4.32
519.218	4.19
519.463	5.81
519.708	5.42
519.953	4.83
520.198	4.04
520.443	5.97
520.688	8.2
520.933	6.98
521.177	7.9
521.422	4.67
521.667	7.53
521.912	7.77
522.157	3.99
522.401	6.68
522.646	5.57
522.891	7.37
523.135	7.61
523.38	6.75
523.625	5.98
523.869	7.72
524.114	8.38
524.358	7.26
524.603	6.55
524.848	4.75
525.092	4.04
525.337	7.12
525.581	9.38
525.826	12.09
526.07	12.96
526.315	13.12
526.559	12.02
526.803	10.72
527.048	14.11
527.292	15.52
527.537	15.47
527.781	15.24
528.025	12.42
528.269	13.38
528.514	13.37
528.758	11.76
529.002	13.49
529.247	15.72
529.491	16.13
529.735	20.71
529.979	20.72
530.223	21.66
530.467	17.73
530.712	14.92
530.956	14.9
531.2	15.34
531.444	13.44
531.688	15.49
531.932	15
532.176	16.29
532.42	18.04
532.664	19.94
532.908	17.01
533.152	14.8
533.396	13.53
533.64	11.12
533.884	9.13
534.128	8.46
534.371	8.71
534.615	9.09
534.859	7.58
535.103	6.2
535.347	6.26
535.59	7.09
535.834	3.46
536.078	5.44
536.322	6.92
536.565	10.64
536.809	8.95
537.053	10.93
537.296	8.8
537.54	8.93
537.784	8.17
538.027	10.35
538.271	10
538.514	8.31
538.758	8.67
539.001	7.7
539.245	6.16
539.488	7.06
539.732	8.81
539.975	8.7
540.219	10.38
540.462	12.69
540.706	14.03
540.949	12.91
541.192	13.82
541.436	17.68
541.679	22.95
541.922	24.45
542.166	19.32
542.409	19.89
542.652	21.03
542.895	22.12
543.139	23.37
543.382	28.16
543.625	26.86
543.868	26.53
544.111	23.73
544.354	22.48
544.598	20.72
544.841	22.25
545.084	20.77
545.327	20.72
545.57	22.83
545.813	24.63
546.056	25.31
546.299	24.9
546.542	26.49
546.785	29.88
547.028	30.18
547.271	28.25
547.514	28.79
547.756	25.65
547.999	24.91
548.242	26.37
548.485	24.5
548.728	25.14
548.971	21.98
549.213	21.48
549.456	20.26
549.699	20.67
549.942	21.03
550.184	21.05
550.427	19.92
550.67	19.21
550.912	13.99
551.155	15.64
551.398	15.35
551.64	14.58
551.883	15.3
552.125	15.54
552.368	15.26
552.61	12.61
552.853	14.61
553.095	13.34
553.338	13.13
553.58	12.6
553.823	11.55
554.065	13.85
554.308	10.11
554.55	8.95
554.792	8.65
555.035	6.69
555.277	5.52
555.519	6.4
555.762	2.96
556.004	4.1
556.246	1.63
556.488	2.51
556.731	0.19
556.973	1.69
557.215	1.01
557.457	2.5
557.699	3.71
557.941	1.53
558.183	1.58
558.426	5.5
558.668	2.37
558.91	4.02
559.152	4.52
559.394	3.09
559.636	4.64
559.878	5.43
560.12	6.09
560.362	6.97
560.604	6.12
560.845	5.82
561.087	5.65
561.329	8.09
561.571	5.56
561.813	6.26
562.055	4.79
562.297	5.4
562.538	6.92
562.78	9.55
563.022	6.49
563.264	8.78
563.505	8.86
563.747	9.57
563.989	7.03
564.23	5.65
564.472	4.86
564.714	7.38
564.955	6.83
565.197	4.52
565.438	6.63
565.68	9.82
565.921	8.06
566.163	9.07
566.404	7.55
566.646	11.02
566.887	12.45
567.129	12.13
567.37	10.71
567.612	12.89
567.853	9.66
568.094	11.38
568.336	11.76
568.577	12.31
568.818	12.95
569.06	10.2
569.301	8.48
569.542	9.58
569.783	11.88
570.025	12.2
570.266	12.62
570.507	14.93
570.748	14.38
570.989	15.23
571.23	17.68
571.472	19.19
571.713	18.26
571.954	17.82
572.195	16.46
572.436	18.46
572.677	20.62
572.918	22.55
573.159	18.87
573.4	16.41
573.641	14.98
573.882	16.29
574.123	13.22
574.364	8.78
574.604	9.73
574.845	8.46
575.086	8.5
575.327	9.56
575.568	8.79
575.809	6.97
576.049	5.83
576.29	3.75
576.531	9.49
576.771	13.22
577.012	14.8
577.253	14.25
577.494	12.77
577.734	13.62
577.975	14.12
578.215	13.66
578.456	12.17
578.697	12.44
578.937	12.95
579.178	14.18
579.418	14.66
579.659	13.8
579.899	10.25
580.14	8.99
580.38	8.37
580.62	9.69
580.861	14.17
581.101	15.45
581.342	15.46
581.582	11.84
581.822	14.49
582.063	15.15
582.303	16.85
582.543	16.98
582.783	18.6
583.024	21
583.264	25.82
583.504	23.95
583.744	24.91
583.984	21.9
584.224	21.48
584.465	20.25
584.705	20.27
584.945	22.27
585.185	20.84
585.425	21.5
585.665	22.67
585.905	23.43
586.145	23.71
586.385	22.56
586.625	25.25
586.865	24.57
587.105	24.67
587.345	25.2
587.585	26.62
587.824	24.41
588.064	25.37
588.304	23.96
588.544	23.75
588.784	21.71
589.024	25.52
589.263	25.57
589.503	22.17
589.743	24.25
589.982	23.01
590.222	23.58
590.462	20.38
590.701	17.05
590.941	21.23
591.181	20.35
591.42	20.58
591.66	23.15
591.899	27.64
592.139	27.26
592.378	27.77
592.618	27.06
592.857	24.72
593.097	25.46
593.336	24.99
593.576	24.29
593.815	25.49
594.055	24.01
594.294	25.27
594.533	26.26
594.773	26.14
595.012	26.72
595.251	27.83
595.491	28.89
595.73	29.91
595.969	31.12
596.208	33.05
596.447	36.24
596.687	37.94
596.926	40.31
597.165	36.38
597.404	39.27
597.643	37.41
597.882	36.73
598.121	38.23
598.36	38.6
598.599	40.22
598.838	38.94
599.077	35.16
599.316	35.04
599.555	35.26
599.794	35.39
600.033	38.54
600.272	41.27
600.511	39.22
600.75	40.58
600.989	41.27
601.228	40.49
601.466	40.04
601.705	39.18
601.944	40.42
602.183	43.94
602.422	43.55
602.66	43.05
602.899	43.35
603.138	43.23
603.376	42.95
603.615	43.61
603.854	41.97
604.092	41.44
604.331	42.79
604.569	45.91
604.808	45.08
605.047	45.96
605.285	46.32
605.524	45.06
605.762	43.12
606	44.19
606.239	46.54
606.477	47.13
606.716	43.19
606.954	41.17
607.193	38.49
607.431	33.68
607.669	32.17
607.908	31.59
608.146	34.39
608.384	33.96
608.622	34.95
608.861	35.26
609.099	35.47
609.337	33.93
609.575	32.8
609.813	33.15
610.052	33.94
610.29	29.8
610.528	29.82
610.766	27.81
611.004	28
611.242	25.77
611.48	25.58
611.718	23.34
611.956	23.67
612.194	22.89
612.432	22.78
612.67	21.82
612.908	25.33
613.146	24.16
613.384	22.79
613.621	20.25
613.859	21.03
614.097	19.9
614.335	20.78
614.573	22.58
614.811	25.66
615.048	25.33
615.286	25.92
615.524	23.95
615.761	21.34
615.999	21.61
616.237	21.23
616.474	23.44
616.712	25.06
616.95	22.96
617.187	22.99
617.425	24.73
617.662	26.1
617.9	22.91
618.137	22.35
618.375	19.91
618.612	19.48
618.85	22.52
619.087	24.79
619.325	23.33
619.562	20.44
619.799	19.31
620.037	20.19
620.274	17.96
620.511	20.31
620.749	19.65
620.986	20.58
621.223	18.72
621.461	19.16
621.698	20.81
621.935	20.67
622.172	18.34
622.409	21.24
622.647	20.49
622.884	18.16
623.121	20.78
623.358	18.6
623.595	17.82
623.832	16.71
624.069	14.42
624.306	16.32
624.543	17.06
624.78	17.13
625.017	18.37
625.254	21.87
625.491	23.99
625.728	25.93
625.965	26.16
626.202	23.56
626.438	21.99
626.675	21.78
626.912	24.6
627.149	25.95
627.386	25.08
627.622	23.21
627.859	22.13
628.096	21.29
628.333	21.19
628.569	21.26
628.806	23.12
629.043	22.72
629.279	23.68
629.516	26.31
629.752	22.32
629.989	24.47
630.225	23.93
630.462	24.94
630.699	25.67
630.935	25.93
631.171	24.54
631.408	25.61
631.644	23.85
631.881	21.05
632.117	19.55
632.354	19.32
632.59	17.78
632.826	17.68
633.063	17.19
633.299	17.68
633.535	15.78
633.771	15.55
634.008	16.92
634.244	16.62
634.48	15.41
634.716	17.13
634.953	16.71
635.189	17.71
635.425	20.58
635.661	22.4
635.897	22.51
636.133	22.09
636.369	19.91
636.605	15.94
636.841	14.41
637.077	16.18
637.313	15.29
637.549	16.72
637.785	14.72
638.021	14.6
638.257	13.71
638.493	16.32
638.729	13.55
638.965	17.91
639.2	20.55
639.436	19.66
639.672	18.77
639.908	16.27
640.144	20.75
640.379	22.56
640.615	20.53
640.851	23.38
641.086	24.41
641.322	23.35
641.558	23.53
641.793	23.65
642.029	22.61
642.264	22.96
642.5	23.07
642.736	19.19
642.971	19.47
643.207	17.36
643.442	15.86
643.678	17.06
643.913	20.21
644.148	20.21
644.384	22.72
644.619	23.51
644.855	24.1
645.09	24.9
645.325	27.15
645.561	26.66
645.796	24.2
646.031	28.66
646.266	24.66
646.502	23.43
646.737	25.26
646.972	24.18
647.207	25.22
647.442	22.42
647.678	19.73
647.913	23.04
648.148	23.11
648.383	21.56
648.618	21.13
648.853	22.16
649.088	24.59
649.323	27.59
649.558	28.73
649.793	29.45
650.028	30.6
650.263	27.39
650.498	29.32
650.733	29.11
650.968	28.17
651.202	28.61
651.437	26.89
651.672	22.44
651.907	20.86
652.142	22.86
652.376	23.46
652.611	24.56
652.846	26.28
653.081	25.93
653.315	25.15
653.55	25.52
653.785	24.24
654.019	25.63
654.254	26.38
654.488	26.82
654.723	22.82
654.958	21.44
655.192	19.75
655.427	17.14
655.661	18.27
655.896	22.38
656.13	22.68
656.364	20.46
656.599	17.15
656.833	25.68
657.068	26.12
657.302	27.24
657.536	26.38
657.771	28.97
658.005	30.16
658.239	32.17
658.474	29.53
658.708	31.01
658.942	30.69
659.176	29.4
659.41	25.63
659.645	26.06
659.879	23.9
660.113	23.07
660.347	22.52
660.581	19.71
660.815	18.82
661.049	18.21
661.283	16.09
661.517	14.55
661.751	14.64
661.985	15.17
662.219	17.31
662.453	15.66
662.687	17.24
662.921	13.78
663.155	10.54
663.389	6.22
663.622	3.45
663.856	5.73
664.09	-4.16
664.324	-4.2
664.558	-4.97
664.791	-5.04
665.025	-7.67
665.259	-7.03
665.492	-9.11
665.726	-5.36
665.96	-4.68
666.193	-5.51
666.427	-3.24
666.661	-3.67
666.894	-6.63
667.128	-7.84
667.361	-6.72
667.595	-6.45
667.828	-4.88
668.062	-5.28
668.295	-4.26
668.529	-4.51
668.762	-3.84
668.995	-5.33
669.229	-2.07
669.462	-1.61
669.695	0.52
669.929	-0.98
670.162	1.7
670.395	0.83
670.629	1.56
670.862	4.51
671.095	1.13
671.328	1.65
671.561	-2.41
671.795	-1.49
672.028	0.28
672.261	1.73
672.494	1.69
672.727	1.06
672.96	1.2
673.193	-1.02
673.426	3.66
673.659	3.15
673.892	3.33
674.125	3.74
674.358	3.7
674.591	2.84
674.824	3.61
675.057	2.07
675.29	0.94
675.523	2.6
675.755	1.51
675.988	2.82
676.221	6.26
676.454	5
676.687	5.7
676.919	5.1
677.152	5.85
677.385	4.07
677.617	4.83
677.85	5.96
678.083	5.21
678.315	8.3
678.548	8.41
678.78	8.72
679.013	8
679.246	8.33
679.478	10.18
679.711	8.93
679.943	10.81
680.175	8.87
680.408	12.96
680.64	9.35
680.873	10.89
681.105	11.44
681.338	14.25
681.57	14.12
681.802	14.95
682.034	12.72
682.267	15.8
682.499	18.08
682.731	15.84
682.964	14.3
683.196	12.29
683.428	10.48
683.66	8.86
683.892	11.99
684.124	14.24
684.356	17.48
684.589	18.45
684.821	16.87
685.053	17.39
685.285	16.65
685.517	18.28
685.749	19.08
685.981	20.31
686.213	21.75
686.445	22.09
686.676	18.34
686.908	19.2
687.14	18.7
687.372	18.36
687.604	14.73
687.836	16.82
688.068	16.25
688.299	16.82
688.531	15.03
688.763	18.9
688.995	16.96
689.226	22.58
689.458	20.02
689.69	18.7
689.921	16.4
690.153	17.69
690.384	18.97
690.616	17.41
690.848	18.87
691.079	14.92
691.311	11.34
691.542	8.26
691.774	6.76
692.005	11.06
692.237	13.53
692.468	13.28
692.699	11.73
692.931	11.27
693.162	9.68
693.393	7.36
693.625	5.36
693.856	6.42
694.087	5.81
694.319	6.21
694.55	6.23
694.781	6.56
695.012	5.38
695.243	2.69
695.475	1.58
695.706	0.01
695.937	-0.43
696.168	-0.95
696.399	-4.71
696.63	-5.41
696.861	-4.47
697.092	1.73
697.323	5.18
697.554	5.72
697.785	6.23
698.016	6.06
698.247	4.25
698.478	6.22
698.709	6.47
698.94	8.75
699.171	6.52
699.401	3.09
699.632	5.14
699.863	1.6
700.094	1.64
700.325	5.28
700.555	7.76
700.786	11.23
701.017	12.4
701.247	11.51
701.478	12.23
701.709	12.89
701.939	11.75
702.17	14.04
702.401	17.19
702.631	18.45
702.862	18.91
703.092	15.09
703.323	18.28
703.553	20.03
703.784	20.91
704.014	20.75
704.244	15.1
704.475	13.81
704.705	12.29
704.936	12.48
705.166	12.58
705.396	14.34
705.627	15.11
705.857	14.66
706.087	15.26
706.317	14.05
706.548	12.76
706.778	11.29
707.008	13.11
707.238	13.71
707.468	10.97
707.698	8.48
707.928	5.62
708.158	4.27
708.389	4.19
708.619	2.18
708.849	1.04
709.079	1.44
709.309	-1.79
709.539	-4.38
709.768	-4.09
709.998	-2.74
710.228	-2.26
710.458	-3.77
710.688	-6.96
710.918	-7.09
711.148	-8
711.378	-7.09
711.607	-9.06
711.837	-6.28
712.067	-6.76
712.297	-7.45
712.526	-7.74
712.756	-8.09
712.986	-9.36
713.215	-11.93
713.445	-10.94
713.674	-9.71
713.904	-10.01
714.134	-7.41
714.363	-8.3
714.593	-9.18
714.822	-10.08
715.052	-10.1
715.281	-10.44
715.511	-10.62
715.74	-10.94
715.969	-12.85
716.199	-12.43
716.428	-10.92
716.657	-10.84
716.887	-9.1
717.116	-10.4
717.345	-9.3
717.575	-9.99
717.804	-10.21
718.033	-11.4
718.262	-12.13
718.492	-10.93
718.721	-10.04
718.95	-12.49
719.179	-13.58
719.408	-11.44
719.637	-15.45
719.866	-17.65
720.095	-15.24
720.324	-15.58
720.553	-19.14
720.782	-20.92
721.011	-21.69
721.24	-25.48
721.469	-26.5
721.698	-25.59
721.927	-25.89
722.156	-27.57
722.385	-26.5
722.613	-23.8
722.842	-22.39
723.071	-18.46
723.3	-18.23
723.529	-20.32
723.757	-19.13
723.986	-22.23
724.215	-23.09
724.443	-20.35
724.672	-17.91
724.901	-16.86
725.129	-14.76
725.358	-11.41
725.586	-15.18
725.815	-15.05
726.043	-14.55
726.272	-15.06
726.5	-16.49
726.729	-13.08
726.957	-15.14
727.186	-18.24
727.414	-16.47
727.642	-15.09
727.871	-13.55
728.099	-13.05
728.327	-11.97
728.556	-9.41
728.784	-8.86
729.012	-8.98
729.241	-5.37
729.469	-6.86
729.697	-9.77
729.925	-9.21
730.153	-11.02
730.381	-10.38
730.61	-9.04
730.838	-11.02
731.066	-10.55
731.294	-9.44
731.522	-13.73
731.75	-16.09
731.978	-15.95
732.206	-16.56
732.434	-18.32
732.662	-15.54
732.89	-17.82
733.118	-18.94
733.346	-18.59
733.573	-18.24
733.801	-19.33
734.029	-11.49
734.257	-10.27
734.485	-7.39
734.712	-5.43
734.94	-6.82
735.168	-3.4
735.396	-2.95
735.623	-5.83
735.851	-5.37
736.078	-4.43
736.306	-4.36
736.534	-5.11
736.761	-4.3
736.989	-7.19
737.216	-8.65
737.444	-10.74
737.671	-9.06
737.899	-4.21
738.126	-5.85
738.354	-6.91
738.581	-5.29
738.809	-3.58
739.036	-5.71
739.263	-5.81
739.491	-8.5
739.718	-8.89
739.945	-4.52
740.173	-2.03
740.4	-2.85
740.627	-4.68
740.854	-3.85
741.081	-6.98
741.309	-8.42
741.536	-12.64
741.763	-13.05
741.99	-11.73
742.217	-12.55
742.444	-13.12
742.671	-11.28
742.898	-11.18
743.125	-11.5
743.352	-14.67
743.579	-14.68
743.806	-13.93
744.033	-10.59
744.26	-9.39
744.487	-10.02
744.714	-10.76
744.941	-11.7
745.167	-8.4
745.394	-9.45
745.621	-9.87
745.848	-11.44
746.075	-8.64
746.301	-4.97
746.528	-0.11
746.755	-1.36
746.981	-1.86
747.208	-0.93
747.435	1.51
747.661	1.68
747.888	3.45
748.114	-0.02
748.341	2.86
748.567	4.85
748.794	1.64
749.02	-0.09
749.247	-2.78
749.473	-3.26
749.7	-3.27
749.926	-5.12
750.152	-2.23
750.379	-1.61
750.605	-0.52
750.831	-2.12
751.058	-3.9
751.284	-6.06
751.51	-3.19
751.737	-1.58
751.963	-4.93
752.189	-5.47
752.415	-5.71
752.641	-6.37
752.867	-7.46
753.094	-9.68
753.32	-12.49
753.546	-13.56
753.772	-11.3
753.998	-11.96
754.224	-12.65
754.45	-11.83
754.676	-11.85
754.902	-12.98
755.128	-10.47
755.354	-10.45
755.579	-10.44
755.805	-8.24
756.031	-7.67
756.257	-8.18
756.483	-7.57
756.709	-8.73
756.934	-7.72
757.16	-10.54
757.386	-10.54
757.612	-12.59
757.837	-13.29
758.063	-10.18
758.289	-6.65
758.514	-7.23
758.74	-10.94
758.965	-12.73
759.191	-10.75
759.416	-9.45
759.642	-8.83
759.868	-7.39
760.093	-4.17
760.318	-4.82
760.544	-4.18
760.769	-5.17
760.995	-6.55
761.22	-7.89
761.445	-7.23
761.671	-4.5
761.896	-2.84
762.121	-3.53
762.347	-4.96
762.572	-7.24
762.797	-6.87
763.022	-7.99
763.248	-2.91
763.473	-2.28
763.698	-3.04
763.923	-2.54
764.148	-2.32
764.373	-2.45
764.598	-1.37
764.823	0.89
765.048	-4.38
765.273	-7.22
765.498	-9.89
765.723	-8.82
765.948	-6.12
766.173	-7.58
766.398	-5.96
766.623	-7.22
766.848	-7.18
767.073	-9.22
767.298	-9.99
767.522	-12.76
767.747	-10.97
767.972	-11.09
768.197	-9.07
768.421	-10.96
768.646	-14.92
768.871	-18.1
769.095	-18.22
769.32	-17.13
769.545	-15.79
769.769	-15.07
769.994	-12.71
770.218	-16.6
770.443	-16.6
770.667	-16.05
770.892	-15.36
771.116	-16.59
771.341	-14.43
771.565	-14.7
771.79	-14.1
772.014	-14.2
772.238	-15.47
772.463	-11.58
772.687	-11.88
772.911	-12.14
773.136	-15.66
773.36	-15.63
773.584	-14.85
773.808	-17.09
774.033	-17.7
774.257	-17.52
774.481	-17.43
774.705	-18.94
774.929	-18.71
775.153	-20.98
775.377	-19.88
775.602	-18.98
775.826	-17.38
776.05	-15.81
776.274	-17.01
776.498	-18.65
776.722	-19.65
776.945	-18.94
777.169	-19.8
777.393	-21.54
777.617	-20.88
777.841	-20.84
778.065	-19.52
778.289	-21.69
778.512	-21.44
778.736	-22.02
778.96	-20.4
779.184	-18.13
779.407	-18.51
779.631	-18.49
779.855	-20.7
780.078	-18.11
780.302	-19.72
780.526	-21.34
780.749	-20.19
780.973	-17.79
781.196	-15.84
781.42	-17.59
781.643	-16.85
781.867	-15.92
782.09	-17.31
782.314	-17.73
782.537	-18.59
782.76	-18.94
782.984	-17.56
783.207	-17.22
783.431	-16.38
783.654	-17.39
783.877	-20.03
784.1	-20.4
784.324	-20.28
784.547	-20.56
784.77	-24.43
784.993	-25.26
785.216	-24.39
785.44	-23.78
785.663	-25.35
785.886	-23.71
786.109	-23.63
786.332	-24.74
786.555	-23.8
786.778	-21.54
787.001	-21.34
787.224	-19.1
787.447	-17.56
787.67	-16.25
787.893	-16.26
788.116	-17.71
788.339	-15.95
788.561	-16.42
788.784	-19.65
789.007	-20.71
789.23	-22.46
789.453	-21.87
789.675	-23.97
789.898	-26.52
790.121	-29.04
790.344	-28.54
790.566	-28.13
790.789	-28.11
791.012	-28.14
791.234	-25.19
791.457	-23.49
791.679	-20.83
791.902	-20.71
792.124	-21.51
792.347	-22.1
792.569	-21.7
792.792	-24.64
793.014	-21.54
793.237	-20.79
793.459	-21.27
793.681	-21.4
793.904	-22.73
794.126	-25.01
794.348	-24.34
794.571	-23.92
794.793	-24.91
795.015	-24.59
795.237	-25.39
795.46	-24.17
795.682	-23.54
795.904	-20.27
796.126	-20.89
796.348	-20.39
796.57	-16.18
796.792	-15.64
797.014	-11.42
797.237	-9.42
797.459	-7.67
797.681	-4.91
797.903	-5.71
798.124	-6.22
798.346	5.44
798.568	7.19
798.79	10.22
799.012	11.83
799.234	12.13
799.456	12.95
799.678	15.8
799.899	11.92
800.121	9.18
800.343	8.47
800.565	8.88
800.786	10.33
801.008	12.13
801.23	10.99
801.451	11.19
801.673	9.09
801.895	8.33
802.116	11.45
802.338	11.02
802.559	11.23
802.781	9.34
803.002	12.18
803.224	12.59
803.445	9
803.667	10.17
803.888	8.31
804.109	7.08
804.331	6.86
804.552	5.21
804.773	8.41
804.995	4.96
805.216	-8.96
805.437	-12.28
805.658	-14.75
805.88	-16.04
806.101	-15.45
806.322	-16.12
806.543	-17.52
806.764	-19.18
806.985	-16.38
807.207	-13.92
807.428	-13.83
807.649	-17.04
807.87	-19.5
808.091	-18.51
808.312	-18.54
808.533	-13.58
808.754	-10.53
808.975	-14.31
809.195	-11.57
809.416	-11.48
809.637	-11.57
809.858	-14.35
810.079	-14.88
810.3	-12.98
810.52	-14.6
810.741	-16.04
810.962	-17.72
811.183	-19.25
811.403	-18.98
811.624	-19.58
811.845	-17.17
812.065	-16.16
812.286	-14.43
812.506	-14.81
812.727	-14.93
812.948	-14.21
813.168	-11.93
813.389	-12.76
813.609	-9.19
813.83	-11.63
814.05	-13.9
814.27	-13.45
814.491	-9.96
814.711	-9.6
814.931	-12.78
815.152	-13.14
815.372	-15.28
815.592	-17
815.813	-16.53
816.033	-19.54
816.253	-17.72
816.473	-19.4
816.694	-16.98
816.914	-15.67
817.134	-16.04
817.354	-17.27
817.574	-15.92
817.794	-15.63
818.014	-15.47
818.234	-15.75
818.454	-17.68
818.674	-20.46
818.894	-22.39
819.114	-21.05
819.334	-20.44
819.554	-18.2
819.774	-16.13
819.994	-18.46
820.214	-18.56
820.433	-19.95
820.653	-18.06
820.873	-15.95
821.093	-15.73
821.312	-17.42
821.532	-15.81
821.752	-12.85
821.972	-13.71
822.191	-12.27
822.411	-13.29
822.63	-12.92
822.85	-13.19
823.07	-16.44
823.289	-13.14
823.509	-15.13
823.728	-13.86
823.948	-14.98
824.167	-15.37
824.387	-16.15
824.606	-15.24
824.825	-15.86
825.045	-14.83
825.264	-15.05
825.483	-12.05
825.703	-9.25
825.922	-11.47
826.141	-12.26
826.361	-13.31
826.58	-18.8
826.799	-18.76
827.018	-18.75
827.237	-18.41
827.456	-17.03
827.676	-16.33
827.895	-16.1
828.114	-13.03
828.333	-13.63
828.552	-13.9
828.771	-12.71
828.99	-15.52
829.209	-14.94
829.428	-12.71
829.647	-12.48
829.866	-9.9
830.084	-10.22
830.303	-9.28
830.522	-9.7
830.741	-9.72
830.96	-8.47
831.179	-9.22
831.397	-10.28
831.616	-9.41
831.835	-10.63
832.053	-9.35
832.272	-9.29
832.491	-8.76
832.709	-9.15
832.928	-9.17
833.147	-9.02
833.365	-5.99
833.584	-4.46
833.802	-0.97
834.021	-0.77
834.239	-0.95
834.458	-2.99
834.676	-6.78
834.894	-8.53
835.113	-9.38
835.331	-11.5
835.55	-12.92
835.768	-11.52
835.986	-11.93
836.204	-13.89
836.423	-12.26
836.641	-12.88
836.859	-15.19
837.077	-14.06
837.296	-15.56
837.514	-16.36
837.732	-18.21
837.95	-18.5
838.168	-16.29
838.386	-18.22
838.604	-15.19
838.822	-15.61
839.04	-16.55
839.258	-16.94
839.476	-16.1
839.694	-15.82
839.912	-17.85
840.13	-18.41
840.348	-14.94
840.566	-17.6
840.783	-15.78
841.001	-17.17
841.219	-16.85
841.437	-15.87
841.655	-16.38
841.872	-15.88
842.09	-15.4
842.308	-14.37
842.525	-14.43
842.743	-13.06
842.961	-14.61
843.178	-17.69
843.396	-14.52
843.613	-13.42
843.831	-12.97
844.048	-12.98
844.266	-11.93
844.483	-12.25
844.701	-12.59
844.918	-12.68
845.136	-12.79
845.353	-15.3
845.57	-14.63
845.788	-11.96
846.005	-14.33
846.222	-14.8
846.439	-12.92
846.657	-11.48
846.874	-10.97
847.091	-14.45
847.308	-14.33
847.526	-16.51
847.743	-16.99
847.96	-17.84
848.177	-16.49
848.394	-16.62
848.611	-17.03
848.828	-16.95
849.045	-18.94
849.262	-19.94
849.479	-20.06
849.696	-19.74
849.913	-21.57
850.13	-27.57
850.347	-26.38
850.564	-28.26
850.78	-28.81
850.997	-30.11
851.214	-28.12
851.431	-27
851.647	-29.86
851.864	-27.96
852.081	-25.85
852.298	-28.7
852.514	-31.16
852.731	-29.72
852.948	-28.56
853.164	-28.29
853.381	-28.66
853.597	-29.57
853.814	-31.04
854.03	-32.71
854.247	-30.54
854.463	-30.12
854.68	-30.48
854.896	-30.86
855.113	-30.77
855.329	-29.91
855.545	-28.38
855.762	-27.97
855.978	-31.39
856.194	-33.06
856.411	-29.29
856.627	-25.03
856.843	-22.97
857.059	-19.2
857.275	-20.43
857.492	-19.78
857.708	-17.02
857.924	-15.71
858.14	-13.52
858.356	-13.77
858.572	-15.33
858.788	-18.15
859.004	-16.18
859.22	-18.14
859.436	-17.28
859.652	-17.25
859.868	-18.46
860.084	-18.66
860.3	-18.34
860.516	-18.89
860.731	-19.07
860.947	-21.05
861.163	-20.05
861.379	-18.79
861.595	-16.73
861.81	-16.04
862.026	-16.6
862.242	-15.66
862.457	-14.93
862.673	-13.07
862.889	-12.8
863.104	-13.68
863.32	-14.79
863.535	-13.66
863.751	-18.28
863.966	-15.73
864.182	-15.31
864.397	-16.57
864.613	-18.65
864.828	-20.19
865.044	-18.93
865.259	-15.8
865.474	-14.6
865.69	-13.16
865.905	-11.19
866.12	-13.89
866.336	-15.32
866.551	-14.77
866.766	-15.49
866.981	-16.93
867.196	-16.25
867.412	-14.89
867.627	-14.5
867.842	-15.84
868.057	-16.45
868.272	-18.54
868.487	-18.81
868.702	-19.93
868.917	-21.84
869.132	-21.72
869.347	-19.6
869.562	-20.45
869.777	-21.81
869.992	-22.23
870.207	-23.38
870.422	-23.99
870.636	-24.18
870.851	-24.39
871.066	-25.54
871.281	-25.87
871.495	-26.95
871.71	-24.37
871.925	-27.49
872.14	-29
872.354	-31.54
872.569	-32.57
872.783	-30.55
872.998	-29.79
873.213	-29.69
873.427	-27.06
873.642	-24.94
873.856	-24.75
874.071	-26.35
874.285	-27.85
874.5	-28.04
874.714	-29.58
874.928	-29.14
875.143	-29.77
875.357	-29.57
875.571	-29.98
875.786	-28.1
876	-26.38
876.214	-24.7
876.429	-26.15
876.643	-24.86
876.857	-24.45
877.071	-23.07
877.285	-24.95
877.499	-26.97
877.714	-25.6
877.928	-23.4
878.142	-24.77
878.356	-26.72
878.57	-25.31
878.784	-22.75
878.998	-23.05
879.212	-20.79
879.426	-23.19
879.639	-21.86
879.853	-23.35
880.067	-23.21
880.281	-23.81
880.495	-22.81
880.709	-19.49
880.922	-17.52
881.136	-16.77
881.35	-15.62
881.564	-17.07
881.777	-19.98
881.991	-19.65
882.205	-15.91
882.418	-17.28
882.632	-20
882.845	-20.26
883.059	-18.46
883.273	-19.27
883.486	-19.02
883.7	-16.5
883.913	-16.7
884.126	-14.86
884.34	-16.81
884.553	-18.47
884.767	-14.37
884.98	-14.28
885.193	-15.38
885.407	-17.33
885.62	-15.98
885.833	-14.35
886.046	-11.77
886.26	-14.15
886.473	-14.96
886.686	-17.38
886.899	-17.54
887.112	-18.48
887.326	-21.15
887.539	-21.48
887.752	-20.08
887.965	-20.98
888.178	-19.09
888.391	-17.33
888.604	-17.05
888.817	-20.64
889.03	-20.02
889.243	-20.69
889.455	-22.21
889.668	-22.78
889.881	-20.11
890.094	-21.58
890.307	-25.6
890.52	-23.66
890.732	-23.82
890.945	-23.49
891.158	-23.83
891.37	-26
891.583	-25.21
891.796	-23.46
892.008	-24.41
892.221	-24.56
892.434	-30.56
892.646	-32.1
892.859	-31.9
893.071	-29.05
893.284	-27.67
893.496	-27.94
893.709	-28.18
893.921	-26.2
894.133	-27.15
894.346	-28.38
894.558	-27.87
894.771	-28.31
894.983	-25.16
895.195	-25.14
895.407	-23.15
895.62	-25.73
895.832	-25.36
896.044	-22.64
896.256	-23.27
896.468	-25.47
896.681	-23.3
896.893	-21.18
897.105	-22.25
897.317	-23.24
897.529	-21.38
897.741	-20.21
897.953	-18.72
898.165	-20.62
898.377	-22.39
898.589	-20.98
898.801	-22.07
899.013	-18.54
899.224	-15.57
899.436	-13.21
899.648	-15.54
899.86	-16.19
900.072	-14.17
900.283	-12.71
900.495	-12.26
900.707	-11.65
900.919	-13.92
901.13	-12.74
901.342	-14.58
901.554	-16.09
901.765	-14.23
901.977	-16.94
902.188	-16.29
902.4	-15.98
902.611	-17.77
902.823	-19.45
903.034	-22.6
903.246	-24.31
903.457	-26.05
903.669	-26.58
903.88	-27.18
904.091	-27.58
904.303	-26.97
904.514	-27.98
904.725	-25.79
904.936	-24.28
905.148	-24.4
905.359	-21.4
905.57	-21.85
905.781	-23.44
905.992	-24.97
906.204	-23.27
906.415	-22.98
906.626	-24.48
906.837	-21.78
907.048	-23.05
907.259	-24.5
907.47	-24.47
907.681	-26.76
907.892	-23.52
908.103	-23.82
908.314	-27.45
908.525	-24.37
908.735	-23.78
908.946	-25.17
909.157	-26.24
909.368	-23.38
909.579	-21.11
909.789	-21.85
910	-23.61
910.211	-22.71
910.421	-22.76
910.632	-22.04
910.843	-24.27
911.053	-20.8
911.264	-18.7
911.475	-21.38
911.685	-21.21
911.896	-21.16
912.106	-20.81
912.317	-23.11
912.527	-20.72
912.737	-21.4
912.948	-20.04
913.158	-19.6
913.369	-23.88
913.579	-22.16
913.789	-20.22
914	-18.1
914.21	-16.67
914.42	-17.61
914.63	-18.02
914.841	-16.61
915.051	-15.55
915.261	-14.6
915.471	-11.36
915.681	-9.86
915.891	-9.89
916.101	-11.14
916.311	-11.32
916.521	-9.33
916.731	-7.83
916.941	-5.1
917.151	-6.55
917.361	-3.28
917.571	-8.21
917.781	-12.05
917.991	-12.85
918.201	-13.03
918.411	-16.17
918.621	-16.1
918.83	-15.11
919.04	-17.85
919.25	-16.19
919.46	-17.19
919.669	-18.81
919.879	-17.84
920.089	-19.69
920.298	-21.13
920.508	-20.01
920.717	-18.72
920.927	-20.52
921.136	-19.51
921.346	-20.17
921.555	-24.87
921.765	-25.13
921.974	-28.45
922.184	-32.17
922.393	-32.43
922.603	-32.51
922.812	-30.24
923.021	-31.21
923.23	-31.93
923.44	-35.06
923.649	-35.1
923.858	-36.68
924.067	-36.3
924.277	-36.22
924.486	-32.89
924.695	-33.37
924.904	-30.16
925.113	-29.83
925.322	-27.05
925.531	-26.09
925.74	-29.22
925.949	-29.33
926.158	-28.62
926.367	-30.18
926.576	-29.33
926.785	-29.43
926.994	-30.7
927.203	-31.08
927.412	-30.9
927.621	-31.57
927.83	-29.91
928.038	-28.76
928.247	-29.56
928.456	-28.33
928.665	-25.78
928.873	-23.55
929.082	-21.49
929.291	-20.15
929.499	-18.99
929.708	-21.11
929.916	-20.04
930.125	-20.38
930.333	-20.84
930.542	-16.88
930.75	-15
930.959	-15.02
931.167	-15.23
931.376	-17.74
931.584	-18.33
931.793	-18.5
932.001	-19.26
932.209	-20.06
932.418	-22.47
932.626	-24.16
932.834	-24.49
933.042	-26.97
933.251	-27.7
933.459	-28.73
933.667	-28.37
933.875	-28.69
934.083	-28.37
934.291	-26.8
934.499	-25.33
934.707	-26.06
934.915	-26.31
935.123	-24.77
935.331	-26.55
935.539	-29.07
935.747	-32.18
935.955	-31.83
936.163	-31.9
936.371	-31.51
936.579	-29.42
936.787	-30.54
936.995	-33.23
937.202	-35.59
937.41	-35.54
937.618	-35.93
937.826	-34
938.033	-36.74
938.241	-38.54
938.449	-35.47
938.656	-32.75
938.864	-31.02
939.071	-28.46
939.279	-24.83
939.486	-20.74
939.694	-19.75
939.901	-19.84
940.109	-20.37
940.316	-19.11
940.524	-20
940.731	-22.52
940.939	-21.15
941.146	-20.49
941.353	-20.8
941.561	-21.34
941.768	-22.37
941.975	-20.98
942.182	-19.44
942.39	-19.69
942.597	-15.39
942.804	-15.9
943.011	-16.55
943.218	-15.15
943.425	-15.99
943.632	-15.26
943.839	-15.66
944.046	-15.21
944.253	-16.27
944.46	-14.86
944.667	-11.71
944.874	-12.2
945.081	-11.16
945.288	-11.02
945.495	-10.41
945.702	-12.72
945.909	-15.69
946.115	-14.61
946.322	-14.98
946.529	-15.48
946.736	-15.41
946.942	-14.09
947.149	-15.14
947.356	-17.76
947.562	-19.94
947.769	-20.09
947.976	-20.19
948.182	-19.53
948.389	-20.27
948.595	-19.91
948.802	-19.37
949.008	-21.76
949.215	-19.27
949.421	-20.21
949.628	-21.22
949.834	-20.86
950.04	-21.86
950.247	-18.56
950.453	-18.4
950.659	-19.32
950.865	-17.5
951.072	-22.18
951.278	-20.25
951.484	-22.01
951.69	-25.28
951.896	-26.74
952.103	-26.47
952.309	-25.7
952.515	-26.56
952.721	-25.17
952.927	-23.72
953.133	-25.07
953.339	-26.19
953.545	-24.47
953.751	-23.9
953.957	-20.1
954.163	-22.04
954.369	-22.97
954.574	-24.24
954.78	-23.53
954.986	-23.3
955.192	-21.83
955.398	-22.99
955.603	-26.98
955.809	-24.87
956.015	-24.5
956.22	-22.95
956.426	-21.84
956.632	-24.76
956.837	-23.71
957.043	-22.68
957.248	-22.6
957.454	-23.37
957.66	-27.07
957.865	-27.61
958.07	-24.62
958.276	-24.82
958.481	-27.18
958.687	-27.86
958.892	-27.32
959.097	-27.05
959.303	-27.89
959.508	-28.1
959.713	-28.3
959.919	-28.28
960.124	-28.12
960.329	-27.69
960.534	-24.23
960.739	-22.63
960.945	-21.14
961.15	-20.86
961.355	-22.49
961.56	-26.59
961.765	-27.87
961.97	-26.59
962.175	-25.87
962.38	-28.78
962.585	-29.48
962.79	-31.24
962.995	-32.14
963.2	-33.95
963.404	-34.75
963.609	-37.54
963.814	-37.04
964.019	-38.6
964.224	-39.8
964.428	-38.95
964.633	-38.07
964.838	-35.53
965.042	-35.06
965.247	-36.9
965.452	-37.26
965.656	-35.85
965.861	-34.46
966.066	-35.42
966.27	-34.33
966.475	-29.79
966.679	-35.06
966.884	-34.29
967.088	-36.49
967.292	-36.27
967.497	-36.4
967.701	-36.72
967.906	-34.74
968.11	-31.98
968.314	-29.12
968.518	-31.23
968.723	-27.58
968.927	-25.97
969.131	-24.11
969.335	-21.78
969.539	-21.03
969.744	-19.23
969.948	-16.31
970.152	-13.56
970.356	-11.48
970.56	-10.61
970.764	-11.3
970.968	-9.3
971.172	-8.94
971.376	-7.79
971.58	-5.96
971.784	-5.2
971.988	-7.69
972.192	-6.02
972.395	-5.58
972.599	-9.02
972.803	-11.34
973.007	-8.69
973.21	-8.57
973.414	-9.01
973.618	-9.5
973.822	-9.64
974.025	-8.7
974.229	-9.24
974.432	-12.16
974.636	-13.54
974.84	-11.69
975.043	-12.83
975.247	-14.87
975.45	-15.59
975.654	-15.06
975.857	-14.17
976.06	-13.92
976.264	-16.19
976.467	-16.26
976.671	-16.88
976.874	-15.1
977.077	-17
977.28	-17.68
977.484	-20
977.687	-21.39
977.89	-19.4
978.093	-19.95
978.297	-17.76
978.5	-19.25
978.703	-19.61
978.906	-18.2
979.109	-18.46
979.312	-16.29
979.515	-17.5
979.718	-17.5
979.921	-19.14
980.124	-20.68
980.327	-21.34
980.53	-21.55
980.733	-18.88
980.936	-17.78
981.138	-20.23
981.341	-18.55
981.544	-18.46
981.747	-18.74
981.949	-20.36
982.152	-18.81
982.355	-20.73
982.558	-17.25
982.76	-19.95
982.963	-19.45
983.165	-20.28
983.368	-18.89
983.571	-20.46
983.773	-17.5
983.976	-17.09
984.178	-17.21
984.381	-18.08
984.583	-21.74
984.785	-22.86
984.988	-19.29
985.19	-17.24
985.392	-18.91
985.595	-22.47
985.797	-22.28
985.999	-18.67
986.202	-14.89
986.404	-14.35
986.606	-11.17
986.808	-10.5
987.01	-9.11
987.212	-10.18
987.415	-10.42
987.617	-10.41
987.819	-11.11
988.021	-10.42
988.223	-11.86
988.425	-13.48
988.627	-13.28
988.829	-17.97
989.031	-15.79
989.232	-17.73
989.434	-16.4
989.636	-16.95
989.838	-17.67
990.04	-16.99
990.242	-17.2
990.443	-19.88
990.645	-16.84
990.847	-12.71
991.048	-11.76
991.25	-14.01
991.452	-15.29
991.653	-17.25
991.855	-17.42
992.057	-17.53
992.258	-17.39
992.46	-19.03
992.661	-18.47
992.863	-21.54
993.064	-21
993.265	-22.95
993.467	-23.88
993.668	-22.59
993.87	-22.6
994.071	-22.24
994.272	-21.93
994.473	-21.18
994.675	-20.66
994.876	-19.67
995.077	-18.23
995.278	-17.91
995.48	-18.38
995.681	-19.74
995.882	-18.29
996.083	-18.19
996.284	-21.35
996.485	-21.3
996.686	-22.06
996.887	-25
997.088	-29.57
997.289	-32.5
997.49	-32.5
997.691	-32.16
997.892	-31.31
998.092	-25.73
998.293	-27.62
998.494	-29.46
998.695	-28.95
998.896	-27.19
999.096	-27.76
999.297	-27.61
999.498	-28.32
999.698	-30.81
999.899	-32.86
1000.1	-35.93
1000.3	-35.88
1000.501	-36.56
1000.701	-36.92
1000.902	-37.14
1001.102	-37.45
1001.303	-35.87
1001.503	-38.24
1001.704	-36.49
1001.904	-37.28
1002.105	-37.06
1002.305	-36.2
1002.505	-36.78
1002.706	-37.31
1002.906	-37.07
1003.106	-36.78
1003.306	-35.89
1003.507	-32.79
1003.707	-33.29
1003.907	-31.48
1004.107	-29.92
1004.307	-32
1004.507	-28.67
1004.707	-28.11
1004.907	-29.57
1005.107	-30.44
1005.308	-28.07
1005.507	-29.79
1005.707	-27.78
1005.907	-27.37
1006.107	-24.91
1006.307	-21.94
1006.507	-22.99
1006.707	-21.75
1006.907	-20.49
1007.106	-21.77
1007.306	-21.94
1007.506	-21.32
1007.706	-19.57
1007.905	-22.29
1008.105	-22.11
1008.305	-22.68
1008.504	-22.88
1008.704	-17.84
1008.903	-16.79
1009.103	-14.33
1009.303	-16.83
1009.502	-15.53
1009.702	-15.81
1009.901	-15.23
1010.1	-18.91
1010.3	-16.77
1010.499	-19.44
1010.699	-21.75
1010.898	-22.8
1011.097	-22.39
1011.296	-22.88
1011.496	-24.37
1011.695	-24.05
1011.894	-26.06
1012.093	-22.8
1012.293	-23.71
1012.492	-25.35
1012.691	-25.61
1012.89	-25.66
1013.089	-28.7
1013.288	-26.25
1013.487	-26.41
1013.686	-27.06
1013.885	-29.53
1014.084	-27.46
1014.283	-26.69
1014.482	-27.55
1014.681	-27.21
1014.88	-32.45
1015.078	-31.54
1015.277	-34.46
1015.476	-33.62
1015.675	-33.81
1015.873	-33.62
1016.072	-36.05
1016.271	-32.19
1016.47	-37.24
1016.668	-34.58
1016.867	-35.45
1017.065	-37.02
1017.264	-38.12
1017.463	-37.34
1017.661	-37.81
1017.86	-37.86
1018.058	-36.04
1018.256	-37.66
1018.455	-39.77
1018.653	-37.84
1018.852	-36.76
1019.05	-38.93
1019.248	-40.23
1019.447	-41.69
1019.645	-42.34
1019.843	-43.8
1020.041	-41.49
1020.24	-42.18
1020.438	-39.57
1020.636	-38.57
1020.834	-41.66
1021.032	-38.02
1021.23	-40.19
1021.428	-38.66
1021.626	-35.02
1021.824	-33.71
1022.022	-35.16
1022.22	-32.8
1022.418	-30.84
1022.616	-30.25
1022.814	-31.7
1023.012	-32.08
1023.21	-29.34
1023.408	-28.87
1023.606	-29.91
1023.803	-24.75
1024.001	-23.88
1024.199	-28.13
1024.397	-26.78
1024.594	-25.01
1024.792	-27.29
1024.99	-25.57
1025.187	-25.87
1025.385	-20.25
1025.582	-19.93
1025.78	-20.06
1025.977	-19.43
1026.175	-20.36
1026.372	-19.44
1026.57	-21.18
1026.767	-19.98
1026.965	-18.02
1027.162	-18.51
1027.359	-18.81
1027.557	-17.9
1027.754	-21.59
1027.951	-23.61
1028.148	-21.61
1028.346	-22.76
1028.543	-26.69
1028.74	-26.57
1028.937	-28.54
1029.134	-28.47
1029.331	-29.68
1029.528	-30.15
1029.725	-29.89
1029.923	-33.53
1030.12	-30.7
1030.317	-28.22
1030.513	-26.91
1030.71	-25.27
1030.907	-23.35
1031.104	-23.48
1031.301	-24.49
1031.498	-26.28
1031.695	-25.87
1031.892	-24.24
1032.088	-23.81
1032.285	-23.36
1032.482	-24.85
1032.678	-27.96
1032.875	-30.27
1033.072	-30.89
1033.268	-30.81
1033.465	-30.43
1033.662	-33.32
1033.858	-31.68
1034.055	-31.2
1034.251	-28.67
1034.448	-28.87
1034.644	-28.98
1034.84	-26.63
1035.037	-24.28
1035.233	-23.68
1035.43	-21.58
1035.626	-21.13
1035.822	-21.31
1036.019	-22.8
1036.215	-26.68
1036.411	-26.05
1036.607	-28
1036.803	-30.73
1037	-31.9
1037.196	-35.23
1037.392	-34.31
1037.588	-35.53
1037.784	-35.37
1037.98	-38.76
1038.176	-39.59
1038.372	-39.88
1038.568	-37.85
1038.764	-35.79
1038.96	-33.15
1039.156	-32.74
1039.352	-34.05
1039.547	-31.71
1039.743	-30.12
1039.939	-29.3
1040.135	-30.15
1040.331	-32.39
1040.526	-30.36
1040.722	-30.77
1040.918	-31.81
1041.113	-34.31
1041.309	-34.14
1041.505	-38.24
1041.7	-37.48
1041.896	-37.33
1042.091	-36.85
1042.287	-35.97
1042.482	-36.22
1042.678	-36.56
1042.873	-35.69
1043.069	-35.83
1043.264	-33.56
1043.459	-32.08
1043.655	-31.04
1043.85	-32.71
1044.045	-29.28
1044.24	-28.34
1044.436	-27.88
1044.631	-28.8
1044.826	-29.42
1045.021	-32.74
1045.216	-32.36
