Data from FLMT021711__9__17-54-46-777.txt Node

Date: Tue Nov 05 17:54:46 CET 2024
User: Etudiants TP
Spectrometer: FLMT02171
Trigger mode: 0
Integration Time (sec): 1,000000E-1
Scans to average: 5
Electric dark correction enabled: true
Nonlinearity correction enabled: false
Boxcar width: 15
XAxis mode: Wavelengths
Number of Pixels in Spectrum: 3648
>>>>>Begin Spectral Data<<<<<
194,658	-63,35
194,923	-60,46
195,188	-53,25
195,453	-51,12
195,717	-45,87
195,982	-44,7
196,247	-42,27
196,512	-45,05
196,777	-43,13
197,042	-41,27
197,307	-40,89
197,572	-36,73
197,837	-36,46
198,101	-33,85
198,366	-31,06
198,631	-29,07
198,896	-23,4
199,161	-16,39
199,425	-8,64
199,69	0,78
199,955	-0,3
200,22	-3,84
200,484	-5,15
200,749	-6,71
201,014	-4,01
201,278	-4,02
201,543	-1,82
201,807	-2,13
202,072	-1,52
202,337	-1,76
202,601	-2,17
202,866	-4,01
203,13	-3,16
203,395	-6,28
203,659	-6,84
203,924	-7,8
204,189	-7,66
204,453	-7,2
204,717	-4,16
204,982	-3,68
205,246	-2,78
205,511	-1,98
205,775	-3,95
206,04	1,18
206,304	0,26
206,568	1,42
206,833	1,9
207,097	2,63
207,361	4,18
207,626	8,29
207,89	8,75
208,154	10,02
208,419	12,21
208,683	14,53
208,947	18,15
209,211	16,37
209,476	16,73
209,74	17,68
210,004	18,68
210,268	18,29
210,532	21,46
210,796	21,64
211,061	22,67
211,325	22,52
211,589	22,34
211,853	23,79
212,117	23
212,381	24,21
212,645	24,8
212,909	24,51
213,173	22,66
213,437	22,96
213,701	23,98
213,965	24,54
214,229	18,62
214,493	19,23
214,757	18,94
215,021	17,78
215,285	22,11
215,549	24,26
215,813	19,13
216,077	17,54
216,34	19,4
216,604	18
216,868	16,45
217,132	16,64
217,396	17,43
217,659	18,1
217,923	13,4
218,187	12,64
218,451	12,98
218,714	10,69
218,978	12,15
219,242	13,7
219,505	14,75
219,769	15,48
220,033	14,58
220,296	16,39
220,56	15,9
220,824	14,08
221,087	15,11
221,351	16,31
221,614	15,52
221,878	17,25
222,142	17,97
222,405	20,37
222,669	23,28
222,932	18,31
223,196	17
223,459	12,81
223,722	14,22
223,986	14,32
224,249	13,04
224,513	12,25
224,776	12,11
225,04	12,33
225,303	11,49
225,566	9,86
225,83	11,34
226,093	15,2
226,356	13,98
226,62	11,28
226,883	12,26
227,146	11,82
227,409	11,24
227,673	9,54
227,936	9,32
228,199	10,27
228,462	7,21
228,725	6,73
228,989	6,07
229,252	5,9
229,515	9,87
229,778	8,19
230,041	6
230,304	3,29
230,567	1,35
230,83	-2,65
231,093	0,29
231,356	0,52
231,619	7,76
231,882	4,8
232,145	6,91
232,408	8,13
232,671	7,81
232,934	7,39
233,197	6,29
233,46	4,26
233,723	7,37
233,986	6,05
234,249	2,31
234,512	4,32
234,775	9,39
235,037	7,68
235,3	6,52
235,563	6,85
235,826	6,6
236,089	8,45
236,351	7,36
236,614	10,61
236,877	12,26
237,14	14,51
237,402	14,58
237,665	8,12
237,928	8,78
238,19	6,74
238,453	9,01
238,716	9,32
238,978	11,2
239,241	10,51
239,503	13,7
239,766	8,68
240,029	7,41
240,291	9,26
240,554	8,8
240,816	8,18
241,079	8,87
241,341	8,11
241,604	8,28
241,866	4,06
242,129	4,39
242,391	6,32
242,653	5,68
242,916	3,9
243,178	4,52
243,441	6,12
243,703	4,45
243,965	3,53
244,228	3,32
244,49	3,79
244,752	4,85
245,015	5,05
245,277	5,99
245,539	4,89
245,801	6,23
246,064	6,91
246,326	6,8
246,588	5,87
246,85	8,8
247,112	8,28
247,374	8,8
247,637	10,52
247,899	9,97
248,161	10,65
248,423	7,58
248,685	8,73
248,947	9,34
249,209	9,27
249,471	11,4
249,733	12,45
249,995	11,11
250,257	11,58
250,519	9,79
250,781	11,88
251,043	10,36
251,305	12,05
251,567	13,18
251,829	14,88
252,091	14,26
252,353	11,19
252,615	10,72
252,876	8,98
253,138	6,44
253,4	2,74
253,662	4,17
253,924	6,73
254,185	7,54
254,447	8,29
254,709	8,15
254,971	8,54
255,232	10,21
255,494	10,13
255,756	7,52
256,017	8,49
256,279	9,16
256,541	8,81
256,802	7,29
257,064	6,87
257,326	6,06
257,587	7,72
257,849	9,28
258,11	13,72
258,372	13,33
258,633	15,41
258,895	14,5
259,156	13,3
259,418	12,51
259,679	8,64
259,941	5,73
260,202	8,58
260,464	10,35
260,725	9,08
260,987	6,93
261,248	7,64
261,509	9,62
261,771	8,29
262,032	9,28
262,293	8,56
262,555	8,42
262,816	6,3
263,077	3,77
263,338	1,91
263,6	2,55
263,861	0,92
264,122	0,39
264,383	3,16
264,645	4,52
264,906	3,86
265,167	4,49
265,428	3,56
265,689	3,39
265,95	0,54
266,211	-0,05
266,473	-0,6
266,734	-3,43
266,995	-6,84
267,256	-6,37
267,517	-3,89
267,778	-0,19
268,039	1,45
268,3	-0,11
268,561	-1,42
268,822	2,78
269,083	0,75
269,344	-0,86
269,604	-3,12
269,865	-2,37
270,126	-5,81
270,387	-4,95
270,648	-3,47
270,909	-2,97
271,17	-2,45
271,43	-6,85
271,691	-9,67
271,952	-9,55
272,213	-7,83
272,473	-11,27
272,734	-10,15
272,995	-7,71
273,256	-5,65
273,516	-2,55
273,777	-5,31
274,038	-4,34
274,298	-5,44
274,559	-5,55
274,82	-1,42
275,08	1,96
275,341	4,41
275,601	1,91
275,862	-0
276,122	0,48
276,383	2,3
276,643	5,04
276,904	2,85
277,164	6,53
277,425	7,47
277,685	12,27
277,946	12,35
278,206	12,61
278,467	13,91
278,727	13,71
278,987	14,25
279,248	13,45
279,508	16,55
279,768	18,34
280,029	18,73
280,289	15,45
280,549	15,1
280,81	15,12
281,07	13,7
281,33	13,92
281,59	12,23
281,851	14,68
282,111	14,77
282,371	14,04
282,631	16,54
282,891	15,01
283,151	12,26
283,412	10,22
283,672	10,1
283,932	9,62
284,192	9,91
284,452	6,91
284,712	3,5
284,972	2,82
285,232	0,83
285,492	2,28
285,752	-0,62
286,012	4,59
286,272	7,2
286,532	4,68
286,792	4,68
287,052	5,53
287,312	5,44
287,571	4,68
287,831	4,88
288,091	3,17
288,351	4,33
288,611	7,62
288,871	7,15
289,13	6
289,39	1,73
289,65	2,46
289,91	0,19
290,17	2,84
290,429	4,86
290,689	0,93
290,949	-1,5
291,208	-0,2
291,468	3,97
291,728	5,91
291,987	8,41
292,247	6,73
292,506	9,17
292,766	11,64
293,026	9,86
293,285	11,93
293,545	13,8
293,804	14,47
294,064	10,72
294,323	8,85
294,583	8,78
294,842	9,17
295,102	10,86
295,361	11,73
295,621	12,29
295,88	13,29
296,139	11,41
296,399	11,62
296,658	7,06
296,917	6,53
297,177	4,46
297,436	5,49
297,695	3,89
297,955	5,64
298,214	3,79
298,473	4,29
298,732	6,51
298,992	8,92
299,251	9,95
299,51	5,25
299,769	4,95
300,028	5
300,287	5,47
300,547	5,88
300,806	4,05
301,065	7,33
301,324	7,79
301,583	4,75
301,842	1,5
302,101	-0,42
302,36	-0,07
302,619	0,97
302,878	1,32
303,137	-1,22
303,396	-0,6
303,655	2,09
303,914	-1,48
304,173	0,3
304,432	1,4
304,691	4,58
304,95	2,31
305,208	7,36
305,467	8,64
305,726	9,1
305,985	9,62
306,244	11,25
306,503	10,42
306,761	8,38
307,02	5,36
307,279	4,67
307,537	5,13
307,796	2,36
308,055	-0,29
308,314	2,15
308,572	-0,69
308,831	0,99
309,09	0,88
309,348	1,52
309,607	1,24
309,865	5,64
310,124	5,4
310,382	6,06
310,641	5,94
310,9	4,41
311,158	5,9
311,417	4,85
311,675	4,44
311,933	6,11
312,192	7,84
312,45	5,23
312,709	3,5
312,967	4,13
313,226	3,71
313,484	3,39
313,742	2,07
314,001	0,73
314,259	-0,58
314,517	1,26
314,776	3,85
315,034	7,84
315,292	6,34
315,55	4,45
315,809	4,32
316,067	3,4
316,325	1,09
316,583	3,67
316,841	2,99
317,1	1,43
317,358	-0,71
317,616	-1,87
317,874	-3,66
318,132	-3,52
318,39	-4,27
318,648	-5,9
318,906	-5,93
319,164	-7,76
319,422	-7,76
319,68	-10,53
319,938	-10,17
320,196	-10,53
320,454	-7,73
320,712	-7,94
320,97	-7,18
321,228	-9,69
321,486	-8,4
321,744	-7,08
322,002	-4,28
322,26	-5,44
322,517	-7,28
322,775	-10,18
323,033	-12,65
323,291	-9,86
323,549	-7,21
323,806	-5,53
324,064	-3,98
324,322	-3,12
324,58	-4,42
324,837	-3,84
325,095	-5,4
325,353	-4,41
325,61	-2,38
325,868	-3,4
326,126	-0,93
326,383	-1,34
326,641	-1,17
326,898	0,06
327,156	0,22
327,413	0,02
327,671	0,8
327,928	1,82
328,186	3,65
328,443	1,01
328,701	5,64
328,958	6,41
329,216	7,04
329,473	4,74
329,731	4,53
329,988	2,27
330,245	4,17
330,503	6,5
330,76	7,66
331,017	9,88
331,275	6,15
331,532	5,58
331,789	3,25
332,047	3,27
332,304	1,22
332,561	2,81
332,818	1,25
333,076	4,09
333,333	4,25
333,59	5,45
333,847	6,63
334,104	4,16
334,361	4,17
334,618	3,42
334,876	0,29
335,133	0,73
335,39	-0,2
335,647	3,15
335,904	0,87
336,161	-2,14
336,418	-1,19
336,675	-4,89
336,932	-3,6
337,189	-3,56
337,446	-2,44
337,703	-3,26
337,96	-7,39
338,216	-7,59
338,473	-10,9
338,73	-10,22
338,987	-11,43
339,244	-7,83
339,501	-8,93
339,757	-6,96
340,014	-6,18
340,271	-5,39
340,528	-7,12
340,785	-2,46
341,041	-2,26
341,298	-3,96
341,555	-4,7
341,811	-4,59
342,068	-5,56
342,325	-4,92
342,581	-2,45
342,838	-0,19
343,094	-1,14
343,351	-0,81
343,608	-5,57
343,864	-3,1
344,121	-2,29
344,377	-2,69
344,634	-3,43
344,89	-5,57
345,147	-6,8
345,403	-8,29
345,66	-8,73
345,916	-4,89
346,172	-6,62
346,429	-6,75
346,685	-8,54
346,942	-7,68
347,198	-11,08
347,454	-10,09
347,711	-11,88
347,967	-14,37
348,223	-13,7
348,48	-12,56
348,736	-8,93
348,992	-9,35
349,248	-6,53
349,504	-7,71
349,761	-8,63
350,017	-8,58
350,273	-9,33
350,529	-10,79
350,785	-11,4
351,041	-12
351,297	-10,14
351,554	-10,89
351,81	-12,34
352,066	-12,68
352,322	-12,8
352,578	-12,86
352,834	-12,54
353,09	-11,79
353,346	-10,74
353,602	-11,43
353,858	-12,68
354,114	-12,91
354,369	-11,91
354,625	-9,47
354,881	-10,75
355,137	-7,64
355,393	-8,64
355,649	-6,93
355,905	-6,48
356,16	-6,95
356,416	-6,11
356,672	-13,73
356,928	-14,03
357,183	-15,17
357,439	-14,68
357,695	-15,13
357,951	-11,34
358,206	-11,01
358,462	-11,01
358,718	-12,38
358,973	-8,94
359,229	-9
359,484	-8
359,74	-5,83
359,996	-7,55
360,251	-5,19
360,507	-4,39
360,762	-5,46
361,018	-3,64
361,273	-6,74
361,529	-4,55
361,784	-4,71
362,04	-3,7
362,295	-5,62
362,55	-5,7
362,806	-3,7
363,061	-4,68
363,316	-2,43
363,572	-1,78
363,827	-0,2
364,082	-1,71
364,338	-3,07
364,593	-3,2
364,848	-2,69
365,104	-4,67
365,359	-1,52
365,614	0,01
365,869	-2,49
366,124	-3,72
366,38	-4,78
366,635	-2,02
366,89	-2,49
367,145	-2,8
367,4	0,18
367,655	0,46
367,91	2,97
368,165	2,28
368,42	-1,53
368,675	-1,45
368,93	0,02
369,185	-0,94
369,44	-1,92
369,695	0,9
369,95	0,17
370,205	0,4
370,46	-0,81
370,715	-1,11
370,97	-0,29
371,225	-1,15
371,48	0,78
371,734	2,36
371,989	3,28
372,244	3,42
372,499	5,23
372,754	2,91
373,008	1,34
373,263	-3,67
373,518	-1,87
373,773	-3,23
374,027	-3,84
374,282	-1,23
374,537	-0,47
374,791	0,71
375,046	-1,52
375,301	-2,71
375,555	-5,81
375,81	-4,69
376,064	-4,73
376,319	-0,43
376,573	-0,32
376,828	-4,93
377,082	0,72
377,337	-0,24
377,591	-3,29
377,846	-0,81
378,1	2,38
378,355	3,56
378,609	1,77
378,863	-0,46
379,118	0,18
379,372	-3
379,627	-6
379,881	-6,95
380,135	-7,46
380,389	-7,57
380,644	-6,04
380,898	-4,63
381,152	-2,69
381,407	-4,5
381,661	-2,52
381,915	0,45
382,169	-0,36
382,423	-2,36
382,677	-6,26
382,932	-5,16
383,186	-4,21
383,44	-3,1
383,694	-1,96
383,948	-3,96
384,202	-5,04
384,456	-2,43
384,71	-1,07
384,964	-3,59
385,218	-1,42
385,472	-1,22
385,726	-3,14
385,98	-3,67
386,234	-3,72
386,488	-6,22
386,742	-5,79
386,996	-7,87
387,249	-7,56
387,503	-5,03
387,757	-4,61
388,011	-3,5
388,265	-3,35
388,518	-2,04
388,772	-0,67
389,026	0,43
389,28	-1,59
389,533	-1,87
389,787	-0,46
390,041	-1,02
390,295	-0,36
390,548	1
390,802	4,72
391,055	3,3
391,309	2,11
391,563	-0,34
391,816	0,92
392,07	-0,72
392,323	-1,32
392,577	0,61
392,83	2,55
393,084	6,9
393,337	10,82
393,591	11,04
393,844	11,19
394,098	14,32
394,351	19,33
394,604	21,32
394,858	22,82
395,111	24,06
395,364	21,1
395,618	22,75
395,871	21,28
396,124	20,68
396,378	21,07
396,631	21,09
396,884	18,61
397,137	18,99
397,391	18,95
397,644	14,92
397,897	14,6
398,15	15,44
398,403	16,24
398,657	14,49
398,91	14,68
399,163	16,39
399,416	15,93
399,669	14,75
399,922	14,25
400,175	12,27
400,428	11,29
400,681	10,69
400,934	5,62
401,187	3,63
401,44	4,08
401,693	2,91
401,946	-1,62
402,199	-6,54
402,452	-7,68
402,704	-10,9
402,957	-12,86
403,21	-10,88
403,463	-11,65
403,716	-11,24
403,969	-11,09
404,221	-13,84
404,474	-12,02
404,727	-9,24
404,98	-7,49
405,232	-7,6
405,485	-6,63
405,738	-3,49
405,99	-4,29
406,243	-2,54
406,496	-1,17
406,748	-2,63
407,001	-3,64
407,253	-2,11
407,506	-1,83
407,759	-0,62
408,011	-1,96
408,264	-2,91
408,516	-2,48
408,769	-3,74
409,021	-2,8
409,274	-4,1
409,526	-2,88
409,778	-1,98
410,031	0,97
410,283	1,61
410,536	7,39
410,788	6,56
411,04	6,43
411,293	8,58
411,545	10,19
411,797	9,04
412,049	9,95
412,302	10,59
412,554	11,6
412,806	10,29
413,058	10,95
413,311	12,24
413,563	10,02
413,815	10,1
414,067	8,41
414,319	7,28
414,571	8,31
414,823	6,44
415,075	4,92
415,328	6,86
415,58	10,3
415,832	12,46
416,084	14,84
416,336	13,81
416,588	18,36
416,84	16,15
417,091	19,48
417,343	16,41
417,595	16,85
417,847	18,21
418,099	19,43
418,351	17,45
418,603	21,16
418,855	21,39
419,106	21,3
419,358	20,23
419,61	22,21
419,862	23,9
420,114	20,55
420,365	19,65
420,617	19,86
420,869	16,44
421,12	15,9
421,372	17,06
421,624	16,81
421,875	17,36
422,127	12,83
422,379	14,24
422,63	16,83
422,882	17,02
423,133	15,01
423,385	14,62
423,636	15,27
423,888	16,7
424,139	18,82
424,391	16,31
424,642	15,44
424,894	14,03
425,145	14,33
425,396	12,88
425,648	14,21
425,899	11,23
426,151	11,78
426,402	10,17
426,653	10,81
426,905	9,9
427,156	7,85
427,407	6,04
427,658	3,92
427,91	2,82
428,161	1,49
428,412	3,55
428,663	5,53
428,914	6,47
429,166	7,03
429,417	7,82
429,668	6,01
429,919	5,94
430,17	3,46
430,421	3,88
430,672	5,31
430,923	6,39
431,174	5,1
431,425	3,58
431,676	1,65
431,927	-1,7
432,178	-1,95
432,429	-1,59
432,68	-3,1
432,931	-0,31
433,182	2,18
433,433	-0,33
433,683	1,64
433,934	1,53
434,185	1,01
434,436	-0,65
434,687	-0,38
434,937	2,62
435,188	1,73
435,439	1,4
435,69	2,84
435,94	3,41
436,191	3,5
436,442	2,94
436,692	1,59
436,943	-1,34
437,194	-3,49
437,444	-0,5
437,695	3,5
437,945	4,69
438,196	3,31
438,447	1,76
438,697	1,56
438,948	0,43
439,198	-1,33
439,449	-5,32
439,699	-4,21
439,949	-3,25
440,2	-3,13
440,45	-2,21
440,701	-2,64
440,951	-2,97
441,201	-2,15
441,452	-3,56
441,702	-5,42
441,952	-5,5
442,203	-5,35
442,453	-7,55
442,703	-7,46
442,953	-5,44
443,204	-4,72
443,454	-6,59
443,704	-6,97
443,954	-9,95
444,204	-8,99
444,455	-6,63
444,705	-4,62
444,955	-3,89
445,205	-5,29
445,455	-7,6
445,705	-6,33
445,955	-6,77
446,205	-7,05
446,455	-6,31
446,705	-4,6
446,955	-2,58
447,205	-1,05
447,455	0,28
447,705	-2,05
447,955	-3,37
448,205	-1,48
448,454	-1,4
448,704	-0,85
448,954	-1,59
449,204	-0,94
449,454	0,37
449,704	-1,03
449,953	-1,19
450,203	1,47
450,453	-1,57
450,703	0,54
450,952	-0,93
451,202	1,36
451,452	-0,32
451,701	3,08
451,951	6
452,201	5,28
452,45	4,86
452,7	6,83
452,949	7,42
453,199	6,51
453,448	8,01
453,698	10,02
453,947	9,62
454,197	8,04
454,446	5,26
454,696	7,18
454,945	6,64
455,195	5,27
455,444	6,64
455,693	10,92
455,943	8,28
456,192	7,71
456,442	8,29
456,691	8,16
456,94	7,43
457,189	5,79
457,439	8,88
457,688	10,22
457,937	9,95
458,186	10,13
458,436	8,48
458,685	10,21
458,934	8,88
459,183	9,56
459,432	11,81
459,681	11,9
459,93	10,36
460,179	9,76
460,429	8,15
460,678	10,02
460,927	14,08
461,176	12,8
461,425	12,61
461,674	15,59
461,923	15,99
462,172	16,77
462,42	15,11
462,669	17,92
462,918	16,67
463,167	15,43
463,416	12,63
463,665	14,09
463,914	14,78
464,162	12,76
464,411	12,92
464,66	15,43
464,909	14,14
465,158	14,52
465,406	14,98
465,655	16,74
465,904	19,68
466,152	20,28
466,401	21,98
466,65	24,66
466,898	25,02
467,147	19,77
467,395	19,31
467,644	21,46
467,893	20,8
468,141	19,58
468,39	16,58
468,638	13,58
468,887	11,22
469,135	10,3
469,384	9,86
469,632	11,31
469,88	10,82
470,129	11,94
470,377	10,05
470,626	13,92
470,874	15,82
471,122	16,32
471,371	14,65
471,619	13,44
471,867	15,81
472,115	15,78
472,364	13,3
472,612	16,85
472,86	14,7
473,108	14,82
473,356	14,23
473,605	14,01
473,853	10,09
474,101	8,29
474,349	6,01
474,597	8,03
474,845	7,53
475,093	6,27
475,341	4,44
475,589	3,9
475,837	5,36
476,085	6,75
476,333	6,01
476,581	7,77
476,829	7,25
477,077	8,59
477,325	8,3
477,573	10,03
477,821	9,96
478,069	10,39
478,317	9,3
478,564	11,28
478,812	9,62
479,06	8,25
479,308	7,61
479,555	7,44
479,803	6,42
480,051	7,84
480,299	7,49
480,546	7,69
480,794	5,15
481,042	4,18
481,289	2,73
481,537	5,08
481,784	4,52
482,032	6,51
482,28	4,85
482,527	4,13
482,775	4,7
483,022	6,37
483,27	9,27
483,517	11,51
483,765	10,54
484,012	10,05
484,259	8,47
484,507	10,01
484,754	9,42
485,002	8,66
485,249	7,29
485,496	9,06
485,744	9,35
485,991	9,15
486,238	7,42
486,486	11,39
486,733	13,09
486,98	15,54
487,227	13,99
487,474	15,98
487,722	18,92
487,969	16,79
488,216	17,27
488,463	17,18
488,71	16,06
488,957	14,24
489,204	13,17
489,451	14,05
489,699	14,75
489,946	13,78
490,193	14,29
490,44	13,64
490,687	12,2
490,934	10,12
491,18	6,81
491,427	8,4
491,674	12,17
491,921	12,09
492,168	12,09
492,415	10,3
492,662	10,87
492,909	13,83
493,155	12,31
493,402	9,93
493,649	6,89
493,896	7,18
494,142	3,63
494,389	2,93
494,636	1,47
494,883	-0,33
495,129	-1,82
495,376	-5,36
495,623	-2,92
495,869	-2,08
496,116	-0,62
496,362	0,32
496,609	5,3
496,855	11,64
497,102	10,68
497,348	9,7
497,595	9,6
497,841	13,01
498,088	12,54
498,334	12,32
498,581	10,5
498,827	11,31
499,074	10,94
499,32	10,7
499,566	14,27
499,813	14,67
500,059	12,89
500,305	13,47
500,552	11,35
500,798	11,38
501,044	15,7
501,29	15,65
501,537	14,88
501,783	16,36
502,029	20,51
502,275	18,19
502,521	18,23
502,767	19,75
503,013	21,96
503,26	18,86
503,506	16,02
503,752	17,72
503,998	17,16
504,244	17,76
504,49	14,9
504,736	17,57
504,982	17,36
505,228	19,83
505,474	21,96
505,72	22,62
505,966	21,67
506,211	25,17
506,457	25,2
506,703	22,61
506,949	20,96
507,195	19,26
507,441	15,02
507,686	19,69
507,932	18,63
508,178	21,61
508,424	19,43
508,669	17,62
508,915	18,04
509,161	19,81
509,406	21,91
509,652	21,91
509,898	25,51
510,143	25,33
510,389	24,23
510,634	20,85
510,88	23,95
511,125	26,2
511,371	26,47
511,616	26,71
511,862	22,7
512,107	19,18
512,353	18,7
512,598	18,85
512,844	16,65
513,089	13,04
513,335	12,95
513,58	13,79
513,825	14,21
514,071	13,48
514,316	14,34
514,561	15,34
514,806	14,77
515,052	18,2
515,297	15,55
515,542	16,93
515,787	17,58
516,033	19,85
516,278	19,99
516,523	21,05
516,768	18,51
517,013	15,44
517,258	13,37
517,503	13,06
517,748	13,7
517,993	12,8
518,238	14,83
518,483	14,13
518,728	12,87
518,973	10,25
519,218	10,63
519,463	11,17
519,708	10,52
519,953	9,04
520,198	9,71
520,443	11,4
520,688	14,5
520,933	14,61
521,177	14,39
521,422	12,18
521,667	14,76
521,912	15,43
522,157	13,39
522,401	16,37
522,646	17,01
522,891	17,65
523,135	18,18
523,38	16,84
523,625	16,01
523,869	17,88
524,114	19,56
524,358	20,5
524,603	20,38
524,848	17,68
525,092	16,25
525,337	17,42
525,581	19,66
525,826	21,16
526,07	20,56
526,315	23,8
526,559	24,02
526,803	21,95
527,048	26,18
527,292	28,38
527,537	29,14
527,781	27,84
528,025	26,48
528,269	27,12
528,514	27,16
528,758	26,79
529,002	26,77
529,247	30,33
529,491	29,36
529,735	33,3
529,979	32,54
530,223	33,02
530,467	30,86
530,712	30,19
530,956	28,73
531,2	29,31
531,444	27,36
531,688	29,11
531,932	28,45
532,176	29,56
532,42	32,57
532,664	34,02
532,908	33,18
533,152	31,95
533,396	30,46
533,64	30,77
533,884	28,32
534,128	26,95
534,371	27,83
534,615	28,16
534,859	27,99
535,103	27,59
535,347	27,06
535,59	28,75
535,834	25,53
536,078	26,4
536,322	28,42
536,565	32,17
536,809	30,42
537,053	31,74
537,296	29,56
537,54	28,61
537,784	27,27
538,027	29,13
538,271	28
538,514	26,88
538,758	28,79
539,001	26,83
539,245	24,46
539,488	24,68
539,732	25,92
539,975	24,29
540,219	25,42
540,462	26,4
540,706	27,08
540,949	26,86
541,192	26,8
541,436	31,17
541,679	36,65
541,922	39,28
542,166	34,89
542,409	34,81
542,652	34,46
542,895	36,51
543,139	36,02
543,382	40,01
543,625	38,79
543,868	38,26
544,111	36,89
544,354	34,93
544,598	34,67
544,841	35,45
545,084	35,79
545,327	35,02
545,57	36,25
545,813	38,1
546,056	39,14
546,299	37,6
546,542	40,12
546,785	42,67
547,028	44,31
547,271	44,05
547,514	45,34
547,756	43,67
547,999	43,97
548,242	44,46
548,485	43,62
548,728	43,67
548,971	39,38
549,213	39,58
549,456	37,34
549,699	38,76
549,942	38,74
550,184	39,64
550,427	39,65
550,67	39,46
550,912	34,06
551,155	36,78
551,398	35,15
551,64	33,9
551,883	33,7
552,125	32,03
552,368	32,15
552,61	28,77
552,853	30,46
553,095	29,39
553,338	28,76
553,58	28,61
553,823	27,84
554,065	29,96
554,308	25,88
554,55	23,37
554,792	21,83
555,035	19,93
555,277	18,66
555,519	18,1
555,762	16,17
556,004	16,32
556,246	14,25
556,488	14,81
556,731	12,8
556,973	14,4
557,215	12,36
557,457	12,81
557,699	15,11
557,941	12,43
558,183	12,61
558,426	15,71
558,668	11,45
558,91	13,31
559,152	13,98
559,394	14,83
559,636	18,19
559,878	19,32
560,12	20,78
560,362	23,97
560,604	23,04
560,845	22,21
561,087	22,79
561,329	25,02
561,571	22,43
561,813	24,68
562,055	24,16
562,297	24,5
562,538	24,45
562,78	28,1
563,022	25,93
563,264	28,07
563,505	28,61
563,747	30,66
563,989	29,93
564,23	29,67
564,472	28,19
564,714	30,59
564,955	31,72
565,197	28,5
565,438	30,42
565,68	32,74
565,921	31,43
566,163	34,06
566,404	33,32
566,646	34,78
566,887	34,7
567,129	34,26
567,37	33,43
567,612	34,93
567,853	30,88
568,094	32,43
568,336	32,21
568,577	32,55
568,818	32,15
569,06	31,35
569,301	28,78
569,542	29,85
569,783	31,94
570,025	33,77
570,266	33,8
570,507	36,72
570,748	36,27
570,989	37,77
571,23	39,17
571,472	39,61
571,713	38,17
571,954	39,77
572,195	38,86
572,436	40,52
572,677	44,08
572,918	46,07
573,159	44,61
573,4	44,74
573,641	44,01
573,882	45,14
574,123	44,14
574,364	41,35
574,604	42,99
574,845	41,04
575,086	41,76
575,327	43,65
575,568	44,55
575,809	44,51
576,049	43,19
576,29	41
576,531	46,89
576,771	50,71
577,012	53,63
577,253	54,35
577,494	54,43
577,734	52,91
577,975	52,74
578,215	52,25
578,456	50,12
578,697	49,51
578,937	50,88
579,178	51,02
579,418	50,8
579,659	50,89
579,899	46,67
580,14	44,86
580,38	43,32
580,62	44,06
580,861	45,85
581,101	46,7
581,342	46,87
581,582	42,8
581,822	45,3
582,063	44,31
582,303	45,76
582,543	44,6
582,783	44,96
583,024	46,04
583,264	49,81
583,504	49,46
583,744	53,15
583,984	50,85
584,224	50,86
584,465	49,41
584,705	51,1
584,945	52,15
585,185	53,83
585,425	55,93
585,665	57,06
585,905	57,96
586,145	60,18
586,385	60,23
586,625	63,14
586,865	62,51
587,105	63,75
587,345	66,58
587,585	67,39
587,824	68,53
588,064	69,35
588,304	68,79
588,544	70,44
588,784	69,52
589,024	73,93
589,263	74,43
589,503	74,48
589,743	77,97
589,982	78,98
590,222	80,97
590,462	81,07
590,701	78,36
590,941	81,58
591,181	81,1
591,42	80,46
591,66	83,89
591,899	88,73
592,139	87,67
592,378	89,94
592,618	89,46
592,857	89,59
593,097	91,09
593,336	92,46
593,576	92,34
593,815	94,06
594,055	95,13
594,294	98,77
594,533	100,1
594,773	101,32
595,012	104,74
595,251	105,95
595,491	109,98
595,73	114,01
595,969	115,02
596,208	118,15
596,447	124,03
596,687	127,41
596,926	128,99
597,165	127,21
597,404	130,88
597,643	129,41
597,882	128,74
598,121	133,22
598,36	135,54
598,599	138,64
598,838	140,97
599,077	138,96
599,316	139,92
599,555	141,07
599,794	143,18
600,033	147,49
600,272	150,1
600,511	150,75
600,75	153,32
600,989	157,11
601,228	157,88
601,466	158,72
601,705	159,63
601,944	162,38
602,183	166,46
602,422	165,73
602,66	166,16
602,899	166,52
603,138	167,36
603,376	169,44
603,615	171,31
603,854	170,3
604,092	171,52
604,331	175,2
604,569	176,97
604,808	178,49
605,047	182,65
605,285	185,1
605,524	185,09
605,762	185,87
606	188,61
606,239	190,87
606,477	193,1
606,716	190,59
606,954	192,32
607,193	191,11
607,431	188,14
607,669	187,52
607,908	188,62
608,146	192,45
608,384	192,12
608,622	193,89
608,861	195,85
609,099	196,47
609,337	196,13
609,575	195,86
609,813	198,37
610,052	201,47
610,29	197,97
610,528	197,17
610,766	197,18
611,004	197,83
611,242	196,24
611,48	196,73
611,718	195,1
611,956	197,68
612,194	196,58
612,432	197,53
612,67	197,1
612,908	200,18
613,146	198,39
613,384	196,84
613,621	195,96
613,859	195,93
614,097	196,72
614,335	196,92
614,573	198,46
614,811	201,28
615,048	202,69
615,286	203,53
615,524	202,52
615,761	200,61
615,999	201,75
616,237	200,85
616,474	202,47
616,712	203,85
616,95	203,13
617,187	203,45
617,425	203,88
617,662	206,23
617,9	204,88
618,137	202,28
618,375	201,65
618,612	202,05
618,85	203,74
619,087	205,5
619,325	203,99
619,562	202,91
619,799	201,33
620,037	202,36
620,274	200,99
620,511	202,56
620,749	200,27
620,986	200,47
621,223	198,86
621,461	198,03
621,698	200,16
621,935	199,56
622,172	197,62
622,409	197,52
622,647	197,59
622,884	195,88
623,121	197,31
623,358	195,3
623,595	195,89
623,832	197,33
624,069	195,37
624,306	195,99
624,543	196,88
624,78	196,11
625,017	194,98
625,254	197,35
625,491	200,26
625,728	201,7
625,965	202,32
626,202	200,99
626,438	199,54
626,675	200,7
626,912	202,99
627,149	203,73
627,386	202,44
627,622	201,26
627,859	201,06
628,096	202,31
628,333	201,62
628,569	204,07
628,806	206,26
629,043	204,28
629,279	204,77
629,516	206,48
629,752	205,09
629,989	205,22
630,225	202,92
630,462	203,91
630,699	203,93
630,935	203,21
631,171	199,87
631,408	199,76
631,644	197,52
631,881	194,08
632,117	192,28
632,354	194,38
632,59	192,58
632,826	192,25
633,063	191,15
633,299	190,59
633,535	188,48
633,771	188,32
634,008	188,56
634,244	188,38
634,48	186,04
634,716	187,26
634,953	185,92
635,189	185,78
635,425	186,55
635,661	188,91
635,897	187,08
636,133	187,08
636,369	184,46
636,605	181,22
636,841	180,48
637,077	179,86
637,313	179,58
637,549	181,31
637,785	178,45
638,021	178,78
638,257	177,61
638,493	179,02
638,729	177,2
638,965	179,84
639,2	182,07
639,436	180,05
639,672	179,11
639,908	177,04
640,144	179,87
640,379	181,59
640,615	179,46
640,851	180,45
641,086	181,05
641,322	179,55
641,558	177,7
641,793	177,62
642,029	174,69
642,264	173,56
642,5	173,6
642,736	169,44
642,971	168,19
643,207	164,61
643,442	161,52
643,678	162,2
643,913	162,59
644,148	161,11
644,384	163,17
644,619	162,55
644,855	161,58
645,09	162,28
645,325	160,26
645,561	158,78
645,796	154,65
646,031	156,77
646,266	154,63
646,502	152
646,737	153,89
646,972	152,76
647,207	152,68
647,442	148,81
647,678	144,91
647,913	147,7
648,148	147,66
648,383	145,23
648,618	143,5
648,853	144,13
649,088	146,05
649,323	149,27
649,558	150,47
649,793	149,85
650,028	151,09
650,263	147,92
650,498	150,31
650,733	150,34
650,968	148,56
651,202	149,71
651,437	147,22
651,672	143,5
651,907	142,32
652,142	143,28
652,376	143,09
652,611	143,62
652,846	145,26
653,081	145,85
653,315	144,74
653,55	144,15
653,785	142,21
654,019	143,4
654,254	140,7
654,488	140,53
654,723	136,37
654,958	134,47
655,192	131,11
655,427	128,05
655,661	128,92
655,896	130,62
656,13	130,09
656,364	126,69
656,599	122,74
656,833	128,06
657,068	128,16
657,302	127,99
657,536	125,19
657,771	126,29
658,005	125,54
658,239	126,5
658,474	123,05
658,708	123,79
658,942	122,77
659,176	119,55
659,41	114,93
659,645	112,52
659,879	112,34
660,113	107,73
660,347	106,24
660,581	103,48
660,815	101,93
661,049	100,35
661,283	96,86
661,517	95,26
661,751	94,32
661,985	94,04
662,219	94,44
662,453	92,17
662,687	91,81
662,921	88,28
663,155	86,87
663,389	81,88
663,622	79,46
663,856	81,07
664,09	73,82
664,324	72,02
664,558	70,19
664,791	70,04
665,025	68,3
665,259	67,33
665,492	66,34
665,726	68,85
665,96	68,22
666,193	66,38
666,427	66,75
666,661	65,75
666,894	64,37
667,128	62,68
667,361	64,71
667,595	64,18
667,828	62,47
668,062	62,05
668,295	62,45
668,529	62,58
668,762	62,03
668,995	61,85
669,229	64,14
669,462	63,94
669,695	64,43
669,929	63,55
670,162	62,63
670,395	60,07
670,629	62,18
670,862	64,4
671,095	59,37
671,328	58,83
671,561	56,47
671,795	57,96
672,028	58,97
672,261	58,89
672,494	60,31
672,727	58,29
672,96	58,8
673,193	57,83
673,426	62,02
673,659	62,22
673,892	63,57
674,125	64,01
674,358	63,64
674,591	62,77
674,824	61,53
675,057	60,49
675,29	57,69
675,523	59,87
675,755	57,99
675,988	59,57
676,221	59,7
676,454	57,66
676,687	58,13
676,919	57,52
677,152	57,3
677,385	57,39
677,617	57,94
677,85	57,82
678,083	55,94
678,315	58,31
678,548	56,76
678,78	55,12
679,013	53,65
679,246	54,61
679,478	54,26
679,711	52
679,943	53,6
680,175	49,43
680,408	52,06
680,64	47,65
680,873	48,6
681,105	49,09
681,338	51,05
681,57	49,87
681,802	50,37
682,034	50,59
682,267	54,23
682,499	55,46
682,731	52,56
682,964	52,53
683,196	49,72
683,428	49,17
683,66	48,59
683,892	50,89
684,124	51,87
684,356	54,52
684,589	54,34
684,821	53,05
685,053	52,36
685,285	51,82
685,517	52,96
685,749	53,32
685,981	54,71
686,213	54,71
686,445	53,14
686,676	50,17
686,908	50,59
687,14	49,25
687,372	49,69
687,604	46,3
687,836	45,97
688,068	44,43
688,299	41,75
688,531	40,44
688,763	44,59
688,995	41,18
689,226	44,14
689,458	41,89
689,69	41,79
689,921	39,81
690,153	38,92
690,384	40,18
690,616	38,09
690,848	38,69
691,079	35,38
691,311	33,01
691,542	28,47
691,774	25,79
692,005	28,22
692,237	31,19
692,468	29,23
692,699	28,82
692,931	27,25
693,162	25,95
693,393	25,05
693,625	24,45
693,856	25,74
694,087	25,98
694,319	25,38
694,55	24,85
694,781	23,43
695,012	23,51
695,243	21,88
695,475	22,73
695,706	20,78
695,937	18,99
696,168	18,14
696,399	15,43
696,63	14,84
696,861	13,87
697,092	18,28
697,323	21,35
697,554	22,18
697,785	23,1
698,016	22,97
698,247	21,35
698,478	23,11
698,709	25,31
698,94	28,67
699,171	27,1
699,401	22,33
699,632	24,6
699,863	20,03
700,094	21,32
700,325	23,62
700,555	23,95
700,786	25,75
701,017	25,05
701,247	22,81
701,478	24,16
701,709	24,82
701,939	23,04
702,17	25,6
702,401	27,83
702,631	28,76
702,862	27,5
703,092	24,13
703,323	29,11
703,553	29,34
703,784	29,02
704,014	29,05
704,244	23,21
704,475	20,81
704,705	20,29
704,936	21,76
705,166	20,59
705,396	20,99
705,627	20,35
705,857	20,36
706,087	20,33
706,317	18,48
706,548	16,68
706,778	15,94
707,008	18,48
707,238	18,14
707,468	16,03
707,698	13,71
707,928	11,95
708,158	11,49
708,389	11,11
708,619	9,82
708,849	8,74
709,079	10,88
709,309	8,24
709,539	6,01
709,768	5,12
709,998	6,98
710,228	7,07
710,458	4,6
710,688	2,69
710,918	2,86
711,148	2,26
711,378	3,86
711,607	2,46
711,837	2,43
712,067	1,3
712,297	1,94
712,526	2,13
712,756	2,65
712,986	0,61
713,215	-2,02
713,445	-0,22
713,674	1,33
713,904	1,62
714,134	3,49
714,363	1,81
714,593	1,22
714,822	1,04
715,052	-0,69
715,281	1,08
715,511	0,93
715,74	1,87
715,969	0,66
716,199	1,1
716,428	2,2
716,657	3,34
716,887	4,75
717,116	2,57
717,345	4,1
717,575	4,24
717,804	5,78
718,033	4,69
718,262	4,29
718,492	4,55
718,721	5,82
718,95	5,46
719,179	2,54
719,408	2,07
719,637	-1,31
719,866	-2,86
720,095	-1,48
720,324	-1,96
720,553	-5,78
720,782	-7,13
721,011	-8,08
721,24	-10,57
721,469	-10,12
721,698	-10,78
721,927	-10,92
722,156	-11,41
722,385	-13,36
722,613	-11,27
722,842	-11,57
723,071	-8,93
723,3	-7,74
723,529	-9,45
723,757	-10,22
723,986	-12,86
724,215	-12,76
724,443	-11,96
724,672	-9,63
724,901	-8,63
725,129	-5,89
725,358	-2,32
725,586	-4,99
725,815	-4,52
726,043	-5,55
726,272	-6,47
726,5	-5,9
726,729	-3,82
726,957	-7,27
727,186	-8,84
727,414	-6,87
727,642	-4,44
727,871	-2,94
728,099	-3,04
728,327	-3,82
728,556	-2,15
728,784	-0,63
729,012	-0,54
729,241	1,73
729,469	1,7
729,697	-1,11
729,925	-2,36
730,153	-3,65
730,381	-4,72
730,61	-4,01
730,838	-5,8
731,066	-3,92
731,294	-2,89
731,522	-5,06
731,75	-9,78
731,978	-11,61
732,206	-14,34
732,434	-16,53
732,662	-14,18
732,89	-16,63
733,118	-17,29
733,346	-14,74
733,573	-14,51
733,801	-14,6
734,029	-7,08
734,257	-8,15
734,485	-5,94
734,712	-4,35
734,94	-5,59
735,168	-2,74
735,396	-1,25
735,623	-3
735,851	-2,26
736,078	-1,16
736,306	-0,19
736,534	-1,32
736,761	0,1
736,989	-1,29
737,216	-1,96
737,444	-2,86
737,671	-3,06
737,899	1,79
738,126	-0,14
738,354	-0,34
738,581	-0,71
738,809	0,44
739,036	-1,41
739,263	0,55
739,491	-1,48
739,718	-1,25
739,945	4,13
740,173	6,78
740,4	4,89
740,627	2,89
740,854	3,48
741,081	-0,92
741,309	-0,57
741,536	-4,89
741,763	-6,77
741,99	-4,2
742,217	-3,9
742,444	-4,96
742,671	-3,21
742,898	-3,25
743,125	-5,42
743,352	-8,93
743,579	-9,15
743,806	-10,01
744,033	-7,46
744,26	-6,36
744,487	-7,18
744,714	-6,71
744,941	-8,41
745,167	-4,56
745,394	-5,68
745,621	-5,05
745,848	-3,86
746,075	-0,9
746,301	1,93
746,528	5,71
746,755	4,39
746,981	3,57
747,208	3,7
747,435	6,5
747,661	6,75
747,888	7,24
748,114	6,72
748,341	8,15
748,567	10,77
748,794	8,89
749,02	6,82
749,247	3,11
749,473	2,43
749,7	1,86
749,926	1,01
750,152	4,7
750,379	6,13
750,605	7,19
750,831	7,47
751,058	6,6
751,284	4,63
751,51	7,52
751,737	9,14
751,963	8,14
752,189	5,55
752,415	5,81
752,641	4,79
752,867	4,23
753,094	2,67
753,32	0,3
753,546	-0,38
753,772	1,23
753,998	-1,78
754,224	-1,66
754,45	-2,38
754,676	-2,26
754,902	-3,67
755,128	-3,22
755,354	-2,95
755,579	-2,26
755,805	-0,39
756,031	-1,4
756,257	-1,78
756,483	-0,58
756,709	-1,31
756,934	-0,99
757,16	-3,09
757,386	-2,53
757,612	-4,43
757,837	-5,53
758,063	-3,52
758,289	-1,16
758,514	-3,58
758,74	-7,83
758,965	-11,06
759,191	-8,58
759,416	-8,24
759,642	-7,01
759,868	-6,28
760,093	-4,99
760,318	-6,3
760,544	-7,27
760,769	-7,82
760,995	-8,26
761,22	-8,93
761,445	-7,49
761,671	-5,76
761,896	-2,21
762,121	-2,96
762,347	-4,11
762,572	-7,05
762,797	-7,25
763,022	-7,57
763,248	-2,86
763,473	-4,22
763,698	-6,02
763,923	-6,95
764,148	-7,66
764,373	-9,09
764,598	-7,08
764,823	-6,05
765,048	-8,78
765,273	-11,84
765,498	-12,36
765,723	-10,61
765,948	-8,5
766,173	-10,12
766,398	-9,74
766,623	-11,75
766,848	-13,8
767,073	-15,23
767,298	-15,13
767,522	-15,18
767,747	-14,4
767,972	-14,05
768,197	-13,06
768,421	-15,44
768,646	-17,97
768,871	-22,06
769,095	-21,04
769,32	-20,66
769,545	-20,39
769,769	-18,85
769,994	-17,38
770,218	-21,68
770,443	-20,22
770,667	-18,36
770,892	-17,02
771,116	-17,19
771,341	-15,91
771,565	-17,16
771,79	-16,21
772,014	-16,47
772,238	-16,64
772,463	-13,5
772,687	-12,87
772,911	-13,14
773,136	-16
773,36	-15,54
773,584	-12,86
773,808	-14,08
774,033	-13,72
774,257	-13,98
774,481	-15,14
774,705	-16,66
774,929	-16,06
775,153	-17,1
775,377	-14,76
775,602	-14,23
775,826	-11,13
776,05	-8,18
776,274	-8,12
776,498	-7,12
776,722	-6,93
776,945	-5,12
777,169	-4,09
777,393	-4,8
777,617	-6,26
777,841	-5,89
778,065	-3,94
778,289	-5,36
778,512	-5,3
778,736	-5,08
778,96	-6,32
779,184	-4,24
779,407	-5,88
779,631	-5,81
779,855	-7,57
780,078	-5,03
780,302	-7,14
780,526	-9,7
780,749	-7,94
780,973	-6,52
781,196	-5,9
781,42	-8,16
781,643	-7,56
781,867	-6,41
782,09	-8,77
782,314	-9,97
782,537	-10,59
782,76	-12,59
782,984	-13,25
783,207	-13,16
783,431	-13,77
783,654	-16,75
783,877	-20,6
784,1	-21,58
784,324	-22,24
784,547	-21,75
784,77	-25,51
784,993	-27,61
785,216	-26,72
785,44	-26,47
785,663	-28,92
785,886	-26,21
786,109	-26,15
786,332	-26,36
786,555	-25,45
786,778	-22,32
787,001	-22,17
787,224	-20,53
787,447	-19,84
787,67	-18,9
787,893	-19,57
788,116	-19,4
788,339	-16,95
788,561	-18,52
788,784	-21,55
789,007	-21,56
789,23	-22,5
789,453	-22,74
789,675	-24,53
789,898	-26,21
790,121	-29,26
790,344	-29,06
790,566	-29,12
790,789	-28,27
791,012	-27,26
791,234	-23,97
791,457	-20,46
791,679	-18,56
791,902	-18,23
792,124	-18,83
792,347	-20,17
792,569	-20,19
792,792	-22,7
793,014	-20,48
793,237	-20,34
793,459	-20,64
793,681	-20,72
793,904	-21,71
794,126	-23,01
794,348	-24,38
794,571	-23,81
794,793	-24,39
795,015	-24,31
795,237	-25,29
795,46	-23,29
795,682	-23,46
795,904	-20,82
796,126	-23,31
796,348	-23,01
796,57	-19,92
796,792	-19,96
797,014	-14,61
797,237	-13,16
797,459	-10,57
797,681	-8,16
797,903	-9,88
798,124	-9,53
798,346	1,18
798,568	2,55
798,79	6,58
799,012	7,98
799,234	9,88
799,456	11,71
799,678	14,42
799,899	12,54
800,121	10,16
800,343	9,05
800,565	8,23
800,786	9,32
801,008	11,52
801,23	13,2
801,451	13,54
801,673	10,91
801,895	10,51
802,116	12,08
802,338	13,58
802,559	13,86
802,781	10,39
803,002	13,45
803,224	15,8
803,445	13,73
803,667	15,71
803,888	12,4
804,109	12,81
804,331	12,26
804,552	10,36
804,773	12,62
804,995	8,84
805,216	-5,62
805,437	-9,24
805,658	-12,03
805,88	-14,76
806,101	-15,51
806,322	-15,32
806,543	-17,35
806,764	-20,13
806,985	-18,04
807,207	-17,15
807,428	-15,86
807,649	-19,1
807,87	-20,72
808,091	-20,95
808,312	-20,85
808,533	-15,38
808,754	-12,99
808,975	-14,71
809,195	-13,99
809,416	-13,32
809,637	-12,63
809,858	-14,29
810,079	-15,97
810,3	-13,34
810,52	-14,8
810,741	-16,29
810,962	-19,39
811,183	-20,17
811,403	-18,52
811,624	-19,44
811,845	-17,98
812,065	-16,17
812,286	-14,68
812,506	-14,86
812,727	-13,5
812,948	-11,44
813,168	-9,97
813,389	-12,24
813,609	-9,78
813,83	-9,93
814,05	-10,93
814,27	-11,57
814,491	-7,64
814,711	-8,45
814,931	-10,52
815,152	-10,12
815,372	-12,52
815,592	-13,46
815,813	-13,8
816,033	-15,92
816,253	-15,41
816,473	-15,75
816,694	-13,27
816,914	-12,86
817,134	-14,15
817,354	-15,4
817,574	-13,25
817,794	-12,35
818,014	-12,98
818,234	-13,59
818,454	-14,37
818,674	-16,6
818,894	-18,24
819,114	-15,43
819,334	-15,79
819,554	-13,64
819,774	-11,21
819,994	-12,74
820,214	-12,28
820,433	-12,98
820,653	-12,81
820,873	-10,46
821,093	-9,49
821,312	-11,3
821,532	-10,26
821,752	-8,61
821,972	-10,76
822,191	-9,89
822,411	-11,75
822,63	-11,27
822,85	-9,88
823,07	-12,6
823,289	-10,93
823,509	-13,14
823,728	-11,84
823,948	-12,72
824,167	-14,97
824,387	-16,98
824,606	-15,6
824,825	-16,68
825,045	-16,78
825,264	-17,59
825,483	-15,27
825,703	-14,98
825,922	-17,59
826,141	-18,71
826,361	-19,97
826,58	-25,19
826,799	-27,61
827,018	-25,34
827,237	-24,72
827,456	-24,19
827,676	-25,55
827,895	-26,28
828,114	-25,59
828,333	-25,09
828,552	-24,08
828,771	-23,41
828,99	-25,56
829,209	-24,98
829,428	-22,28
829,647	-23,61
829,866	-22,45
830,084	-22,71
830,303	-22,63
830,522	-23,65
830,741	-23,19
830,96	-20,68
831,179	-19,04
831,397	-20,81
831,616	-20,62
831,835	-21,38
832,053	-19,97
832,272	-19,16
832,491	-18,13
832,709	-18,78
832,928	-17,66
833,147	-16,86
833,365	-15,13
833,584	-11,42
833,802	-9
834,021	-8,06
834,239	-7,57
834,458	-9,53
834,676	-12,93
834,894	-13,55
835,113	-14,25
835,331	-14,86
835,55	-15,77
835,768	-14,78
835,986	-13,39
836,204	-16,04
836,423	-13,88
836,641	-13,99
836,859	-15,95
837,077	-15,12
837,296	-14,98
837,514	-16,94
837,732	-18,36
837,95	-18,87
838,168	-15
838,386	-15,12
838,604	-12,65
838,822	-11,64
839,04	-14,18
839,258	-14,71
839,476	-12,28
839,694	-11,92
839,912	-14,26
840,13	-14,71
840,348	-13,39
840,566	-17,32
840,783	-16,42
841,001	-17,98
841,219	-15,79
841,437	-13,67
841,655	-13,25
841,872	-12,76
842,09	-13,8
842,308	-12,67
842,525	-12,62
842,743	-11,79
842,961	-12,17
843,178	-15
843,396	-11,23
843,613	-10,5
843,831	-10,03
844,048	-10,09
844,266	-9,08
844,483	-9,09
844,701	-11,56
844,918	-13,08
845,136	-13
845,353	-14,82
845,57	-14,98
845,788	-11,06
846,005	-13,51
846,222	-15,64
846,439	-14,05
846,657	-12,98
846,874	-12,11
847,091	-14,05
847,308	-11,01
847,526	-13,38
847,743	-12,91
847,96	-14,52
848,177	-14,54
848,394	-14,28
848,611	-15,28
848,828	-15,41
849,045	-16,58
849,262	-17,13
849,479	-17,8
849,696	-19,09
849,913	-20,63
850,13	-25,79
850,347	-22,85
850,564	-23,32
850,78	-24,62
850,997	-26,08
851,214	-26,13
851,431	-23,52
851,647	-26,04
851,864	-25
852,081	-23,1
852,298	-26,04
852,514	-27,22
852,731	-24,86
852,948	-23,72
853,164	-23,27
853,381	-23,83
853,597	-23,97
853,814	-25,33
854,03	-28,78
854,247	-26,71
854,463	-26,63
854,68	-26,1
854,896	-25,31
855,113	-26,47
855,329	-24,39
855,545	-22,27
855,762	-22,89
855,978	-24,05
856,194	-24,73
856,411	-19,59
856,627	-17,67
856,843	-15,94
857,059	-12,69
857,275	-12,62
857,492	-12,15
857,708	-7,22
857,924	-5,84
858,14	-4,58
858,356	-5,51
858,572	-6,51
858,788	-9,06
859,004	-7,69
859,22	-10,78
859,436	-9,92
859,652	-11,5
859,868	-13,86
860,084	-13,33
860,3	-13,51
860,516	-14,48
860,731	-13,64
860,947	-15,37
861,163	-13,77
861,379	-13,19
861,595	-11,95
861,81	-9,29
862,026	-10,52
862,242	-10,87
862,457	-10,3
862,673	-9,64
862,889	-11,52
863,104	-13,17
863,32	-12,77
863,535	-12,28
863,751	-18,37
863,966	-17,45
864,182	-15,81
864,397	-18,61
864,613	-19,35
864,828	-21,6
865,044	-20,27
865,259	-18,28
865,474	-17,7
865,69	-15,06
865,905	-14,29
866,12	-17,08
866,336	-15,61
866,551	-13,93
866,766	-13,86
866,981	-16,72
867,196	-15,6
867,412	-15,82
867,627	-15,97
867,842	-16,99
868,057	-16,53
868,272	-17,86
868,487	-20,91
868,702	-21,29
868,917	-22,24
869,132	-21,39
869,347	-20,45
869,562	-21,29
869,777	-22,2
869,992	-22,63
870,207	-21,77
870,422	-22,1
870,636	-23,57
870,851	-25,62
871,066	-27,74
871,281	-27,53
871,495	-27,51
871,71	-24,55
871,925	-27,14
872,14	-28,22
872,354	-31,83
872,569	-30,87
872,783	-28,79
872,998	-28,99
873,213	-29,58
873,427	-29,34
873,642	-26,66
873,856	-26,97
874,071	-26,97
874,285	-27,94
874,5	-29,18
874,714	-32,14
874,928	-31,73
875,143	-31,73
875,357	-31,3
875,571	-31,79
875,786	-30,81
876	-28,19
876,214	-26,5
876,429	-28,14
876,643	-27,34
876,857	-27,25
877,071	-24,79
877,285	-25,43
877,499	-27,99
877,714	-24,74
877,928	-23,28
878,142	-25,05
878,356	-27,28
878,57	-25,55
878,784	-24,57
878,998	-24,58
879,212	-23,57
879,426	-25,26
879,639	-23,63
879,853	-25,28
880,067	-24,48
880,281	-26,48
880,495	-24,67
880,709	-22,45
880,922	-20,55
881,136	-18,91
881,35	-15,48
881,564	-16,47
881,777	-18,16
881,991	-18,13
882,205	-14,55
882,418	-14,76
882,632	-18,35
882,845	-19,01
883,059	-18,29
883,273	-18,22
883,486	-19,13
883,7	-18,31
883,913	-18,99
884,126	-16,07
884,34	-19,34
884,553	-20,85
884,767	-17,04
884,98	-17,21
885,193	-18,82
885,407	-20,37
885,62	-19,39
885,833	-19,33
886,046	-17,15
886,26	-19,8
886,473	-21,15
886,686	-21,74
886,899	-20,05
887,112	-22,72
887,326	-24,72
887,539	-24,88
887,752	-24,52
887,965	-26,8
888,178	-25,27
888,391	-23,8
888,604	-24,48
888,817	-26,49
889,03	-25,64
889,243	-26,31
889,455	-27,56
889,668	-27,53
889,881	-25,69
890,094	-26,99
890,307	-29,52
890,52	-27,43
890,732	-27,84
890,945	-27,72
891,158	-28
891,37	-30,25
891,583	-29,75
891,796	-28,27
892,008	-28,4
892,221	-29,24
892,434	-33,22
892,646	-33,87
892,859	-33,28
893,071	-30,38
893,284	-28,7
893,496	-28,46
893,709	-26,82
893,921	-25,54
894,133	-26,63
894,346	-27,72
894,558	-27,88
894,771	-27,56
894,983	-26,04
895,195	-24,77
895,407	-25,53
895,62	-28,81
895,832	-27,44
896,044	-24,58
896,256	-25,19
896,468	-28,23
896,681	-27,16
896,893	-26,5
897,105	-27,13
897,317	-26,25
897,529	-23,79
897,741	-22,57
897,953	-19,94
898,165	-21,76
898,377	-23,47
898,589	-22,09
898,801	-22,08
899,013	-19,14
899,224	-17,04
899,436	-15,15
899,648	-17,38
899,86	-18,9
900,072	-17,27
900,283	-15,98
900,495	-14,86
900,707	-13,91
900,919	-15,65
901,13	-15,45
901,342	-17,71
901,554	-19,23
901,765	-18,98
901,977	-20,16
902,188	-18,53
902,4	-19,1
902,611	-19,23
902,823	-20,53
903,034	-21,38
903,246	-22,46
903,457	-23,1
903,669	-23,9
903,88	-24,36
904,091	-25,16
904,303	-24,06
904,514	-25,74
904,725	-24,29
904,936	-22,8
905,148	-21,48
905,359	-18,2
905,57	-17,56
905,781	-19,14
905,992	-19,59
906,204	-17,96
906,415	-18,14
906,626	-19,57
906,837	-18,53
907,048	-19,9
907,259	-20,77
907,47	-21,73
907,681	-22,52
907,892	-19,88
908,103	-19,49
908,314	-20,71
908,525	-19,09
908,735	-19,7
908,946	-20,68
909,157	-23,32
909,368	-20,94
909,579	-19,49
909,789	-20,17
910	-20,83
910,211	-19,9
910,421	-20,8
910,632	-20,78
910,843	-24,78
911,053	-21,06
911,264	-17,92
911,475	-18,82
911,685	-19,1
911,896	-19,41
912,106	-19,24
912,317	-21,33
912,527	-19,91
912,737	-20,4
912,948	-20,34
913,158	-20,61
913,369	-22,75
913,579	-20,66
913,789	-19,93
914	-16,34
914,21	-15,28
914,42	-16,77
914,63	-17,2
914,841	-17,51
915,051	-15,36
915,261	-14,87
915,471	-12,53
915,681	-11,64
915,891	-12,27
916,101	-12,56
916,311	-11,82
916,521	-9,68
916,731	-7,4
916,941	-5,03
917,151	-5,51
917,361	-2,65
917,571	-6,62
917,781	-9,57
917,991	-12,13
918,201	-12,88
918,411	-15,88
918,621	-16,47
918,83	-14,95
919,04	-17,66
919,25	-15,31
919,46	-13,51
919,669	-15,62
919,879	-16,01
920,089	-17,44
920,298	-18,52
920,508	-18,21
920,717	-16,23
920,927	-16,92
921,136	-15,87
921,346	-17,85
921,555	-20,83
921,765	-22,03
921,974	-25,13
922,184	-26,37
922,393	-25,56
922,603	-26,72
922,812	-25,1
923,021	-26,65
923,23	-29,6
923,44	-31,84
923,649	-31,68
923,858	-31,54
924,067	-31,89
924,277	-32,78
924,486	-29,75
924,695	-29,31
924,904	-27,53
925,113	-27,56
925,322	-25,89
925,531	-24,74
925,74	-27,48
925,949	-28,68
926,158	-26,49
926,367	-26,48
926,576	-25,97
926,785	-25,53
926,994	-26,08
927,203	-26,94
927,412	-27,94
927,621	-29,48
927,83	-25,33
928,038	-26,47
928,247	-25,55
928,456	-23,83
928,665	-22,76
928,873	-21,41
929,082	-19,59
929,291	-19,07
929,499	-17,6
929,708	-18,48
929,916	-17,8
930,125	-18,27
930,333	-18,67
930,542	-15,9
930,75	-12,88
930,959	-11,92
931,167	-13,72
931,376	-14,01
931,584	-13,27
931,793	-14,39
932,001	-14,51
932,209	-16,38
932,418	-19,06
932,626	-20,59
932,834	-21,84
933,042	-25,16
933,251	-26,31
933,459	-27,44
933,667	-27,93
933,875	-26,79
934,083	-24,62
934,291	-24,5
934,499	-22,55
934,707	-22,23
934,915	-21,43
935,123	-20,99
935,331	-21,4
935,539	-23,13
935,747	-24,85
935,955	-25,54
936,163	-24,31
936,371	-24,24
936,579	-22,19
936,787	-23,52
936,995	-26,21
937,202	-27,88
937,41	-29,06
937,618	-29,49
937,826	-29,55
938,033	-34,02
938,241	-35,85
938,449	-33,42
938,656	-30,28
938,864	-29,63
939,071	-27,96
939,279	-25
939,486	-21,3
939,694	-21,69
939,901	-22,25
940,109	-21,02
940,316	-21,43
940,524	-22,53
940,731	-24,91
940,939	-24,25
941,146	-25,16
941,353	-26,54
941,561	-25,86
941,768	-27,68
941,975	-25,61
942,182	-25,56
942,39	-24,94
942,597	-23,57
942,804	-23,75
943,011	-25,7
943,218	-23,8
943,425	-23,5
943,632	-23,73
943,839	-23,61
944,046	-23,46
944,253	-22,87
944,46	-21,09
944,667	-16,52
944,874	-19,06
945,081	-16,82
945,288	-14,2
945,495	-12,9
945,702	-13,3
945,909	-15,88
946,115	-13,86
946,322	-14,42
946,529	-16,58
946,736	-15,74
946,942	-14,52
947,149	-15
947,356	-16,76
947,562	-17,29
947,769	-17,01
947,976	-18,05
948,182	-16,06
948,389	-18,11
948,595	-16,65
948,802	-16,72
949,008	-16,99
949,215	-15,96
949,421	-15,3
949,628	-17,21
949,834	-16,43
950,04	-18,03
950,247	-14,35
950,453	-12,8
950,659	-14,55
950,865	-12,13
951,072	-17,26
951,278	-13,5
951,484	-16,68
951,69	-20,7
951,896	-22,33
952,103	-23,22
952,309	-21,17
952,515	-21,92
952,721	-20,55
952,927	-18,99
953,133	-20,77
953,339	-21,04
953,545	-21,09
953,751	-18,99
953,957	-16,66
954,163	-17,76
954,369	-17,46
954,574	-20,12
954,78	-20,23
954,986	-21,21
955,192	-19,33
955,398	-20,5
955,603	-22,74
955,809	-21,25
956,015	-20,68
956,22	-19,91
956,426	-17,71
956,632	-21,24
956,837	-21,33
957,043	-21,02
957,248	-21,15
957,454	-20,35
957,66	-23,41
957,865	-23,11
958,07	-21,08
958,276	-22,48
958,481	-24,53
958,687	-26,57
958,892	-27,2
959,097	-28,3
959,303	-29,56
959,508	-29,94
959,713	-30,9
959,919	-31,25
960,124	-32
960,329	-32,49
960,534	-29,86
960,739	-27,76
960,945	-25,17
961,15	-24,86
961,355	-25,54
961,56	-29
961,765	-30,5
961,97	-29,92
962,175	-29,25
962,38	-31,98
962,585	-32,41
962,79	-34,47
962,995	-34,19
963,2	-35,53
963,404	-35,75
963,609	-38,04
963,814	-38,8
964,019	-41,61
964,224	-44,07
964,428	-42,85
964,633	-40,82
964,838	-38,42
965,042	-38,47
965,247	-38,16
965,452	-37,3
965,656	-35,36
965,861	-32,87
966,066	-32,66
966,27	-30,47
966,475	-28,2
966,679	-31,92
966,884	-31,44
967,088	-35,68
967,292	-36,01
967,497	-34,99
967,701	-35,54
967,906	-34,94
968,11	-32,25
968,314	-29,58
968,518	-30,41
968,723	-27,39
968,927	-25,88
969,131	-24,12
969,335	-22,76
969,539	-23
969,744	-20,73
969,948	-18,24
970,152	-16,27
970,356	-14,33
970,56	-12,73
970,764	-14,29
970,968	-12,81
971,172	-13,27
971,376	-12,18
971,58	-11,86
971,784	-11,57
971,988	-12,98
972,192	-11,33
972,395	-13,48
972,599	-16,2
972,803	-17,63
973,007	-14,85
973,21	-14,41
973,414	-13,97
973,618	-14,88
973,822	-15,32
974,025	-15,3
974,229	-15,32
974,432	-18,24
974,636	-19,66
974,84	-19,57
975,043	-18,76
975,247	-19,87
975,45	-20,16
975,654	-19,47
975,857	-16,86
976,06	-19,14
976,264	-20,97
976,467	-19,69
976,671	-20,17
976,874	-18,7
977,077	-19,02
977,28	-20,14
977,484	-22,07
977,687	-22,12
977,89	-18,98
978,093	-18,56
978,297	-18,06
978,5	-20,63
978,703	-19,01
978,906	-18,14
979,109	-18,45
979,312	-17,93
979,515	-19,93
979,718	-18,72
979,921	-19,3
980,124	-21,26
980,327	-20,95
980,53	-19,66
980,733	-16,86
980,936	-14,79
981,138	-16,16
981,341	-16,41
981,544	-16,66
981,747	-18,01
981,949	-19,88
982,152	-19,5
982,355	-18,24
982,558	-15,27
982,76	-18,36
982,963	-17,78
983,165	-17,71
983,368	-16,14
983,571	-16,89
983,773	-13,23
983,976	-13,96
984,178	-14,91
984,381	-16,05
984,583	-18,03
984,785	-17,68
984,988	-14,88
985,19	-13,02
985,392	-13,75
985,595	-16,34
985,797	-14,84
985,999	-12,79
986,202	-10,48
986,404	-9,55
986,606	-6,68
986,808	-9,26
987,01	-7,62
987,212	-10,23
987,415	-10,91
987,617	-9,86
987,819	-10,38
988,021	-9,87
988,223	-11,13
988,425	-12,65
988,627	-12,81
988,829	-16,05
989,031	-13,19
989,232	-14,71
989,434	-15,05
989,636	-15,94
989,838	-16,18
990,04	-15,51
990,242	-15,94
990,443	-17,99
990,645	-16,58
990,847	-14,03
991,048	-14
991,25	-16,35
991,452	-16,77
991,653	-19,11
991,855	-19,05
992,057	-20,13
992,258	-20,03
992,46	-20,9
992,661	-20,65
992,863	-22,5
993,064	-20,77
993,265	-22,84
993,467	-23,2
993,668	-20,34
993,87	-20,2
994,071	-20,19
994,272	-19,84
994,473	-16,31
994,675	-15,2
994,876	-15,56
995,077	-14,96
995,278	-15,13
995,48	-13,74
995,681	-14,48
995,882	-13,84
996,083	-13,05
996,284	-19,3
996,485	-19,22
996,686	-20,6
996,887	-20,81
997,088	-23,71
997,289	-24,86
997,49	-25,29
997,691	-25,6
997,892	-23,75
998,092	-19,3
998,293	-18,88
998,494	-18,62
998,695	-19,07
998,896	-17,08
999,096	-17,75
999,297	-17,71
999,498	-19,83
999,698	-21,54
999,899	-24,29
1000,1	-27,43
1000,3	-27,6
1000,501	-27,39
1000,701	-29,25
1000,902	-30,42
1001,102	-30,15
1001,303	-28,75
1001,503	-30,67
1001,704	-31,35
1001,904	-33,17
1002,105	-32,66
1002,305	-33,19
1002,505	-31,88
1002,706	-32,31
1002,906	-31,99
1003,106	-32,28
1003,306	-31,05
1003,507	-28,45
1003,707	-28,26
1003,907	-25,89
1004,107	-25,46
1004,307	-27,36
1004,507	-26,13
1004,707	-27,49
1004,907	-28,82
1005,107	-29,72
1005,308	-29,97
1005,507	-31,18
1005,707	-28,37
1005,907	-28,28
1006,107	-26,17
1006,307	-23,57
1006,507	-23,6
1006,707	-23,09
1006,907	-21,54
1007,106	-21,82
1007,306	-22,71
1007,506	-23,48
1007,706	-23,52
1007,905	-24,42
1008,105	-22,98
1008,305	-24,21
1008,504	-23,6
1008,704	-17,47
1008,903	-16,3
1009,103	-13,9
1009,303	-15,96
1009,502	-16,05
1009,702	-17,68
1009,901	-17,8
1010,1	-21,32
1010,3	-18,54
1010,499	-20,36
1010,699	-22,17
1010,898	-22,71
1011,097	-21,73
1011,296	-21,69
1011,496	-21,8
1011,695	-22,41
1011,894	-23,28
1012,093	-19,39
1012,293	-20,3
1012,492	-21,33
1012,691	-21,57
1012,89	-21,12
1013,089	-24,99
1013,288	-23,81
1013,487	-21,25
1013,686	-20,2
1013,885	-21,06
1014,084	-19,73
1014,283	-19,71
1014,482	-20,2
1014,681	-20,22
1014,88	-24,91
1015,078	-22,66
1015,277	-26,57
1015,476	-27,36
1015,675	-28,17
1015,873	-28,2
1016,072	-28,78
1016,271	-24,88
1016,47	-29,6
1016,668	-27,37
1016,867	-28,05
1017,065	-29,83
1017,264	-30,63
1017,463	-30,26
1017,661	-28,91
1017,86	-28,08
1018,058	-28,13
1018,256	-31,14
1018,455	-31,96
1018,653	-31,78
1018,852	-31,38
1019,05	-33,98
1019,248	-33,68
1019,447	-34,29
1019,645	-35,67
1019,843	-37,75
1020,041	-36,57
1020,24	-37,31
1020,438	-33,52
1020,636	-33,94
1020,834	-37,42
1021,032	-35,52
1021,23	-37,85
1021,428	-35,75
1021,626	-30,25
1021,824	-28,25
1022,022	-26,98
1022,22	-25,29
1022,418	-26,08
1022,616	-25,67
1022,814	-26,59
1023,012	-27,06
1023,21	-25,46
1023,408	-26,05
1023,606	-26,58
1023,803	-22,52
1024,001	-23,06
1024,199	-26,31
1024,397	-25,16
1024,594	-24,19
1024,792	-25,81
1024,99	-24,92
1025,187	-23,69
1025,385	-21,23
1025,582	-20,16
1025,78	-20,09
1025,977	-18,16
1026,175	-18,33
1026,372	-18,52
1026,57	-21,9
1026,767	-19,19
1026,965	-18,21
1027,162	-17,5
1027,359	-18,16
1027,557	-17,87
1027,754	-22,17
1027,951	-23,8
1028,148	-24,5
1028,346	-25,79
1028,543	-28,82
1028,74	-28,7
1028,937	-30,41
1029,134	-30,59
1029,331	-31,35
1029,528	-30,64
1029,725	-32,07
1029,923	-36,84
1030,12	-32,78
1030,317	-30,76
1030,513	-29,49
1030,71	-28,86
1030,907	-26,51
1031,104	-27,8
1031,301	-29,63
1031,498	-28,58
1031,695	-31,14
1031,892	-31,02
1032,088	-30,87
1032,285	-31,54
1032,482	-31,18
1032,678	-32,94
1032,875	-35,91
1033,072	-34,02
1033,268	-33,8
1033,465	-32,87
1033,662	-34,05
1033,858	-33,68
1034,055	-34,06
1034,251	-30,56
1034,448	-31,05
1034,644	-29,43
1034,84	-27,85
1035,037	-24,92
1035,233	-24,38
1035,43	-22,61
1035,626	-23,26
1035,822	-22,11
1036,019	-21,82
1036,215	-25,44
1036,411	-26,45
1036,607	-27,43
1036,803	-30
1037	-30,51
1037,196	-31,42
1037,392	-30,87
1037,588	-34,93
1037,784	-33,66
1037,98	-34,72
1038,176	-36,6
1038,372	-37,3
1038,568	-35,63
1038,764	-33,91
1038,96	-31,3
1039,156	-32,76
1039,352	-34,09
1039,547	-33,95
1039,743	-32,57
1039,939	-30,76
1040,135	-30,29
1040,331	-33,71
1040,526	-32,02
1040,722	-33,63
1040,918	-33,87
1041,113	-36,55
1041,309	-37,64
1041,505	-39,06
1041,7	-38,16
1041,896	-39,38
1042,091	-40,62
1042,287	-41,01
1042,482	-39,22
1042,678	-40,08
1042,873	-39,19
1043,069	-40,2
1043,264	-39,38
1043,459	-38,69
1043,655	-36,16
1043,85	-36,28
1044,045	-35,71
1044,24	-35,1
1044,436	-32,75
1044,631	-35,21
1044,826	-35,79
1045,021	-38,16
1045,216	-37,54
