Data from led_4000k_2_FLMT021711__8__17-33-14-587.txt Node

Date: Tue Nov 05 17:33:14 CET 2024
User: Etudiants TP
Spectrometer: FLMT02171
Trigger mode: 0
Integration Time (sec): 1,000000E-1
Scans to average: 5
Electric dark correction enabled: true
Nonlinearity correction enabled: true
Boxcar width: 15
XAxis mode: Wavelengths
Number of Pixels in Spectrum: 3648
>>>>>Begin Spectral Data<<<<<
194,658	-65,91
194,923	-62,72
195,188	-55,67
195,453	-56,19
195,717	-50,34
195,982	-50,6
196,247	-49,86
196,512	-52,7
196,777	-50,65
197,042	-48,92
197,307	-48,64
197,572	-43,17
197,837	-42,57
198,101	-40,39
198,366	-37,62
198,631	-36,82
198,896	-29,95
199,161	-21,89
199,425	-13,43
199,69	-4,52
199,955	-5,43
200,22	-8,99
200,484	-9,67
200,749	-9,52
201,014	-8,31
201,278	-7,99
201,543	-6,91
201,807	-8,13
202,072	-6,96
202,337	-6,31
202,601	-5,56
202,866	-6,76
203,13	-5,15
203,395	-7,6
203,659	-6,33
203,924	-8,53
204,189	-6,84
204,453	-5,25
204,717	-1,74
204,982	-0,78
205,246	0,99
205,511	2,48
205,775	-0,04
206,04	4,71
206,304	5,94
206,568	7,26
206,833	8,91
207,097	10,77
207,361	10,84
207,626	14,98
207,89	15,06
208,154	15,63
208,419	18,91
208,683	18,58
208,947	20,14
209,211	19,78
209,476	19,48
209,74	19,54
210,004	19,26
210,268	20,21
210,532	21,96
210,796	21,97
211,061	22,6
211,325	23,23
211,589	22,52
211,853	23,31
212,117	24,38
212,381	25,12
212,645	25,54
212,909	23,98
213,173	21,3
213,437	21,58
213,701	22,97
213,965	25,23
214,229	20,74
214,493	20,44
214,757	19,65
215,021	19,39
215,285	22,41
215,549	25,14
215,813	21,49
216,077	19,99
216,34	21,79
216,604	19,7
216,868	20,64
217,132	23,33
217,396	23,98
217,659	24,45
217,923	20,07
218,187	19,9
218,451	18,65
218,714	16,43
218,978	17,03
219,242	20,12
219,505	19,46
219,769	21,11
220,033	21,4
220,296	23
220,56	23,49
220,824	20,96
221,087	22,59
221,351	22,5
221,614	21,83
221,878	23,16
222,142	20,08
222,405	19,9
222,669	21,53
222,932	16,31
223,196	13,25
223,459	9,75
223,722	11,53
223,986	10,88
224,249	11,07
224,513	10,88
224,776	10,54
225,04	11,11
225,303	9,2
225,566	7,68
225,83	9,9
226,093	12,97
226,356	11,81
226,62	10,56
226,883	12,66
227,146	11,67
227,409	9,95
227,673	8,22
227,936	6,81
228,199	6,57
228,462	4,35
228,725	3,14
228,989	3,5
229,252	4,67
229,515	9,72
229,778	8,49
230,041	6,65
230,304	6,25
230,567	7,5
230,83	5
231,093	8,73
231,356	9,28
231,619	16,11
231,882	13,32
232,145	15,36
232,408	13,47
232,671	13,07
232,934	11,81
233,197	9,72
233,46	7,86
233,723	9,19
233,986	6,89
234,249	5,89
234,512	7,89
234,775	10,45
235,037	9,88
235,3	10,71
235,563	9,99
235,826	10,36
236,089	12,58
236,351	12,25
236,614	14,35
236,877	15
237,14	17,9
237,402	17,61
237,665	12,5
237,928	12,28
238,19	10,95
238,453	13,24
238,716	13,07
238,978	13,73
239,241	12,84
239,503	15,99
239,766	11,02
240,029	9,41
240,291	11,65
240,554	13,57
240,816	11,85
241,079	14,15
241,341	14,08
241,604	12,75
241,866	9,72
242,129	10,56
242,391	12,73
242,653	11,86
242,916	12,51
243,178	11,84
243,441	13,35
243,703	13,39
243,965	12,6
244,228	13,15
244,49	12,43
244,752	12,59
245,015	12,9
245,277	14,1
245,539	12,29
245,801	12,63
246,064	12,29
246,326	11,32
246,588	10,92
246,85	12,51
247,112	12,23
247,374	15,14
247,637	16,94
247,899	14,56
248,161	15,65
248,423	11,57
248,685	11,37
248,947	12,17
249,209	11,57
249,471	12,92
249,733	13,78
249,995	12,61
250,257	12,66
250,519	10,04
250,781	12,67
251,043	10,34
251,305	12,16
251,567	14
251,829	15,48
252,091	15,42
252,353	11,33
252,615	11,89
252,876	8,22
253,138	7,2
253,4	3,22
253,662	4,73
253,924	7,39
254,185	8,41
254,447	8,41
254,709	7,82
254,971	7,95
255,232	10,01
255,494	7,75
255,756	5,38
256,017	7,87
256,279	8,26
256,541	7,13
256,802	6,28
257,064	7,2
257,326	6,04
257,587	6,98
257,849	8,23
258,11	12,06
258,372	12,53
258,633	15,16
258,895	14,55
259,156	13,83
259,418	11,59
259,679	6,53
259,941	4,4
260,202	6,52
260,464	9,05
260,725	8,97
260,987	8,88
261,248	7,77
261,509	9,08
261,771	8,26
262,032	9,45
262,293	9,49
262,555	8,96
262,816	7,97
263,077	6,52
263,338	4,41
263,6	5,03
263,861	4,48
264,122	3,42
264,383	5,58
264,645	6,15
264,906	6,54
265,167	6,86
265,428	7,47
265,689	7,55
265,95	6,32
266,211	8,41
266,473	7,22
266,734	3,79
266,995	-0,11
267,256	0,55
267,517	1,83
267,778	4,06
268,039	5,72
268,3	4,27
268,561	1,66
268,822	4,45
269,083	2,99
269,344	2,16
269,604	1,5
269,865	1,98
270,126	-2,16
270,387	-1,9
270,648	0,06
270,909	-0,36
271,17	-1,86
271,43	-4,34
271,691	-7,37
271,952	-7,18
272,213	-5,58
272,473	-8
272,734	-4,81
272,995	-3,28
273,256	-2,47
273,516	-1,11
273,777	-3,86
274,038	-1,98
274,298	-6,18
274,559	-5,81
274,82	-1,43
275,08	1,97
275,341	4,24
275,601	4,61
275,862	2,87
276,122	3,51
276,383	2,77
276,643	5,05
276,904	3,56
277,164	7,82
277,425	8,62
277,685	11,51
277,946	11,92
278,206	13,71
278,467	15,8
278,727	16,01
278,987	16,23
279,248	16,67
279,508	17,99
279,768	21,02
280,029	21,52
280,289	18,6
280,549	17,55
280,81	17,47
281,07	16,27
281,33	16,88
281,59	16,12
281,851	19,43
282,111	19,39
282,371	18,29
282,631	21,3
282,891	19,39
283,151	16,84
283,412	14,29
283,672	13,69
283,932	14,59
284,192	14,65
284,452	13,71
284,712	11,93
284,972	10,62
285,232	8,47
285,492	10,43
285,752	8,22
286,012	13,81
286,272	16,37
286,532	14,01
286,792	13,34
287,052	14,59
287,312	14,69
287,571	13,18
287,831	12,75
288,091	9,78
288,351	9,53
288,611	14,77
288,871	12,93
289,13	12,39
289,39	9,35
289,65	10,07
289,91	7,15
290,17	8,64
290,429	12,67
290,689	9,34
290,949	6,43
291,208	8,3
291,468	11,14
291,728	12,11
291,987	13,22
292,247	11,15
292,506	13,42
292,766	15,05
293,026	13,95
293,285	14,68
293,545	17,19
293,804	17,28
294,064	13,61
294,323	9,72
294,583	10,67
294,842	11,82
295,102	12,75
295,361	12,83
295,621	14,55
295,88	15,32
296,139	15,5
296,399	16,89
296,658	11,25
296,917	12,09
297,177	10,06
297,436	10,67
297,695	9,04
297,955	10,95
298,214	9,42
298,473	9,27
298,732	11,49
298,992	14,83
299,251	14,23
299,51	11,54
299,769	11,06
300,028	12,07
300,287	12,67
300,547	13,27
300,806	11,51
301,065	14,88
301,324	16,12
301,583	11,47
301,842	7,59
302,101	5,94
302,36	7,72
302,619	7,06
302,878	8,15
303,137	4,8
303,396	6,4
303,655	7,57
303,914	4,23
304,173	5,54
304,432	5,67
304,691	8,39
304,95	6,9
305,208	12,04
305,467	13,22
305,726	13
305,985	13,64
306,244	15,99
306,503	16,18
306,761	14,23
307,02	10,8
307,279	11,1
307,537	11,26
307,796	9,96
308,055	6,22
308,314	6,7
308,572	4,54
308,831	5,94
309,09	5,44
309,348	6,65
309,607	7,39
309,865	12,3
310,124	11,23
310,382	11,74
310,641	12,73
310,9	9,95
311,158	11,54
311,417	11,77
311,675	11,74
311,933	13,7
312,192	15,18
312,45	15,22
312,709	14,3
312,967	13,27
313,226	11,73
313,484	11,24
313,742	9,52
314,001	7,14
314,259	3,24
314,517	3,83
314,776	6,23
315,034	8,52
315,292	6,54
315,55	4,03
315,809	1,91
316,067	3,53
316,325	2,39
316,583	3,84
316,841	2,33
317,1	0,58
317,358	-2,79
317,616	-3,76
317,874	-5,73
318,132	-5,29
318,39	-5,79
318,648	-7,77
318,906	-8,47
319,164	-8,62
319,422	-11,18
319,68	-11,44
319,938	-12,09
320,196	-12,73
320,454	-11,61
320,712	-10,72
320,97	-9,49
321,228	-10,65
321,486	-8,88
321,744	-6,18
322,002	-2,78
322,26	-2,56
322,517	-2,71
322,775	-5,88
323,033	-6,67
323,291	-4,37
323,549	-1
323,806	2,26
324,064	2,13
324,322	4,5
324,58	2,46
324,837	4,82
325,095	2,87
325,353	4,03
325,61	5,89
325,868	6,24
326,126	7,51
326,383	7,62
326,641	7,37
326,898	9,91
327,156	9,88
327,413	12,18
327,671	12,11
327,928	14,43
328,186	14,4
328,443	12,99
328,701	16,24
328,958	16,52
329,216	15,49
329,473	13,57
329,731	13,57
329,988	12,69
330,245	14,55
330,503	15,56
330,76	15,46
331,017	17,8
331,275	16,75
331,532	15,78
331,789	13,77
332,047	13,51
332,304	9,89
332,561	9,51
332,818	7,88
333,076	9,82
333,333	12,59
333,59	12,33
333,847	14,31
334,104	12,74
334,361	11,32
334,618	10,92
334,876	7,81
335,133	6,41
335,39	4,15
335,647	5,06
335,904	2,16
336,161	-0,33
336,418	-0,13
336,675	-4,02
336,932	-2,49
337,189	-2,74
337,446	-2,65
337,703	-3,89
337,96	-6,15
338,216	-6,04
338,473	-9,2
338,73	-8,7
338,987	-9,54
339,244	-7,6
339,501	-9,74
339,757	-8,81
340,014	-6,51
340,271	-4,62
340,528	-2,99
340,785	1,87
341,041	3,28
341,298	0,46
341,555	1,61
341,811	-0,57
342,068	-2,12
342,325	-1,56
342,581	0,58
342,838	3,47
343,094	5,71
343,351	5,6
343,608	2,94
343,864	5,26
344,121	7,87
344,377	6,46
344,634	5,36
344,89	4,23
345,147	4,57
345,403	3,94
345,66	3,27
345,916	3,98
346,172	2,46
346,429	0,57
346,685	-1,27
346,942	-2,55
347,198	-5,83
347,454	-3,86
347,711	-3,56
347,967	-8,43
348,223	-7,71
348,48	-7,32
348,736	-5,4
348,992	-6,07
349,248	-4,89
349,504	-5,99
349,761	-5,21
350,017	-5,35
350,273	-4,62
350,529	-5,55
350,785	-6,24
351,041	-7,67
351,297	-5,73
351,554	-6,43
351,81	-9,74
352,066	-11,63
352,322	-11,18
352,578	-9,64
352,834	-10,88
353,09	-10,39
353,346	-10,77
353,602	-13,14
353,858	-14,31
354,114	-15,45
354,369	-12,66
354,625	-9,56
354,881	-9,86
355,137	-5,94
355,393	-5,67
355,649	-5,53
355,905	-3,71
356,16	-4,67
356,416	-4,14
356,672	-10,9
356,928	-9,93
357,183	-10,62
357,439	-11,21
357,695	-13,51
357,951	-8,37
358,206	-9,55
358,462	-10,63
358,718	-13,12
358,973	-11,36
359,229	-11,5
359,484	-11,33
359,74	-6,95
359,996	-5,95
360,251	-2,47
360,507	-4,09
360,762	-3,56
361,018	-1,51
361,273	-2,78
361,529	0,21
361,784	-0,18
362,04	2,32
362,295	1,15
362,55	1,76
362,806	4,68
363,061	3,27
363,316	3,88
363,572	4,54
363,827	6,42
364,082	3,73
364,338	2,8
364,593	3,73
364,848	3,2
365,104	1,79
365,359	4,69
365,614	6,35
365,869	3,56
366,124	3,2
366,38	3,75
366,635	6,83
366,89	6,51
367,145	6,38
367,4	10,3
367,655	8,75
367,91	8,38
368,165	6,35
368,42	4,55
368,675	5,02
368,93	6,02
369,185	4,13
369,44	4,31
369,695	7,45
369,95	6,03
370,205	6
370,46	3,58
370,715	2,79
370,97	4,05
371,225	2,67
371,48	3,31
371,734	2,55
371,989	4,19
372,244	4,89
372,499	6,01
372,754	5,7
373,008	4,8
373,263	0,76
373,518	2,9
373,773	2,5
374,027	2,87
374,282	3,72
374,537	3,57
374,791	4,85
375,046	3,26
375,301	1,38
375,555	-0,45
375,81	0,39
376,064	1,69
376,319	4,09
376,573	2,84
376,828	-1,96
377,082	2,71
377,337	0,66
377,591	-0,98
377,846	-0,24
378,1	1,9
378,355	2,68
378,609	1,07
378,863	-2,83
379,118	-0,91
379,372	-2,35
379,627	-2,58
379,881	-3,26
380,135	-3,54
380,389	-3,9
380,644	-3,71
380,898	-2,45
381,152	-1,07
381,407	-2,34
381,661	-1,08
381,915	-0,38
382,169	0,57
382,423	-0,82
382,677	-3,67
382,932	-2,27
383,186	-1,08
383,44	-0,04
383,694	2,04
383,948	-1
384,202	-1,06
384,456	0,65
384,71	1,91
384,964	0,25
385,218	2,5
385,472	2,06
385,726	1,74
385,98	0,67
386,234	0,91
386,488	-2,56
386,742	-0,78
386,996	-3,13
387,249	-1,95
387,503	-0,42
387,757	0,39
388,011	0,63
388,265	1,56
388,518	2,35
388,772	4,19
389,026	5,8
389,28	5,07
389,533	3,17
389,787	5,68
390,041	3,79
390,295	3,72
390,548	4,82
390,802	8,46
391,055	7,41
391,309	8,01
391,563	6,41
391,816	7,42
392,07	7,6
392,323	9,74
392,577	10,65
392,83	12,13
393,084	16,96
393,337	20,99
393,591	21,45
393,844	22,35
394,098	26,24
394,351	32,07
394,604	34,12
394,858	36,39
395,111	36,21
395,364	33,18
395,618	35,58
395,871	33,96
396,124	32,15
396,378	30,34
396,631	28,99
396,884	26,99
397,137	26,42
397,391	27,37
397,644	23,83
397,897	24,76
398,15	26,46
398,403	27,76
398,657	25,18
398,91	24,15
399,163	24,86
399,416	24,58
399,669	24,3
399,922	21,91
400,175	18,82
400,428	18,95
400,681	19,54
400,934	14,9
401,187	13,18
401,44	13,35
401,693	11,92
401,946	7,96
402,199	3,56
402,452	1,46
402,704	-1,89
402,957	-3,34
403,21	-0,85
403,463	-1,59
403,716	0,06
403,969	1,43
404,221	1,31
404,474	3,23
404,727	6
404,98	6,82
405,232	6,64
405,485	8,75
405,738	10,98
405,99	10,25
406,243	12,33
406,496	14,44
406,748	14,53
407,001	12,38
407,253	12,25
407,506	11,57
407,759	12,96
408,011	9,89
408,264	11,23
408,516	10,73
408,769	8,37
409,021	9,62
409,274	8,9
409,526	12,29
409,778	12,06
410,031	14,56
410,283	15,76
410,536	21,27
410,788	20,73
411,04	19,19
411,293	20,02
411,545	20,18
411,797	20,05
412,049	20,1
412,302	20,67
412,554	20,9
412,806	20,31
413,058	18,75
413,311	19,28
413,563	17,09
413,815	18,21
414,067	15,04
414,319	13,52
414,571	13,8
414,823	13,34
415,075	12,36
415,328	15,15
415,58	17,92
415,832	20,21
416,084	20,06
416,336	17,61
416,588	21,56
416,84	19,63
417,091	21,96
417,343	17,66
417,595	19,46
417,847	20
418,099	20,58
418,351	18,54
418,603	21,83
418,855	24
419,106	24,01
419,358	24,11
419,61	23,16
419,862	23,77
420,114	21,08
420,365	20,87
420,617	21,59
420,869	21,1
421,12	20,05
421,372	21,33
421,624	19,38
421,875	19,71
422,127	17,24
422,379	17,56
422,63	19,24
422,882	19,04
423,133	17,51
423,385	17,12
423,636	18,73
423,888	19,92
424,139	23,77
424,391	22,34
424,642	20,78
424,894	19,57
425,145	19,06
425,396	16,22
425,648	18,61
425,899	16,3
426,151	16,75
426,402	13,92
426,653	15,2
426,905	13,15
427,156	10,88
427,407	11,36
427,658	11,23
427,91	10,21
428,161	8,73
428,412	10,73
428,663	12,53
428,914	13,07
429,166	14,16
429,417	15,4
429,668	14,39
429,919	11,74
430,17	11,05
430,421	11,59
430,672	14,46
430,923	14,61
431,174	13,49
431,425	14,69
431,676	14,66
431,927	10,59
432,178	11,64
432,429	11,38
432,68	11,94
432,931	16,39
433,182	20,67
433,433	17,23
433,683	18,31
433,934	17,53
434,185	17,77
434,436	15,37
434,687	17,01
434,937	20,16
435,188	18,2
435,439	17,14
435,69	18,47
435,94	18,24
436,191	18,46
436,442	18,43
436,692	17,02
436,943	13,5
437,194	12,41
437,444	14,74
437,695	19,79
437,945	21,45
438,196	20,41
438,447	18,56
438,697	18,49
438,948	17,51
439,198	14,01
439,449	10,19
439,699	12,01
439,949	11,98
440,2	11,43
440,45	11,82
440,701	8,97
440,951	8
441,201	11,49
441,452	11,81
441,702	11
441,952	12,41
442,203	12,85
442,453	11,82
442,703	13,06
442,953	15,46
443,204	17,18
443,454	16,24
443,704	17,18
443,954	14,65
444,204	14,38
444,455	16,72
444,705	18,62
444,955	18,05
445,205	16,44
445,455	12,72
445,705	13,86
445,955	14,64
446,205	14,52
446,455	15,48
446,705	16,03
446,955	17,34
447,205	19,1
447,455	20,3
447,705	18,8
447,955	18,25
448,205	20,02
448,454	21,24
448,704	20,85
448,954	18,62
449,204	20,89
449,454	22,97
449,704	21,63
449,953	22,27
450,203	24,28
450,453	21,15
450,703	23,56
450,952	22,74
451,202	24,35
451,452	24,3
451,701	27,47
451,951	32,26
452,201	33,4
452,45	33,05
452,7	36,25
452,949	36,48
453,199	38,23
453,448	39,37
453,698	40,28
453,947	39,58
454,197	39,57
454,446	40,04
454,696	43,45
454,945	43,75
455,195	42,34
455,444	44,34
455,693	50,03
455,943	47,66
456,192	48,66
456,442	50,08
456,691	49,08
456,94	46,6
457,189	45,78
457,439	48,45
457,688	49,87
457,937	49,19
458,186	49,27
458,436	48,61
458,685	49,58
458,934	48,75
459,183	47,67
459,432	49,62
459,681	48,65
459,93	45,75
460,179	45,71
460,429	43,25
460,678	46,4
460,927	49,55
461,176	48,74
461,425	48,24
461,674	51,31
461,923	50,53
462,172	49,43
462,42	48,31
462,669	50,85
462,918	50,96
463,167	49,89
463,416	46,56
463,665	47,67
463,914	47,47
464,162	46,07
464,411	47,42
464,66	49,5
464,909	47,44
465,158	45,57
465,406	43,8
465,655	45,4
465,904	48,51
466,152	48,03
466,401	48,87
466,65	50,1
466,898	49,78
467,147	44,86
467,395	43,42
467,644	46,31
467,893	47,26
468,141	47,92
468,39	44,1
468,638	40,25
468,887	37,38
469,135	35,89
469,384	35,29
469,632	35,76
469,88	35,57
470,129	36,12
470,377	32,27
470,626	34,69
470,874	35,97
471,122	37,24
471,371	35,1
471,619	33,28
471,867	35,91
472,115	35,71
472,364	33,43
472,612	36,12
472,86	35,52
473,108	36,24
473,356	36,85
473,605	36,23
473,853	33,68
474,101	32,4
474,349	31,92
474,597	34,76
474,845	34,12
475,093	33,37
475,341	30,29
475,589	29,65
475,837	29,04
476,085	31,29
476,333	30,24
476,581	31,63
476,829	32,98
477,077	35,12
477,325	34,63
477,573	36,56
477,821	35,25
478,069	37,35
478,317	37,95
478,564	40,62
478,812	37,87
479,06	37,13
479,308	35,74
479,555	35,46
479,803	35,06
480,051	36,8
480,299	38,12
480,546	40,41
480,794	38,18
481,042	38,24
481,289	37,86
481,537	40,05
481,784	40,27
482,032	42,62
482,28	40,89
482,527	40,82
482,775	41,96
483,022	43,68
483,27	45,95
483,517	51,4
483,765	50,69
484,012	52,31
484,259	51,4
484,507	54,33
484,754	54,35
485,002	53,79
485,249	53,18
485,496	56,03
485,744	55,27
485,991	53,85
486,238	51,67
486,486	56,36
486,733	57,78
486,98	62,09
487,227	61,38
487,474	64,73
487,722	66,9
487,969	65,04
488,216	63,59
488,463	65,47
488,71	62,7
488,957	59,92
489,204	59,13
489,451	58,51
489,699	57,31
489,946	55,05
490,193	54,99
490,44	55,31
490,687	56,68
490,934	53,61
491,18	49,47
491,427	51,73
491,674	54,75
491,921	55,11
492,168	53,77
492,415	52,07
492,662	54,83
492,909	56,97
493,155	56,13
493,402	53,94
493,649	53,85
493,896	55,53
494,142	52,67
494,389	53,34
494,636	52,87
494,883	50,46
495,129	47,41
495,376	46,19
495,623	47,99
495,869	52,35
496,116	54,66
496,362	58,09
496,609	63,35
496,855	70,03
497,102	72,19
497,348	73,26
497,595	78,12
497,841	84,11
498,088	82,01
498,334	82,25
498,581	82,57
498,827	82,73
499,074	84,67
499,32	86,4
499,566	91,26
499,813	93,22
500,059	93,27
500,305	94,02
500,552	94,51
500,798	94,71
501,044	101,99
501,29	101,77
501,537	99,91
501,783	102,66
502,029	108,05
502,275	106,74
502,521	107,36
502,767	109,63
503,013	113,09
503,26	111,53
503,506	109,92
503,752	111,67
503,998	110,02
504,244	112,66
504,49	110,3
504,736	113,7
504,982	114,14
505,228	116,16
505,474	116,37
505,72	120,96
505,966	121,42
506,211	127,04
506,457	129,63
506,703	127,54
506,949	126,97
507,195	127,56
507,441	125,52
507,686	129,61
507,932	131,83
508,178	134,7
508,424	134,14
508,669	132,98
508,915	135,55
509,161	139,28
509,406	142,41
509,652	141,24
509,898	145,69
510,143	148,79
510,389	149,53
510,634	148,67
510,88	153,8
511,125	156,45
511,371	158,73
511,616	162,75
511,862	160,17
512,107	160,04
512,353	161,88
512,598	162,52
512,844	161,64
513,089	162,41
513,335	165,15
513,58	166,71
513,825	168,08
514,071	168,32
514,316	170,92
514,561	174,44
514,806	174,62
515,052	179,25
515,297	179,28
515,542	182,83
515,787	184,65
516,033	189,69
516,278	192
516,523	194,07
516,768	195,71
517,013	194,44
517,258	196,29
517,503	198
517,748	200,3
517,993	203,21
518,238	204,98
518,483	205,1
518,728	206,19
518,973	205,74
519,218	207,39
519,463	211,8
519,708	213,03
519,953	213,91
520,198	217,04
520,443	221,22
520,688	225,16
520,933	224,24
521,177	226,36
521,422	225,26
521,667	231,03
521,912	232,19
522,157	229,41
522,401	233,44
522,646	235,34
522,891	238,16
523,135	239,19
523,38	241,37
523,625	240,31
523,869	243,89
524,114	246,29
524,358	244,69
524,603	246,3
524,848	244,82
525,092	245,8
525,337	248,06
525,581	251,38
525,826	256,2
526,07	257,73
526,315	260,83
526,559	260,67
526,803	259,28
527,048	262,54
527,292	264,77
527,537	265,09
527,781	266,95
528,025	264,28
528,269	266,29
528,514	267,2
528,758	268,14
529,002	270,81
529,247	274,53
529,491	274,81
529,735	280,92
529,979	281,45
530,223	283,81
530,467	283,27
530,712	281,61
530,956	281,52
531,2	284,85
531,444	283,51
531,688	286,58
531,932	289,8
532,176	291,94
532,42	296,33
532,664	296,62
532,908	295,71
533,152	293,78
533,396	293,22
533,64	293,97
533,884	292,03
534,128	293,95
534,371	297,43
534,615	299,52
534,859	299,6
535,103	300,18
535,347	299,88
535,59	304,2
535,834	300,9
536,078	304,83
536,322	306,62
536,565	308,64
536,809	306,89
537,053	308,97
537,296	307,04
537,54	307,44
537,784	306,81
538,027	308,19
538,271	308,93
538,514	307,9
538,758	308,29
539,001	307,57
539,245	305,87
539,488	306,56
539,732	309,29
539,975	308,89
540,219	312,64
540,462	314,85
540,706	316,9
540,949	316,45
541,192	317,46
541,436	322,62
541,679	327,49
541,922	328,31
542,166	324,33
542,409	325,71
542,652	327,05
542,895	331,03
543,139	330,81
543,382	335,43
543,625	334,74
543,868	335,02
544,111	334,99
544,354	334,99
544,598	334,85
544,841	338,03
545,084	337,36
545,327	335,76
545,57	337,09
545,813	339,28
546,056	340,62
546,299	341,12
546,542	343,8
546,785	348,06
547,028	351,37
547,271	351,26
547,514	352,16
547,756	350,36
547,999	350,67
548,242	353,11
548,485	350,45
548,728	352,01
548,971	348,18
549,213	349,3
549,456	349,5
549,699	350,16
549,942	350,6
550,184	350,58
550,427	348,45
550,67	349,42
550,912	345,08
551,155	346,71
551,398	347,17
551,64	347,48
551,883	347,5
552,125	347,24
552,368	347,15
552,61	345,81
552,853	349,4
553,095	347,9
553,338	347,67
553,58	349,92
553,823	349,5
554,065	350,5
554,308	346,58
554,55	343,91
554,792	341,96
555,035	341,78
555,277	341,96
555,519	343,37
555,762	339,86
556,004	343,4
556,246	340,07
556,488	342,37
556,731	338,51
556,973	339,38
557,215	339,04
557,457	341,58
557,699	343,09
557,941	341,61
558,183	342,58
558,426	346,4
558,668	343,07
558,91	344,92
559,152	344,99
559,394	345,03
559,636	347,92
559,878	347,7
560,12	347,37
560,362	349,4
560,604	350,67
560,845	351,1
561,087	349
561,329	350,3
561,571	348,78
561,813	348,75
562,055	347,04
562,297	348,35
562,538	348,33
562,78	350,53
563,022	348,06
563,264	350,96
563,505	349,54
563,747	351,63
563,989	349,62
564,23	350,78
564,472	350,98
564,714	354,75
564,955	354,66
565,197	352,96
565,438	355,77
565,68	357,46
565,921	357,77
566,163	360,91
566,404	359,94
566,646	363,47
566,887	366,99
567,129	369,47
567,37	369,59
567,612	373,14
567,853	370,53
568,094	375,05
568,336	375,8
568,577	378,56
568,818	381,38
569,06	381,55
569,301	381,1
569,542	384,12
569,783	386,26
570,025	388,76
570,266	390,58
570,507	394,13
570,748	395,3
570,989	398,02
571,23	402,12
571,472	403,72
571,713	403,61
571,954	404,05
572,195	402,05
572,436	405,24
572,677	409,54
572,918	412,19
573,159	410,62
573,4	409,28
573,641	408,54
573,882	409,29
574,123	407,25
574,364	401,33
574,604	400,06
574,845	399,72
575,086	399,17
575,327	399,8
575,568	397,69
575,809	396,53
576,049	394,26
576,29	390,42
576,531	394,59
576,771	399,98
577,012	402,08
577,253	402,01
577,494	400,58
577,734	399,12
577,975	398,82
578,215	398,97
578,456	396,85
578,697	394,44
578,937	396,45
579,178	395,36
579,418	394,86
579,659	395,27
579,899	391,03
580,14	389,28
580,38	386,73
580,62	387,65
580,861	391,32
581,101	392,04
581,342	392,5
581,582	388,98
581,822	392,99
582,063	392,74
582,303	394,11
582,543	395,11
582,783	396,45
583,024	397,47
583,264	401,58
583,504	401,43
583,744	404,79
583,984	403,35
584,224	401,75
584,465	400,3
584,705	400,18
584,945	400,18
585,185	400,48
585,425	401,41
585,665	399,93
585,905	400,19
586,145	400,07
586,385	398,61
586,625	401,98
586,865	400,65
587,105	400,52
587,345	401
587,585	400,71
587,824	401,12
588,064	400,49
588,304	397,07
588,544	396,45
588,784	393,62
589,024	394,89
589,263	394,34
589,503	392,61
589,743	393,01
589,982	391,31
590,222	392,43
590,462	389,83
590,701	388,19
590,941	390,11
591,181	388,31
591,42	387,65
591,66	391,11
591,899	393,92
592,139	394,05
592,378	395,36
592,618	394,66
592,857	393,74
593,097	393,91
593,336	393,91
593,576	394,04
593,815	393,93
594,055	393,75
594,294	395,76
594,533	395,68
594,773	395,92
595,012	397,9
595,251	398,56
595,491	401,97
595,73	405,85
595,969	407,2
596,208	409,5
596,447	415,71
596,687	417,41
596,926	420,18
597,165	418,71
597,404	421,69
597,643	418,77
597,882	419,2
598,121	419,83
598,36	420,85
598,599	422,86
598,838	422,85
599,077	419,01
599,316	419,27
599,555	419,05
599,794	419,58
600,033	420,68
600,272	421,11
600,511	420,18
600,75	423,12
600,989	424,91
601,228	425,83
601,466	424,49
601,705	425,08
601,944	425,73
602,183	427,47
602,422	425,99
602,66	423,72
602,899	422,39
603,138	420,42
603,376	420,78
603,615	420,7
603,854	419,05
604,092	416,99
604,331	416,99
604,569	417,45
604,808	417,8
605,047	419,21
605,285	416,61
605,524	414,55
605,762	411,39
606	412,41
606,239	412,53
606,477	410,96
606,716	405,13
606,954	404,32
607,193	400,86
607,431	396,27
607,669	394,01
607,908	392,85
608,146	393,19
608,384	390,58
608,622	387,99
608,861	386,77
609,099	383,73
609,337	380,53
609,575	378,78
609,813	379,72
610,052	379,62
610,29	374,12
610,528	370,92
610,766	367,71
611,004	365,35
611,242	359,78
611,48	357,72
611,718	352,68
611,956	351,82
612,194	346,87
612,432	345,3
612,67	343,48
612,908	344,4
613,146	341,72
613,384	337,97
613,621	335,11
613,859	334,5
614,097	332,93
614,335	331,6
614,573	332,19
614,811	335,34
615,048	334,93
615,286	333,85
615,524	329,1
615,761	324,97
615,999	325,5
616,237	324,94
616,474	325,74
616,712	326,41
616,95	322,5
617,187	317,85
617,425	316,83
617,662	317,11
617,9	314,98
618,137	312,1
618,375	310,33
618,612	309,01
618,85	310,05
619,087	312,87
619,325	311,87
619,562	309,23
619,799	306,6
620,037	305,75
620,274	302,51
620,511	303,04
620,749	298,69
620,986	296,08
621,223	292,67
621,461	291,92
621,698	291,65
621,935	289,18
622,172	284,3
622,409	284,35
622,647	283,74
622,884	281,55
623,121	283,85
623,358	280,35
623,595	277,54
623,832	277,51
624,069	274,8
624,306	276,84
624,543	278,45
624,78	278,84
625,017	276,81
625,254	278,27
625,491	279,85
625,728	280,8
625,965	279,72
626,202	276,68
626,438	272,72
626,675	270,51
626,912	271,7
627,149	272,22
627,386	271,65
627,622	268,89
627,859	268,91
628,096	269,01
628,333	268,83
628,569	269,51
628,806	269,83
629,043	267,6
629,279	267,43
629,516	268,5
629,752	263,19
629,989	261,84
630,225	259,38
630,462	258,12
630,699	257,67
630,935	256,49
631,171	252,48
631,408	251,69
631,644	247,59
631,881	243,77
632,117	240,26
632,354	240
632,59	237,6
632,826	236,3
633,063	235,34
633,299	235,49
633,535	233,27
633,771	232,59
634,008	232,7
634,244	232,7
634,48	229,08
634,716	230,89
634,953	229,34
635,189	227,83
635,425	228,23
635,661	230,24
635,897	227,05
636,133	225,22
636,369	223,2
636,605	218,41
636,841	217,86
637,077	219,56
637,313	219,33
637,549	218,7
637,785	215,34
638,021	213,59
638,257	212,26
638,493	213,1
638,729	208,89
638,965	210,65
639,2	211,36
639,436	209,89
639,672	209,63
639,908	206,67
640,144	208,77
640,379	208,89
640,615	205,91
640,851	207,06
641,086	207,08
641,322	204,67
641,558	203,84
641,793	203,23
642,029	199,39
642,264	198,31
642,5	197,01
642,736	192,2
642,971	190,87
643,207	188,88
643,442	186,68
643,678	185,7
643,913	186,51
644,148	184,32
644,384	185,88
644,619	183,5
644,855	184,47
645,09	184,94
645,325	185,14
645,561	185,24
645,796	180,77
646,031	183,92
646,266	180,9
646,502	178,2
646,737	179,35
646,972	177,06
647,207	177,32
647,442	173,58
647,678	170,07
647,913	171,46
648,148	171,52
648,383	169,39
648,618	167,81
648,853	166,52
649,088	168,11
649,323	170,25
649,558	169,54
649,793	168,87
650,028	168,88
650,263	163,82
650,498	165,7
650,733	165,19
650,968	163,41
651,202	164,59
651,437	160,64
651,672	155,95
651,907	156,07
652,142	155,5
652,376	155,52
652,611	155,72
652,846	156,32
653,081	157,25
653,315	154,97
653,55	153,92
653,785	153,64
654,019	153,85
654,254	151,78
654,488	150,54
654,723	146,12
654,958	142,49
655,192	139,93
655,427	134,22
655,661	134,85
655,896	136,83
656,13	136,51
656,364	133,44
656,599	128,78
656,833	132,69
657,068	134,7
657,302	134,51
657,536	132,55
657,771	132,1
658,005	132,39
658,239	133,98
658,474	130,3
658,708	130,96
658,942	130,76
659,176	127,6
659,41	123,67
659,645	122,34
659,879	120,74
660,113	116,89
660,347	114,61
660,581	112,1
660,815	111,6
661,049	109,85
661,283	105,96
661,517	104,16
661,751	102,61
661,985	101,93
662,219	104,08
662,453	102,77
662,687	104,44
662,921	101,31
663,155	99,67
663,389	93,01
663,622	90,78
663,856	92,98
664,09	87,82
664,324	86,17
664,558	86,02
664,791	85,5
665,025	83,54
665,259	82,26
665,492	79,83
665,726	82,94
665,96	82,72
666,193	80,83
666,427	82,06
666,661	81,09
666,894	78,47
667,128	76,4
667,361	76,61
667,595	75,86
667,828	76,24
668,062	75,51
668,295	73,87
668,529	74,61
668,762	74,31
668,995	73,14
669,229	75,59
669,462	74,25
669,695	75,51
669,929	73,69
670,162	72,24
670,395	69,37
670,629	72,53
670,862	74,63
671,095	70,81
671,328	70,4
671,561	65,75
671,795	66,69
672,028	67,16
672,261	67,67
672,494	67,81
672,727	66,03
672,96	65,45
673,193	63,42
673,426	66,58
673,659	65,78
673,892	66,95
674,125	65,67
674,358	66,11
674,591	64,4
674,824	63,84
675,057	62,95
675,29	60,82
675,523	62,52
675,755	60,93
675,988	61,97
676,221	64,6
676,454	63,99
676,687	65,08
676,919	62,89
677,152	62,6
677,385	61,77
677,617	62,45
677,85	61,82
678,083	58,9
678,315	61,6
678,548	60,94
678,78	60,33
679,013	57,85
679,246	59,1
679,478	59,09
679,711	57,76
679,943	60,29
680,175	56,07
680,408	60,09
680,64	54,69
680,873	55,26
681,105	54,34
681,338	58,26
681,57	56,3
681,802	57,85
682,034	56,43
682,267	57,84
682,499	58,65
682,731	55,6
682,964	53,51
683,196	50,97
683,428	48,33
683,66	45,4
683,892	47,65
684,124	48,91
684,356	52,88
684,589	53,32
684,821	51,59
685,053	50,73
685,285	51,63
685,517	51,66
685,749	51,39
685,981	51,82
686,213	53,33
686,445	52,91
686,676	50,46
686,908	51,34
687,14	48,59
687,372	50,89
687,604	46,29
687,836	47,75
688,068	47,85
688,299	47,52
688,531	45,21
688,763	49,14
688,995	46,8
689,226	50,76
689,458	49,15
689,69	47,5
689,921	46,07
690,153	47,62
690,384	49,51
690,616	48,75
690,848	50,73
691,079	46,47
691,311	43,94
691,542	39,61
691,774	37,44
692,005	40,61
692,237	44,29
692,468	42,15
692,699	40,3
692,931	40,91
693,162	38,84
693,393	37,1
693,625	34,64
693,856	36,26
694,087	34,81
694,319	35,1
694,55	34,28
694,781	35,09
695,012	33,88
695,243	30,72
695,475	29,76
695,706	27,56
695,937	25,56
696,168	24,45
696,399	21,3
696,63	20,31
696,861	20,78
697,092	25,9
697,323	27,38
697,554	29,15
697,785	29,52
698,016	29,04
698,247	28,97
698,478	30,2
698,709	30,78
698,94	32,89
699,171	31,68
699,401	26,38
699,632	27,41
699,863	25,07
700,094	24,16
700,325	26,38
700,555	27,83
700,786	28,98
701,017	28,21
701,247	27,14
701,478	28,1
701,709	26,69
701,939	23,52
702,17	25,25
702,401	28,18
702,631	29,67
702,862	29,43
703,092	27,33
703,323	31,07
703,553	32,22
703,784	33,86
704,014	33,61
704,244	29,46
704,475	28,14
704,705	27,56
704,936	27,61
705,166	26,36
705,396	27,6
705,627	27,65
705,857	28,03
706,087	29,3
706,317	26,85
706,548	25,11
706,778	25,51
707,008	26,14
707,238	26,15
707,468	25,38
707,698	22,78
707,928	23,23
708,158	21,86
708,389	22,09
708,619	20,53
708,849	20,81
709,079	22,89
709,309	21,68
709,539	18,36
709,768	18,46
709,998	19,84
710,228	18,87
710,458	16,5
710,688	14,62
710,918	14,61
711,148	14,12
711,378	13,42
711,607	12,6
711,837	12,32
712,067	12,7
712,297	12,18
712,526	11,5
712,756	13,4
712,986	10,44
713,215	8,39
713,445	9,88
713,674	11,41
713,904	10,67
714,134	12,8
714,363	11,96
714,593	10,66
714,822	10,81
715,052	9,47
715,281	10,52
715,511	8,78
715,74	8,75
715,969	9,06
716,199	9,27
716,428	9,34
716,657	9,59
716,887	10,81
717,116	9,8
717,345	11,88
717,575	11,83
717,804	13,11
718,033	9,74
718,262	8,31
718,492	9,48
718,721	10,12
718,95	7,36
719,179	5,94
719,408	6,72
719,637	3,73
719,866	1,38
720,095	4,41
720,324	3,09
720,553	-1,22
720,782	-1,32
721,011	-1,12
721,24	-2,9
721,469	-4,09
721,698	-3,38
721,927	-2,79
722,156	-4,22
722,385	-4,75
722,613	-0,26
722,842	-0,98
723,071	0,28
723,3	-0,14
723,529	-2
723,757	-1,36
723,986	-4,49
724,215	-5,83
724,443	-4,01
724,672	-2,37
724,901	-2,5
725,129	0,78
725,358	4,26
725,586	1,74
725,815	-0,52
726,043	-0,15
726,272	-1,68
726,5	-1,54
726,729	-1,12
726,957	-4,62
727,186	-6,4
727,414	-5,72
727,642	-3,86
727,871	-1,58
728,099	-2,56
728,327	-2,92
728,556	-0,91
728,784	0,36
729,012	-2,44
729,241	-0,65
729,469	-0,85
729,697	-4,26
729,925	-3,71
730,153	-5,81
730,381	-4,2
730,61	-3,12
730,838	-5,42
731,066	-3,79
731,294	-3,08
731,522	-7,19
731,75	-10,25
731,978	-11,27
732,206	-11,85
732,434	-12,45
732,662	-9,84
732,89	-10,29
733,118	-10,59
733,346	-9,52
733,573	-10,04
733,801	-9,38
734,029	-3,2
734,257	-2,99
734,485	1,09
734,712	2,47
734,94	-0,79
735,168	1,93
735,396	2,34
735,623	0,7
735,851	1,31
736,078	3,39
736,306	3,68
736,534	2,9
736,761	3,47
736,989	2,21
737,216	1,65
737,444	-1,07
737,671	0,39
737,899	5,12
738,126	3,59
738,354	4,54
738,581	5,97
738,809	6,93
739,036	5,3
739,263	4,06
739,491	1,24
739,718	0,46
739,945	6,05
740,173	7,76
740,4	6,67
740,627	6,13
740,854	6,23
741,081	3,1
741,309	0,69
741,536	-4,46
741,763	-5,29
741,99	-2,72
742,217	-2,23
742,444	-2,1
742,671	-0,24
742,898	-1,74
743,125	-3,81
743,352	-5,04
743,579	-5,03
743,806	-4,97
744,033	-2,76
744,26	-0,87
744,487	-1,14
744,714	-2,12
744,941	-2,39
745,167	1,08
745,394	-0,25
745,621	-0,8
745,848	-0,32
746,075	2,84
746,301	6,44
746,528	9,99
746,755	7,63
746,981	5,63
747,208	7,11
747,435	9,13
747,661	9,12
747,888	9,31
748,114	8,67
748,341	12,17
748,567	14,82
748,794	13,96
749,02	12,66
749,247	8,91
749,473	8,05
749,7	7,78
749,926	8,22
750,152	11,67
750,379	11,42
750,605	11,76
750,831	10,64
751,058	8,91
751,284	6,35
751,51	8,79
751,737	11,03
751,963	9,22
752,189	6,04
752,415	5,64
752,641	4,53
752,867	4,15
753,094	0,6
753,32	-1,56
753,546	-3,27
753,772	-0,45
753,998	-2,18
754,224	-3,44
754,45	-2,77
754,676	-3,29
754,902	-3,15
755,128	-3,35
755,354	-3,97
755,579	-3,5
755,805	-1,36
756,031	-3,93
756,257	-4,78
756,483	-6,16
756,709	-9,48
756,934	-10,51
757,16	-13,05
757,386	-13,03
757,612	-16,15
757,837	-16,64
758,063	-14,58
758,289	-11,41
758,514	-13,06
758,74	-16,17
758,965	-18,81
759,191	-15,42
759,416	-14,2
759,642	-11,32
759,868	-11,05
760,093	-6,55
760,318	-7,23
760,544	-6,83
760,769	-7,73
760,995	-7,73
761,22	-8,09
761,445	-7,63
761,671	-4,82
761,896	-2,49
762,121	-1,67
762,347	-3,09
762,572	-5,79
762,797	-6,37
763,022	-5,05
763,248	0,06
763,473	1,46
763,698	3,07
763,923	5,08
764,148	6,47
764,373	6,11
764,598	8,46
764,823	10,52
765,048	7,48
765,273	3,78
765,498	3,64
765,723	2,82
765,948	4,89
766,173	3,36
766,398	3,15
766,623	-0,19
766,848	-1
767,073	-5,18
767,298	-5,25
767,522	-4,85
767,747	-4,26
767,972	-4,71
768,197	-4,15
768,421	-6,54
768,646	-8,98
768,871	-11,96
769,095	-12,53
769,32	-10,66
769,545	-9,97
769,769	-10,51
769,994	-9,44
770,218	-12,76
770,443	-11,37
770,667	-10,59
770,892	-10,55
771,116	-12,4
771,341	-9,99
771,565	-9,27
771,79	-10,31
772,014	-11,04
772,238	-11,42
772,463	-8,53
772,687	-6,98
772,911	-7,78
773,136	-10,26
773,36	-8,44
773,584	-5,8
773,808	-7,85
774,033	-6,02
774,257	-5,57
774,481	-6,9
774,705	-7,84
774,929	-7,84
775,153	-8,3
775,377	-6,15
775,602	-7,19
775,826	-6,38
776,05	-4,32
776,274	-5,95
776,498	-6,17
776,722	-5,89
776,945	-4,78
777,169	-4,91
777,393	-6,57
777,617	-7,33
777,841	-6,66
778,065	-5,12
778,289	-7,36
778,512	-8,07
778,736	-6,86
778,96	-6,82
779,184	-4,84
779,407	-7,04
779,631	-7,33
779,855	-10,14
780,078	-9,02
780,302	-11,48
780,526	-14,32
780,749	-12,61
780,973	-10,88
781,196	-10,33
781,42	-12,08
781,643	-10,88
781,867	-10,06
782,09	-12,23
782,314	-13,34
782,537	-12,59
782,76	-12,85
782,984	-12,01
783,207	-11,91
783,431	-10,41
783,654	-12,88
783,877	-15,7
784,1	-16,79
784,324	-16,74
784,547	-17,45
784,77	-21,86
784,993	-22,41
785,216	-23,08
785,44	-23,99
785,663	-25,76
785,886	-21,68
786,109	-21,67
786,332	-21,26
786,555	-20,41
786,778	-17,08
787,001	-15,77
787,224	-14,45
787,447	-14,08
787,67	-13,07
787,893	-13,59
788,116	-13,97
788,339	-12,6
788,561	-15,33
788,784	-18,46
789,007	-20,26
789,23	-21,59
789,453	-22,75
789,675	-24,07
789,898	-26,58
790,121	-28,56
790,344	-30,17
790,566	-27,46
790,789	-26,2
791,012	-25,55
791,234	-23,52
791,457	-20,22
791,679	-18,52
791,902	-18,71
792,124	-17,43
792,347	-18,85
792,569	-18,27
792,792	-22
793,014	-18,6
793,237	-17,62
793,459	-17,31
793,681	-16,44
793,904	-17,03
794,126	-19,1
794,348	-17,55
794,571	-17,22
794,793	-19,04
795,015	-18,39
795,237	-18,73
795,46	-16,66
795,682	-15,25
795,904	-11,56
796,126	-12,21
796,348	-12,28
796,57	-9,54
796,792	-9,26
797,014	-5,22
797,237	-2,32
797,459	-1,76
797,681	-0,76
797,903	-2,28
798,124	-2,3
798,346	9,84
798,568	10,48
798,79	14,27
799,012	15,38
799,234	17,78
799,456	19,02
799,678	21,42
799,899	18,57
800,121	15,15
800,343	14,45
800,565	14,38
800,786	14,21
801,008	16,77
801,23	16,33
801,451	16,82
801,673	14,94
801,895	14,21
802,116	15,42
802,338	17,27
802,559	17,54
802,781	14,71
803,002	16,06
803,224	18,25
803,445	15,37
803,667	17,21
803,888	15,17
804,109	14,02
804,331	13,69
804,552	13,01
804,773	15,75
804,995	12,24
805,216	-2,91
805,437	-4
805,658	-7,12
805,88	-7,72
806,101	-6,42
806,322	-7,7
806,543	-8,89
806,764	-12,44
806,985	-10,52
807,207	-10,47
807,428	-10,18
807,649	-13,78
807,87	-14,99
808,091	-14,77
808,312	-14,84
808,533	-8,48
808,754	-6,97
808,975	-8,62
809,195	-7,43
809,416	-6,96
809,637	-6,21
809,858	-6,85
810,079	-8,88
810,3	-6,23
810,52	-7,52
810,741	-8,59
810,962	-10,25
811,183	-11,16
811,403	-9,92
811,624	-10,46
811,845	-7,73
812,065	-6,24
812,286	-6,26
812,506	-6,64
812,727	-7,67
812,948	-7,79
813,168	-5,26
813,389	-6,33
813,609	-4,32
813,83	-4,19
814,05	-4,69
814,27	-4,71
814,491	0,35
814,711	-0,33
814,931	-2,53
815,152	-1,56
815,372	-4,4
815,592	-4,87
815,813	-6,58
816,033	-7,45
816,253	-6,84
816,473	-7,5
816,694	-6,41
816,914	-5,14
817,134	-5,48
817,354	-8,15
817,574	-6,81
817,794	-6,04
818,014	-7,06
818,234	-7,36
818,454	-9,44
818,674	-11,89
818,894	-14,02
819,114	-11,18
819,334	-10,17
819,554	-7,28
819,774	-5,08
819,994	-8,18
820,214	-8,82
820,433	-7,88
820,653	-8,54
820,873	-6,88
821,093	-6,53
821,312	-9,61
821,532	-7,92
821,752	-5,78
821,972	-8,78
822,191	-7,5
822,411	-9,19
822,63	-6,42
822,85	-6,6
823,07	-8,66
823,289	-6,62
823,509	-8,73
823,728	-7,2
823,948	-9,07
824,167	-8,88
824,387	-10,68
824,606	-10,24
824,825	-11,92
825,045	-12,49
825,264	-11,99
825,483	-9,57
825,703	-7,8
825,922	-10,38
826,141	-12,22
826,361	-13,38
826,58	-16,88
826,799	-18,08
827,018	-16,15
827,237	-16,76
827,456	-15,69
827,676	-15,8
827,895	-17,01
828,114	-15,4
828,333	-15,62
828,552	-15,53
828,771	-14,88
828,99	-17,99
829,209	-17,62
829,428	-15,98
829,647	-16,65
829,866	-15,11
830,084	-16,39
830,303	-15,19
830,522	-15,98
830,741	-15,35
830,96	-13,99
831,179	-13,35
831,397	-13,33
831,616	-11,3
831,835	-12,4
832,053	-11,5
832,272	-11,63
832,491	-10,04
832,709	-11,91
832,928	-10,54
833,147	-10,9
833,365	-10,53
833,584	-8
833,802	-6,19
834,021	-5,06
834,239	-4,41
834,458	-6,6
834,676	-8,95
834,894	-9,49
835,113	-9,97
835,331	-10,08
835,55	-9,77
835,768	-8,05
835,986	-7,16
836,204	-10,22
836,423	-9,12
836,641	-11,11
836,859	-12,5
837,077	-12,84
837,296	-11,96
837,514	-13,59
837,732	-15,34
837,95	-16,13
838,168	-15,61
838,386	-16,73
838,604	-13,94
838,822	-12,25
839,04	-13,17
839,258	-14,43
839,476	-11,36
839,694	-11,84
839,912	-13,35
840,13	-13,75
840,348	-9,84
840,566	-13,58
840,783	-11,22
841,001	-12,14
841,219	-10,09
841,437	-9,36
841,655	-9,27
841,872	-9,44
842,09	-9,74
842,308	-8,62
842,525	-9,17
842,743	-8,98
842,961	-9
843,178	-11,13
843,396	-7,19
843,613	-4,82
843,831	-2,3
844,048	-2,92
844,266	-2,24
844,483	-1,8
844,701	-2,17
844,918	-1,58
845,136	-1,5
845,353	-4,15
845,57	-4,63
845,788	-1,22
846,005	-2,67
846,222	-4,09
846,439	-2,44
846,657	-1,81
846,874	-0,87
847,091	-3,5
847,308	-1,14
847,526	-4,05
847,743	-3,7
847,96	-5,44
848,177	-5,31
848,394	-6,74
848,611	-7,25
848,828	-8,53
849,045	-9,45
849,262	-9,8
849,479	-8,65
849,696	-9,48
849,913	-10,37
850,13	-14,64
850,347	-12,24
850,564	-13,05
850,78	-15,6
850,997	-17,9
851,214	-17,83
851,431	-17,59
851,647	-20,8
851,864	-20,85
852,081	-17,77
852,298	-21,48
852,514	-24,24
852,731	-23,09
852,948	-20,88
853,164	-21,04
853,381	-21,66
853,597	-23,41
853,814	-26,32
854,03	-29,69
854,247	-27,69
854,463	-28,06
854,68	-28,65
854,896	-27,25
855,113	-25,58
855,329	-24,96
855,545	-21,58
855,762	-22,13
855,978	-24,98
856,194	-28,18
856,411	-24,81
856,627	-23,26
856,843	-22,05
857,059	-21,07
857,275	-22,82
857,492	-20,89
857,708	-15,55
857,924	-13,21
858,14	-10,55
858,356	-10,96
858,572	-10,07
858,788	-11,49
859,004	-8,33
859,22	-9,87
859,436	-10,23
859,652	-11,25
859,868	-12,32
860,084	-12,42
860,3	-10,26
860,516	-10,62
860,731	-9,11
860,947	-11,74
861,163	-10,67
861,379	-9,74
861,595	-9,03
861,81	-8,43
862,026	-8,75
862,242	-9,44
862,457	-9,48
862,673	-7,63
862,889	-7,43
863,104	-7,72
863,32	-7,73
863,535	-7,93
863,751	-12,51
863,966	-9,96
864,182	-7,9
864,397	-10,67
864,613	-13,63
864,828	-14,68
865,044	-12,85
865,259	-10,89
865,474	-12,5
865,69	-11,27
865,905	-9,65
866,12	-9,57
866,336	-10,59
866,551	-9,74
866,766	-10,37
866,981	-12,24
867,196	-11,81
867,412	-11,07
867,627	-10,34
867,842	-10,62
868,057	-10,17
868,272	-10,56
868,487	-10,92
868,702	-12,83
868,917	-14,62
869,132	-12,48
869,347	-11
869,562	-11,66
869,777	-12,16
869,992	-14,15
870,207	-13,96
870,422	-14,1
870,636	-15,82
870,851	-18,54
871,066	-19,35
871,281	-19,06
871,495	-20,79
871,71	-18,08
871,925	-21,39
872,14	-20,95
872,354	-23,71
872,569	-25,46
872,783	-23,71
872,998	-24,49
873,213	-25,24
873,427	-21,61
873,642	-21,57
873,856	-20,77
874,071	-21,96
874,285	-22,97
874,5	-24,18
874,714	-26,1
874,928	-26,87
875,143	-27,46
875,357	-26,4
875,571	-27,32
875,786	-28,04
876	-24,86
876,214	-23,37
876,429	-25,66
876,643	-23,54
876,857	-21,59
877,071	-19,52
877,285	-19,76
877,499	-21,71
877,714	-19,19
877,928	-16,86
878,142	-18,49
878,356	-20,59
878,57	-19,1
878,784	-18,51
878,998	-19,05
879,212	-15,58
879,426	-18,33
879,639	-15,54
879,853	-15,71
880,067	-16,91
880,281	-18,06
880,495	-16,89
880,709	-13,83
880,922	-13,75
881,136	-13,12
881,35	-11,94
881,564	-12,4
881,777	-15,01
881,991	-14,84
882,205	-11,35
882,418	-13,03
882,632	-16,53
882,845	-16,9
883,059	-15,7
883,273	-16,54
883,486	-17,98
883,7	-15,1
883,913	-15,78
884,126	-13,54
884,34	-16,45
884,553	-18,01
884,767	-12,98
884,98	-14,25
885,193	-16,36
885,407	-17,04
885,62	-15,63
885,833	-16,1
886,046	-12,97
886,26	-14,51
886,473	-15,82
886,686	-16,21
886,899	-12,6
887,112	-13,78
887,326	-17,1
887,539	-15,2
887,752	-13,8
887,965	-14,29
888,178	-14,13
888,391	-11,57
888,604	-11,39
888,817	-13,47
889,03	-10,77
889,243	-12,88
889,455	-15,53
889,668	-14,86
889,881	-11,72
890,094	-12,81
890,307	-16,23
890,52	-14,93
890,732	-14,79
890,945	-15,14
891,158	-15,14
891,37	-17,24
891,583	-15,93
891,796	-14,21
892,008	-14,68
892,221	-16,3
892,434	-21,77
892,646	-23,38
892,859	-23,01
893,071	-20,74
893,284	-19,96
893,496	-21,58
893,709	-22,32
893,921	-19,66
894,133	-20,89
894,346	-21,21
894,558	-22,67
894,771	-20,93
894,983	-19,56
895,195	-18,15
895,407	-17,48
895,62	-19,51
895,832	-18,22
896,044	-14,46
896,256	-16,06
896,468	-19,01
896,681	-16,23
896,893	-16,61
897,105	-17,52
897,317	-18,58
897,529	-16,24
897,741	-15,88
897,953	-13,42
898,165	-15,13
898,377	-16,41
898,589	-15,64
898,801	-15,03
899,013	-10,74
899,224	-9,85
899,436	-7,88
899,648	-9,67
899,86	-10,36
900,072	-7,75
900,283	-5,96
900,495	-4,98
900,707	-5,22
900,919	-8,96
901,13	-6,39
901,342	-9,25
901,554	-11,15
901,765	-11,42
901,977	-14,52
902,188	-15,78
902,4	-16,58
902,611	-17,93
902,823	-18,16
903,034	-18,68
903,246	-22
903,457	-21,58
903,669	-21,22
903,88	-21,32
904,091	-22,33
904,303	-21,22
904,514	-23,97
904,725	-21,97
904,936	-19,26
905,148	-18,36
905,359	-15,93
905,57	-16,79
905,781	-17,7
905,992	-18,3
906,204	-16,66
906,415	-17,64
906,626	-19,64
906,837	-17,93
907,048	-19,41
907,259	-20,05
907,47	-20,22
907,681	-22,21
907,892	-18,39
908,103	-18,91
908,314	-21,71
908,525	-18,85
908,735	-17,69
908,946	-18,97
909,157	-20,65
909,368	-18,61
909,579	-17,9
909,789	-18,61
910	-20,85
910,211	-19,64
910,421	-19,7
910,632	-19,05
910,843	-23,19
911,053	-19,38
911,264	-16,5
911,475	-19,3
911,685	-19,45
911,896	-19,68
912,106	-18,3
912,317	-20,18
912,527	-20,67
912,737	-20,95
912,948	-19,36
913,158	-18,85
913,369	-21,54
913,579	-19,91
913,789	-18,28
914	-14,56
914,21	-13,48
914,42	-14,93
914,63	-15,24
914,841	-13,53
915,051	-11,6
915,261	-11,56
915,471	-7,37
915,681	-7,66
915,891	-6,89
916,101	-8,3
916,311	-7,94
916,521	-6,29
916,731	-6,32
916,941	-3,42
917,151	-4,42
917,361	0,26
917,571	-4,04
917,781	-5,86
917,991	-7,03
918,201	-7,22
918,411	-11,12
918,621	-12,59
918,83	-10,41
919,04	-11,53
919,25	-9,5
919,46	-8,19
919,669	-11,29
919,879	-10,55
920,089	-11,9
920,298	-13,45
920,508	-13,38
920,717	-12,73
920,927	-14,35
921,136	-13,21
921,346	-14,8
921,555	-18,48
921,765	-17,74
921,974	-20,7
922,184	-20,78
922,393	-22,74
922,603	-22,17
922,812	-19,12
923,021	-19,35
923,23	-19,77
923,44	-24,09
923,649	-22,48
923,858	-24,12
924,067	-24,41
924,277	-27,88
924,486	-25,95
924,695	-26,42
924,904	-24,2
925,113	-24,13
925,322	-23,3
925,531	-22,28
925,74	-24,87
925,949	-26,59
926,158	-25,21
926,367	-25,78
926,576	-25,98
926,785	-26,29
926,994	-27,87
927,203	-27,1
927,412	-27,31
927,621	-27,31
927,83	-25,3
928,038	-24,47
928,247	-25,06
928,456	-23,23
928,665	-22,33
928,873	-19,54
929,082	-18,93
929,291	-19,5
929,499	-18,49
929,708	-20,9
929,916	-17,72
930,125	-19,71
930,333	-20,36
930,542	-17,36
930,75	-13,55
930,959	-11,88
931,167	-12,16
931,376	-12,22
931,584	-9,97
931,793	-9,92
932,001	-11,52
932,209	-12,96
932,418	-15,2
932,626	-15,55
932,834	-16,88
933,042	-19,68
933,251	-19,56
933,459	-19,91
933,667	-21,75
933,875	-21,01
934,083	-20,74
934,291	-18,68
934,499	-19
934,707	-19,83
934,915	-20,46
935,123	-17,76
935,331	-20,16
935,539	-22,57
935,747	-23,85
935,955	-24,44
936,163	-22,8
936,371	-21,89
936,579	-18,67
936,787	-18,81
936,995	-20,21
937,202	-23,85
937,41	-24,35
937,618	-24,12
937,826	-22,69
938,033	-27,92
938,241	-30,64
938,449	-27,13
938,656	-25,1
938,864	-23,03
939,071	-22,58
939,279	-20
939,486	-15,92
939,694	-16,88
939,901	-17,62
940,109	-16,45
940,316	-16,14
940,524	-16,45
940,731	-19,3
940,939	-17,56
941,146	-17,3
941,353	-18,71
941,561	-20,28
941,768	-21,54
941,975	-18,48
942,182	-18,37
942,39	-16,21
942,597	-13,66
942,804	-16,15
943,011	-16,98
943,218	-16,08
943,425	-15,94
943,632	-14,52
943,839	-16
944,046	-17,99
944,253	-18,8
944,46	-16,61
944,667	-14,65
944,874	-16,87
945,081	-15,26
945,288	-15,69
945,495	-13,59
945,702	-13,13
945,909	-15,91
946,115	-13,64
946,322	-13,71
946,529	-15,6
946,736	-15,54
946,942	-15,28
947,149	-15,85
947,356	-17,93
947,562	-19,91
947,769	-18,59
947,976	-18,56
948,182	-16,05
948,389	-17,06
948,595	-16,42
948,802	-19,02
949,008	-20,28
949,215	-19,24
949,421	-20,74
949,628	-22,15
949,834	-22,67
950,04	-23,22
950,247	-19,3
950,453	-17,34
950,659	-19,13
950,865	-18,32
951,072	-20,95
951,278	-19,23
951,484	-21,17
951,69	-23,69
951,896	-25,23
952,103	-25,96
952,309	-24,17
952,515	-23,67
952,721	-21,54
952,927	-18,79
953,133	-20,33
953,339	-20,23
953,545	-20,94
953,751	-19,18
953,957	-15,77
954,163	-18,81
954,369	-18,13
954,574	-20,59
954,78	-20,49
954,986	-20,14
955,192	-16,9
955,398	-18,28
955,603	-20,22
955,809	-19,39
956,015	-17,31
956,22	-16,05
956,426	-13,71
956,632	-17,19
956,837	-17,48
957,043	-16,35
957,248	-15,04
957,454	-14,17
957,66	-15,82
957,865	-15,56
958,07	-13,01
958,276	-14,52
958,481	-16,43
958,687	-17,01
958,892	-18,85
959,097	-19,03
959,303	-19,59
959,508	-19,34
959,713	-19,72
959,919	-18,01
960,124	-18,94
960,329	-19,65
960,534	-15,32
960,739	-15,33
960,945	-12,6
961,15	-13,7
961,355	-14,3
961,56	-17,84
961,765	-18,72
961,97	-17,01
962,175	-14,37
962,38	-16,99
962,585	-17,02
962,79	-19,69
962,995	-21,25
963,2	-21,24
963,404	-20,78
963,609	-23,96
963,814	-25,16
964,019	-27,84
964,224	-30,65
964,428	-30,51
964,633	-29,23
964,838	-28,25
965,042	-28,31
965,247	-28,78
965,452	-29,59
965,656	-28,41
965,861	-27,87
966,066	-28,31
966,27	-26,81
966,475	-24,22
966,679	-27,44
966,884	-28,01
967,088	-30,74
967,292	-31,21
967,497	-29,17
967,701	-29,53
967,906	-29,71
968,11	-27,81
968,314	-25,53
968,518	-27,64
968,723	-25,58
968,927	-24,07
969,131	-23,04
969,335	-18,72
969,539	-19,52
969,744	-17,99
969,948	-13,77
970,152	-11,49
970,356	-9,55
970,56	-7,74
970,764	-8,63
970,968	-6,33
971,172	-5,68
971,376	-6,59
971,58	-3,93
971,784	-3,22
971,988	-4,5
972,192	-1,42
972,395	-2,11
972,599	-5,35
972,803	-5,49
973,007	-3,46
973,21	-3,16
973,414	-3,31
973,618	-3,53
973,822	-5,01
974,025	-4,91
974,229	-3,53
974,432	-6,64
974,636	-8,77
974,84	-7,78
975,043	-8,28
975,247	-10,7
975,45	-11,55
975,654	-12,52
975,857	-10,96
976,06	-12,73
976,264	-15,17
976,467	-14,62
976,671	-15,35
976,874	-13,68
977,077	-14,47
977,28	-15,46
977,484	-17,06
977,687	-17,43
977,89	-16,98
978,093	-17,75
978,297	-16,2
978,5	-19,13
978,703	-17,68
978,906	-16,72
979,109	-18,56
979,312	-16,28
979,515	-17,64
979,718	-15,33
979,921	-16,75
980,124	-17,57
980,327	-18,26
980,53	-18,88
980,733	-16,23
980,936	-13,78
981,138	-15,77
981,341	-14,29
981,544	-14,31
981,747	-15,01
981,949	-15,91
982,152	-15,73
982,355	-16,71
982,558	-13,04
982,76	-15,65
982,963	-16,1
983,165	-17,31
983,368	-17,3
983,571	-18,9
983,773	-16,28
983,976	-15,76
984,178	-16,97
984,381	-16,16
984,583	-20,22
984,785	-19,52
984,988	-17,82
985,19	-15,02
985,392	-16,12
985,595	-20,07
985,797	-19,55
985,999	-18,21
986,202	-15,43
986,404	-16,36
986,606	-12,83
986,808	-13,16
987,01	-11,41
987,212	-12,86
987,415	-14,62
987,617	-15,05
987,819	-15,02
988,021	-13,12
988,223	-15,17
988,425	-15,95
988,627	-15,4
988,829	-21,49
989,031	-18,9
989,232	-19,39
989,434	-17,81
989,636	-16,91
989,838	-15,25
990,04	-13,39
990,242	-13,95
990,443	-15,24
990,645	-13,76
990,847	-9,47
991,048	-10,7
991,25	-12
991,452	-13,61
991,653	-14,72
991,855	-14,41
992,057	-15,05
992,258	-14,78
992,46	-15,83
992,661	-13,17
992,863	-14,96
993,064	-14,64
993,265	-16,65
993,467	-18,68
993,668	-15,21
993,87	-15,19
994,071	-14,67
994,272	-15,46
994,473	-12,7
994,675	-11,48
994,876	-11,24
995,077	-9,58
995,278	-9,35
995,48	-8,56
995,681	-10,95
995,882	-9,93
996,083	-11,7
996,284	-16,73
996,485	-17,11
996,686	-17,74
996,887	-19,38
997,088	-23,38
997,289	-24,32
997,49	-24,54
997,691	-23,84
997,892	-22,19
998,092	-17,47
998,293	-17,54
998,494	-19,1
998,695	-19,82
998,896	-19,24
999,096	-20,66
999,297	-20,16
999,498	-21,19
999,698	-23,51
999,899	-25,88
1000,1	-27,46
1000,3	-27,9
1000,501	-27,66
1000,701	-28,04
1000,902	-29,58
1001,102	-28,66
1001,303	-27,66
1001,503	-29,96
1001,704	-29,37
1001,904	-28,78
1002,105	-28,8
1002,305	-28,94
1002,505	-29,21
1002,706	-29,02
1002,906	-29,12
1003,106	-29,44
1003,306	-28,35
1003,507	-25,99
1003,707	-27,07
1003,907	-26,48
1004,107	-25,06
1004,307	-27,14
1004,507	-24,59
1004,707	-25,03
1004,907	-26,28
1005,107	-26,77
1005,308	-26,04
1005,507	-27,03
1005,707	-24,3
1005,907	-23,59
1006,107	-22,2
1006,307	-21,18
1006,507	-22,49
1006,707	-21,83
1006,907	-20,63
1007,106	-20,63
1007,306	-21,25
1007,506	-20,45
1007,706	-19,92
1007,905	-22,33
1008,105	-22,99
1008,305	-24,89
1008,504	-23,68
1008,704	-18,33
1008,903	-18,2
1009,103	-16,96
1009,303	-18,56
1009,502	-17,31
1009,702	-17,43
1009,901	-17,13
1010,1	-19,52
1010,3	-17,98
1010,499	-19,3
1010,699	-21,54
1010,898	-22,55
1011,097	-22
1011,296	-20,71
1011,496	-21,3
1011,695	-22,58
1011,894	-24,24
1012,093	-21,04
1012,293	-21,07
1012,492	-20,26
1012,691	-19,78
1012,89	-21,02
1013,089	-24,91
1013,288	-23,84
1013,487	-22,22
1013,686	-22,67
1013,885	-24,1
1014,084	-21,64
1014,283	-21,99
1014,482	-21,81
1014,681	-22,59
1014,88	-26,06
1015,078	-24,58
1015,277	-26,02
1015,476	-26,86
1015,675	-27,42
1015,873	-27,88
1016,072	-29,15
1016,271	-25,32
1016,47	-29,17
1016,668	-28,38
1016,867	-29,43
1017,065	-30,48
1017,264	-30,21
1017,463	-30,61
1017,661	-30,48
1017,86	-30,28
1018,058	-30,71
1018,256	-31,63
1018,455	-32,83
1018,653	-32,54
1018,852	-31,35
1019,05	-32,83
1019,248	-33,18
1019,447	-34,66
1019,645	-36,16
1019,843	-37,77
1020,041	-35,75
1020,24	-37,4
1020,438	-33,48
1020,636	-35,01
1020,834	-36,3
1021,032	-35,38
1021,23	-35,89
1021,428	-33,65
1021,626	-30,76
1021,824	-30,72
1022,022	-31,95
1022,22	-29,59
1022,418	-28,68
1022,616	-29,74
1022,814	-30,82
1023,012	-32
1023,21	-29,36
1023,408	-30,82
1023,606	-31,89
1023,803	-26,45
1024,001	-25,75
1024,199	-27,89
1024,397	-28,15
1024,594	-27,73
1024,792	-30,94
1024,99	-31,12
1025,187	-29,07
1025,385	-24,54
1025,582	-23,65
1025,78	-24,63
1025,977	-23,41
1026,175	-24,47
1026,372	-22,87
1026,57	-25,14
1026,767	-20,58
1026,965	-19,66
1027,162	-19,2
1027,359	-19,96
1027,557	-19,01
1027,754	-21,24
1027,951	-22,39
1028,148	-19,27
1028,346	-22,7
1028,543	-25,06
1028,74	-24,56
1028,937	-25,85
1029,134	-24,92
1029,331	-25,65
1029,528	-25,38
1029,725	-26,42
1029,923	-30,75
1030,12	-27,35
1030,317	-26,18
1030,513	-24,49
1030,71	-24,11
1030,907	-21,25
1031,104	-21,75
1031,301	-23,04
1031,498	-23,54
1031,695	-23,74
1031,892	-21,4
1032,088	-20,57
1032,285	-20,36
1032,482	-22,13
1032,678	-24,99
1032,875	-27,61
1033,072	-26,25
1033,268	-27,1
1033,465	-27,9
1033,662	-31,63
1033,858	-30,41
1034,055	-30,31
1034,251	-29,58
1034,448	-27,99
1034,644	-28,88
1034,84	-26,62
1035,037	-24,32
1035,233	-23,97
1035,43	-22,71
1035,626	-22,88
1035,822	-22,58
1036,019	-23,34
1036,215	-27,39
1036,411	-27,43
1036,607	-28,87
1036,803	-29,97
1037	-30,33
1037,196	-31,04
1037,392	-31,28
1037,588	-33,58
1037,784	-32,58
1037,98	-34,62
1038,176	-36,18
1038,372	-36,67
1038,568	-35,27
1038,764	-32,17
1038,96	-31,06
1039,156	-33,59
1039,352	-34,82
1039,547	-32,58
1039,743	-31,28
1039,939	-29,22
1040,135	-28,8
1040,331	-30,73
1040,526	-28,39
1040,722	-30,04
1040,918	-31,28
1041,113	-33,46
1041,309	-34,18
1041,505	-36,73
1041,7	-35,04
1041,896	-34,25
1042,091	-33,81
1042,287	-31,84
1042,482	-30,83
1042,678	-31,05
1042,873	-30,37
1043,069	-31,59
1043,264	-31,16
1043,459	-30,27
1043,655	-29,38
1043,85	-30,52
1044,045	-29,74
1044,24	-28,99
1044,436	-27,4
1044,631	-27,16
1044,826	-28,91
1045,021	-30,19
1045,216	-27,98
