Data from led_4000k_2_FLMT021711__19__17-34-57-385.txt Node

Date: Tue Nov 05 17:34:57 CET 2024
User: Etudiants TP
Spectrometer: FLMT02171
Trigger mode: 0
Integration Time (sec): 1,000000E-1
Scans to average: 5
Electric dark correction enabled: true
Nonlinearity correction enabled: true
Boxcar width: 15
XAxis mode: Wavelengths
Number of Pixels in Spectrum: 3648
>>>>>Begin Spectral Data<<<<<
194,658	-72,97
194,923	-70,64
195,188	-62,72
195,453	-61,41
195,717	-54,51
195,982	-53,15
196,247	-50,04
196,512	-53,75
196,777	-51,47
197,042	-50,11
197,307	-50,53
197,572	-45,84
197,837	-46,36
198,101	-42,92
198,366	-39,64
198,631	-37,7
198,896	-31,42
199,161	-23,5
199,425	-14,07
199,69	-3,79
199,955	-0,86
200,22	-3,49
200,484	-3,01
200,749	-4,27
201,014	-4,28
201,278	-4,23
201,543	-3,47
201,807	-3,39
202,072	-2,74
202,337	-1,98
202,601	-1,74
202,866	-3,92
203,13	-1,05
203,395	-3,08
203,659	-3,81
203,924	-7,26
204,189	-5,71
204,453	-5,33
204,717	-1,8
204,982	-0,79
205,246	0,83
205,511	2,84
205,775	1,05
206,04	7,78
206,304	7,3
206,568	8,26
206,833	8,24
207,097	8,71
207,361	10,71
207,626	12,81
207,89	12,49
208,154	11,77
208,419	13,14
208,683	12,5
208,947	15,51
209,211	15,02
209,476	14,98
209,74	16,17
210,004	16,53
210,268	16,53
210,532	18,77
210,796	18,08
211,061	19,5
211,325	19,46
211,589	17,76
211,853	19,27
212,117	20,21
212,381	19,87
212,645	19,62
212,909	19,65
213,173	16,53
213,437	17,83
213,701	17,99
213,965	19,42
214,229	13,59
214,493	13,18
214,757	12,28
215,021	12,19
215,285	17,68
215,549	19,73
215,813	16,48
216,077	16,55
216,34	18,48
216,604	17,75
216,868	18,97
217,132	19,72
217,396	19,75
217,659	21,2
217,923	18,11
218,187	18,01
218,451	19,34
218,714	16,54
218,978	17,92
219,242	18,67
219,505	18,43
219,769	19,72
220,033	19,8
220,296	21,73
220,56	22,69
220,824	21,35
221,087	21,26
221,351	21,85
221,614	21,12
221,878	22,89
222,142	20,87
222,405	21,29
222,669	23,61
222,932	20,1
223,196	18,5
223,459	14,22
223,722	15,1
223,986	14,15
224,249	12,61
224,513	12,39
224,776	12,88
225,04	12,15
225,303	11,09
225,566	10,43
225,83	11,04
226,093	13,16
226,356	10,5
226,62	7,88
226,883	10,08
227,146	9,41
227,409	8,89
227,673	7,22
227,936	7,23
228,199	8,14
228,462	6,13
228,725	4,23
228,989	3,93
229,252	5,1
229,515	10,77
229,778	8,85
230,041	7
230,304	6,38
230,567	7,07
230,83	4,3
231,093	6,6
231,356	5,33
231,619	12,69
231,882	10,59
232,145	12,99
232,408	12,69
232,671	12,87
232,934	12,48
233,197	10,35
233,46	9,08
233,723	10,29
233,986	7,93
234,249	6,53
234,512	9,95
234,775	12,73
235,037	12,26
235,3	13,53
235,563	14,32
235,826	14,33
236,089	15,54
236,351	13,98
236,614	16,42
236,877	19,17
237,14	21,38
237,402	21,86
237,665	15,29
237,928	14,44
238,19	12,06
238,453	13
238,716	12,41
238,978	12,27
239,241	10,97
239,503	15,36
239,766	8,26
240,029	6,21
240,291	10,44
240,554	8,67
240,816	7,91
241,079	7,76
241,341	8,56
241,604	6,59
241,866	3,76
242,129	5,09
242,391	5,6
242,653	5,08
242,916	4,71
243,178	3,43
243,441	3,2
243,703	1,91
243,965	-0,14
244,228	0,1
244,49	0,87
244,752	1,26
245,015	0,58
245,277	2,75
245,539	0,95
245,801	2,44
246,064	2,24
246,326	2,14
246,588	2,73
246,85	4,94
247,112	5,38
247,374	7,92
247,637	8,87
247,899	10,58
248,161	11,34
248,423	6,16
248,685	8,05
248,947	7,47
249,209	7,55
249,471	8,73
249,733	10,55
249,995	10,67
250,257	10,23
250,519	9,58
250,781	11,77
251,043	8,63
251,305	10,69
251,567	13,11
251,829	13,98
252,091	14,8
252,353	11,54
252,615	10,75
252,876	8,15
253,138	6,66
253,4	2,16
253,662	3,62
253,924	5,56
254,185	8,25
254,447	9,74
254,709	10,22
254,971	11,9
255,232	14,59
255,494	12,08
255,756	10,05
256,017	9,08
256,279	10,58
256,541	9,85
256,802	11,22
257,064	11,51
257,326	11,21
257,587	12
257,849	13,59
258,11	14,86
258,372	15,54
258,633	16,65
258,895	15,28
259,156	14,41
259,418	12,8
259,679	8,07
259,941	4,91
260,202	7,35
260,464	9,3
260,725	9,01
260,987	9,15
261,248	8,3
261,509	9,12
261,771	8,79
262,032	10,23
262,293	8,28
262,555	8,74
262,816	6,33
263,077	4,16
263,338	1,31
263,6	3,6
263,861	2,86
264,122	2,51
264,383	3,54
264,645	5,26
264,906	3
265,167	3,54
265,428	2,04
265,689	2,29
265,95	-0,05
266,211	2,53
266,473	2,35
266,734	-1,76
266,995	-4,75
267,256	-2,79
267,517	-0,12
267,778	2,27
268,039	5,25
268,3	4,41
268,561	1,88
268,822	6,33
269,083	3,35
269,344	1,98
269,604	1,46
269,865	1,42
270,126	-3,24
270,387	-2,39
270,648	-2,14
270,909	-1,54
271,17	-4,7
271,43	-7,24
271,691	-10,03
271,952	-11,17
272,213	-8,65
272,473	-11,21
272,734	-9,4
272,995	-7
273,256	-6,26
273,516	-3,17
273,777	-5,85
274,038	-4,51
274,298	-9,58
274,559	-9,72
274,82	-3,26
275,08	-0,48
275,341	1,71
275,601	0,25
275,862	-1,5
276,122	-2,04
276,383	-0,61
276,643	2,06
276,904	-0,79
277,164	3,98
277,425	3,78
277,685	8,45
277,946	8,71
278,206	11,02
278,467	13,9
278,727	13,46
278,987	12,73
279,248	14,82
279,508	16,51
279,768	18,39
280,029	19,53
280,289	16,39
280,549	14,07
280,81	12,51
281,07	10,65
281,33	12,2
281,59	10,08
281,851	13,1
282,111	12,47
282,371	13,73
282,631	15,97
282,891	13,02
283,151	11,29
283,412	8,97
283,672	9,16
283,932	8,8
284,192	9,6
284,452	6,2
284,712	4,31
284,972	4,22
285,232	1,03
285,492	3,54
285,752	-0,16
286,012	5,43
286,272	6,61
286,532	3,4
286,792	3,83
287,052	6,21
287,312	6
287,571	5,1
287,831	3,75
288,091	2,75
288,351	3,09
288,611	8,57
288,871	8,95
289,13	9,04
289,39	4,78
289,65	7,17
289,91	4,8
290,17	7,57
290,429	10,51
290,689	7,05
290,949	4,3
291,208	6,87
291,468	10,06
291,728	10,15
291,987	11,99
292,247	11,11
292,506	14,55
292,766	17,46
293,026	15,38
293,285	16,59
293,545	19,06
293,804	19,59
294,064	15,28
294,323	13,62
294,583	13,68
294,842	14,41
295,102	13,84
295,361	13,01
295,621	14,09
295,88	15,14
296,139	13,88
296,399	14,39
296,658	8,97
296,917	9,74
297,177	7,11
297,436	9,24
297,695	6,48
297,955	9,41
298,214	7,97
298,473	9,34
298,732	12,26
298,992	16,21
299,251	13,45
299,51	10,17
299,769	11,07
300,028	13,06
300,287	13,18
300,547	11,66
300,806	9,11
301,065	12,69
301,324	14,42
301,583	11,28
301,842	7,75
302,101	6,51
302,36	7,05
302,619	7,41
302,878	7,54
303,137	5,85
303,396	7,67
303,655	8,23
303,914	7,09
304,173	8,34
304,432	7,64
304,691	11,01
304,95	6,94
305,208	10,82
305,467	10,87
305,726	11,14
305,985	11,08
306,244	12,17
306,503	10,78
306,761	7,59
307,02	3,84
307,279	6,57
307,537	6,34
307,796	3,34
308,055	-0,56
308,314	0,53
308,572	-1,11
308,831	0,54
309,09	-0,17
309,348	0,24
309,607	0,51
309,865	5,24
310,124	4,9
310,382	5,53
310,641	7,1
310,9	4,72
311,158	5,59
311,417	4,95
311,675	6,49
311,933	5,15
312,192	6,34
312,45	7,41
312,709	7,48
312,967	8,78
313,226	8,89
313,484	8,35
313,742	6,46
314,001	3,87
314,259	2,06
314,517	2,43
314,776	5,11
315,034	7,03
315,292	4,23
315,55	3,04
315,809	2,82
316,067	2,12
316,325	0,79
316,583	1,47
316,841	0,99
317,1	-0,84
317,358	-4,6
317,616	-6,77
317,874	-8,29
318,132	-8,92
318,39	-8,85
318,648	-10,45
318,906	-9,38
319,164	-10,2
319,422	-10,72
319,68	-13,24
319,938	-10,91
320,196	-11,4
320,454	-10,39
320,712	-10,91
320,97	-11,16
321,228	-14,73
321,486	-13,82
321,744	-11,43
322,002	-8,88
322,26	-10,69
322,517	-10,02
322,775	-12,24
323,033	-12,56
323,291	-10,27
323,549	-8,66
323,806	-6,27
324,064	-4,73
324,322	-2,52
324,58	-1,84
324,837	-0,49
325,095	-1,5
325,353	0,27
325,61	3,26
325,868	1,6
326,126	4,42
326,383	3,46
326,641	2,41
326,898	3,46
327,156	3,76
327,413	4,86
327,671	5,31
327,928	6,06
328,186	5,91
328,443	4,71
328,701	8,78
328,958	10,47
329,216	11,93
329,473	10,49
329,731	11,03
329,988	9,92
330,245	12,91
330,503	13,46
330,76	13,59
331,017	14,93
331,275	12,5
331,532	12,32
331,789	9,74
332,047	9,44
332,304	5,96
332,561	5,39
332,818	3,69
333,076	4,96
333,333	6,33
333,59	6,29
333,847	7,89
334,104	5,72
334,361	4,81
334,618	5,01
334,876	2,91
335,133	3,02
335,39	1,32
335,647	3,09
335,904	-0,21
336,161	-0,94
336,418	-0,6
336,675	-5,55
336,932	-4,07
337,189	-4,98
337,446	-3,49
337,703	-5,32
337,96	-8,73
338,216	-8,82
338,473	-11,75
338,73	-11,83
338,987	-10,73
339,244	-8,14
339,501	-9,81
339,757	-8,57
340,014	-6,84
340,271	-5,97
340,528	-5
340,785	-1,53
341,041	-0,99
341,298	-4,6
341,555	-5,14
341,811	-4,79
342,068	-6,11
342,325	-5,24
342,581	-3,93
342,838	-2,22
343,094	-1,4
343,351	-1,1
343,608	-3,74
343,864	-0,12
344,121	0,82
344,377	0,13
344,634	0,12
344,89	-2,56
345,147	-1,62
345,403	-2,84
345,66	-4
345,916	-1,28
346,172	-3,28
346,429	-5,2
346,685	-5,66
346,942	-6,88
347,198	-9,84
347,454	-8,25
347,711	-8,04
347,967	-11,13
348,223	-8,8
348,48	-9,33
348,736	-6,65
348,992	-8,03
349,248	-3,86
349,504	-3,47
349,761	-3,67
350,017	-3,53
350,273	-4,5
350,529	-5,38
350,785	-5,92
351,041	-8,06
351,297	-6,59
351,554	-7,86
351,81	-10,65
352,066	-12,29
352,322	-11,92
352,578	-11,1
352,834	-10,76
353,09	-11,18
353,346	-11,46
353,602	-10,96
353,858	-11,35
354,114	-11,85
354,369	-10,48
354,625	-8
354,881	-9,07
355,137	-6,85
355,393	-6,45
355,649	-6,29
355,905	-6,75
356,16	-7,32
356,416	-6,82
356,672	-14,17
356,928	-12,65
357,183	-13,94
357,439	-14,44
357,695	-16,56
357,951	-11,68
358,206	-11,36
358,462	-12,28
358,718	-13,73
358,973	-11,03
359,229	-12,16
359,484	-10,19
359,74	-7,34
359,996	-6,42
360,251	-3,35
360,507	-3,59
360,762	-5,17
361,018	-3,16
361,273	-3,9
361,529	-3,62
361,784	-5,64
362,04	-4,01
362,295	-3,98
362,55	-3,35
362,806	-1,41
363,061	-0,52
363,316	-1,26
363,572	0,09
363,827	3,7
364,082	-0,29
364,338	0,14
364,593	1,77
364,848	2,8
365,104	1,38
365,359	3,82
365,614	4,98
365,869	2,15
366,124	2,41
366,38	2,35
366,635	3,42
366,89	3,28
367,145	4,29
367,4	6,64
367,655	6,09
367,91	5,67
368,165	3,32
368,42	0,6
368,675	2,87
368,93	3,65
369,185	0,73
369,44	2,84
369,695	7,81
369,95	6,07
370,205	6,52
370,46	4,69
370,715	3,91
370,97	3,79
371,225	5,41
371,48	5,39
371,734	5,52
371,989	8,29
372,244	7,69
372,499	9,91
372,754	8,29
373,008	5,93
373,263	2,17
373,518	5,37
373,773	3,05
374,027	1,04
374,282	4,68
374,537	5,87
374,791	7,4
375,046	5,54
375,301	3,82
375,555	2,18
375,81	4,52
376,064	5,55
376,319	8,12
376,573	6,81
376,828	3,62
377,082	8,94
377,337	5,83
377,591	3,68
377,846	5,87
378,1	8,62
378,355	8,38
378,609	7
378,863	4,69
379,118	4,93
379,372	3,38
379,627	0,64
379,881	-1,09
380,135	-2,51
380,389	-3,07
380,644	-2,44
380,898	-0,68
381,152	0,39
381,407	-0,68
381,661	1,33
381,915	4,46
382,169	3,53
382,423	1,48
382,677	-1,94
382,932	-0,23
383,186	0,72
383,44	1,55
383,694	2,84
383,948	0,23
384,202	0,42
384,456	2,87
384,71	3,15
384,964	0,97
385,218	3,61
385,472	2,9
385,726	1,5
385,98	0,57
386,234	0,99
386,488	-0,24
386,742	0,72
386,996	-1,31
387,249	-1,49
387,503	1,86
387,757	3,04
388,011	5,41
388,265	4,78
388,518	5,69
388,772	7,69
389,026	9,29
389,28	5,93
389,533	5,22
389,787	7,04
390,041	3,94
390,295	4,89
390,548	4,57
390,802	7,57
391,055	6,18
391,309	5,26
391,563	2,75
391,816	3,65
392,07	2,75
392,323	4,95
392,577	7,98
392,83	8,68
393,084	13,53
393,337	15,97
393,591	16,31
393,844	15,72
394,098	19,54
394,351	24,33
394,604	26,66
394,858	29,26
395,111	31,17
395,364	28,07
395,618	30,17
395,871	28,04
396,124	26,59
396,378	24,92
396,631	25,88
396,884	22,35
397,137	22,32
397,391	22,24
397,644	18,69
397,897	19,95
398,15	20,87
398,403	24,72
398,657	22,63
398,91	22,53
399,163	24,31
399,416	24,52
399,669	24,26
399,922	23,76
400,175	19,39
400,428	17,57
400,681	19,4
400,934	15,21
401,187	14,83
401,44	15,44
401,693	14,12
401,946	9,47
402,199	3,42
402,452	2,05
402,704	-1,9
402,957	-3,65
403,21	-0,9
403,463	-2,78
403,716	-0,87
403,969	1,24
404,221	2,23
404,474	2,98
404,727	6,77
404,98	9,21
405,232	10,49
405,485	12,37
405,738	14,8
405,99	14,06
406,243	13,9
406,496	15,18
406,748	15,33
407,001	13,99
407,253	13,96
407,506	12,95
407,759	13,53
408,011	12,41
408,264	12,67
408,516	12,15
408,769	9,11
409,021	9,75
409,274	10,48
409,526	12,49
409,778	12,58
410,031	17,28
410,283	16,66
410,536	21,81
410,788	20,91
411,04	18,97
411,293	19,99
411,545	20,01
411,797	19,93
412,049	17,72
412,302	18,28
412,554	19,28
412,806	18,24
413,058	15,55
413,311	16,29
413,563	14,61
413,815	15,62
414,067	13,48
414,319	11,61
414,571	11,77
414,823	10,29
415,075	9,22
415,328	10,59
415,58	12,5
415,832	14,41
416,084	15,51
416,336	13,5
416,588	18,85
416,84	17,39
417,091	19,83
417,343	16,98
417,595	19,75
417,847	20,1
418,099	21,96
418,351	20,95
418,603	24,5
418,855	26,29
419,106	27,6
419,358	27,4
419,61	25,7
419,862	28,77
420,114	25,53
420,365	24,64
420,617	24,61
420,869	24,07
421,12	22,85
421,372	23,85
421,624	21,93
421,875	23,65
422,127	21,06
422,379	22,8
422,63	25,92
422,882	25,96
423,133	26,47
423,385	27,55
423,636	27,92
423,888	30,01
424,139	31,99
424,391	28,02
424,642	26,48
424,894	25,43
425,145	26,04
425,396	22,2
425,648	24,24
425,899	20,63
426,151	20,11
426,402	19,24
426,653	19,8
426,905	17,5
427,156	15,96
427,407	16,74
427,658	16,05
427,91	15,14
428,161	14,56
428,412	16,71
428,663	18,02
428,914	18,66
429,166	19,68
429,417	21,71
429,668	19,81
429,919	17,9
430,17	16,44
430,421	15,17
430,672	19,03
430,923	20,57
431,174	20,14
431,425	20,78
431,676	20,31
431,927	18,98
432,178	20,99
432,429	20,78
432,68	19,25
432,931	23,6
433,182	28,01
433,433	26,2
433,683	30
433,934	30,78
434,185	29,77
434,436	27,27
434,687	29,47
434,937	32,13
435,188	31,39
435,439	30,75
435,69	33,54
435,94	33,51
436,191	35,49
436,442	36,13
436,692	35,95
436,943	33,51
437,194	32,57
437,444	34,67
437,695	40,95
437,945	43,18
438,196	43,22
438,447	42,87
438,697	41,68
438,948	41,54
439,198	39,97
439,449	36,6
439,699	38,06
439,949	39,82
440,2	40,79
440,45	42,45
440,701	39,56
440,951	39,04
441,201	40,79
441,452	40,28
441,702	40,37
441,952	42,08
442,203	43,83
442,453	41,38
442,703	43,15
442,953	45,03
443,204	47,32
443,454	46,36
443,704	47,62
443,954	44,12
444,204	46,59
444,455	49,2
444,705	53,7
444,955	56,53
445,205	56,48
445,455	55,42
445,705	57,3
445,955	59,24
446,205	59,68
446,455	61,18
446,705	62,6
446,955	63,73
447,205	66,45
447,455	68,26
447,705	66,01
447,955	67,42
448,205	69,47
448,454	71,73
448,704	74,14
448,954	73,72
449,204	75,32
449,454	77,53
449,704	77,17
449,953	77,86
450,203	83,35
450,453	82,13
450,703	85,42
450,952	85,68
451,202	88,7
451,452	89,81
451,701	94,46
451,951	98,62
452,201	99,18
452,45	98,84
452,7	100,76
452,949	103
453,199	102,76
453,448	103,83
453,698	105,54
453,947	104,49
454,197	105,83
454,446	105,5
454,696	109,98
454,945	110,34
455,195	110,08
455,444	112,85
455,693	116,53
455,943	115,22
456,192	116,34
456,442	117,42
456,691	117,82
456,94	117,16
457,189	115,92
457,439	118,98
457,688	121,19
457,937	120,29
458,186	120,73
458,436	120,95
458,685	121,56
458,934	119,42
459,183	119,3
459,432	120,76
459,681	119,82
459,93	118,15
460,179	116,49
460,429	113,89
460,678	115,28
460,927	117,73
461,176	115,89
461,425	114,09
461,674	116,44
461,923	115,59
462,172	114,44
462,42	112,59
462,669	113,62
462,918	113,11
463,167	111,21
463,416	107,65
463,665	107,94
463,914	107,78
464,162	104,87
464,411	103,59
464,66	104,94
464,909	102,9
465,158	100,58
465,406	100,25
465,655	101,16
465,904	101,39
466,152	99,79
466,401	99,38
466,65	101,49
466,898	99,38
467,147	95,37
467,395	93,84
467,644	95,72
467,893	95,77
468,141	95,13
468,39	91,31
468,638	89,76
468,887	88,36
469,135	88,1
469,384	87,31
469,632	87,04
469,88	87,09
470,129	88,4
470,377	84,58
470,626	87,46
470,874	89,17
471,122	89,77
471,371	86,83
471,619	84,96
471,867	87,9
472,115	88,15
472,364	85,3
472,612	86,8
472,86	85,78
473,108	85,48
473,356	84,74
473,605	84,19
473,853	81,09
474,101	80,27
474,349	78,71
474,597	80,29
474,845	78,99
475,093	76,68
475,341	73,96
475,589	73,33
475,837	74,64
476,085	75,97
476,333	73,02
476,581	73,78
476,829	72,98
477,077	74,09
477,325	73,28
477,573	75,32
477,821	73,32
478,069	74,1
478,317	72,6
478,564	74,16
478,812	70,92
479,06	71,62
479,308	70,41
479,555	69,34
479,803	68,84
480,051	69,99
480,299	70,6
480,546	70,52
480,794	66,93
481,042	66,97
481,289	65,25
481,537	67,42
481,784	65,59
482,032	67,78
482,28	66,97
482,527	66,03
482,775	66,56
483,022	68,17
483,27	69,66
483,517	72,58
483,765	71,88
484,012	72,23
484,259	70,54
484,507	73,57
484,754	74,99
485,002	74,33
485,249	72,33
485,496	74,4
485,744	76,35
485,991	75,07
486,238	73,28
486,486	77,72
486,733	78,6
486,98	80,43
487,227	78,4
487,474	78,77
487,722	81,99
487,969	80,03
488,216	80
488,463	80,98
488,71	79,55
488,957	79,8
489,204	78,91
489,451	82,19
489,699	80,64
489,946	78,99
490,193	79,54
490,44	81,49
490,687	82,01
490,934	80,79
491,18	76,33
491,427	78,01
491,674	81,57
491,921	81,97
492,168	79,82
492,415	76,1
492,662	78,68
492,909	81,37
493,155	80,63
493,402	76,88
493,649	75,64
493,896	76
494,142	72,47
494,389	71,37
494,636	70,33
494,883	69,54
495,129	69,7
495,376	67,1
495,623	68,44
495,869	71,06
496,116	73,06
496,362	75,48
496,609	78,07
496,855	84,06
497,102	83,16
497,348	83,28
497,595	85,22
497,841	89,81
498,088	87,09
498,334	86,83
498,581	85,3
498,827	86,28
499,074	86,38
499,32	87,32
499,566	91,54
499,813	93,55
500,059	92,25
500,305	92,18
500,552	90,43
500,798	88,94
501,044	94,92
501,29	95,62
501,537	93,03
501,783	96,12
502,029	99
502,275	96,93
502,521	95,32
502,767	96,17
503,013	99,3
503,26	96,86
503,506	94,38
503,752	95,02
503,998	92,41
504,244	92,94
504,49	89,53
504,736	90,55
504,982	89,3
505,228	90,7
505,474	91,14
505,72	92,97
505,966	91,67
506,211	94,77
506,457	94,43
506,703	92,33
506,949	89,75
507,195	87,41
507,441	83,37
507,686	87,63
507,932	86,61
508,178	86,75
508,424	86,45
508,669	83,52
508,915	82,63
509,161	85,56
509,406	85,64
509,652	86,48
509,898	89,85
510,143	92,26
510,389	90,73
510,634	86,75
510,88	91,68
511,125	93,8
511,371	94,51
511,616	96,15
511,862	93,91
512,107	91,61
512,353	92,94
512,598	93,97
512,844	92,19
513,089	88,6
513,335	89,21
513,58	88,12
513,825	88,71
514,071	88,8
514,316	88,51
514,561	90,89
514,806	88,15
515,052	90,85
515,297	88,77
515,542	89,66
515,787	90,67
516,033	91,02
516,278	91,9
516,523	92,05
516,768	90,8
517,013	89,14
517,258	86,6
517,503	87,61
517,748	87,9
517,993	87,22
518,238	87
518,483	83,31
518,728	81,47
518,973	80,2
519,218	78,84
519,463	79,24
519,708	77,95
519,953	74,84
520,198	74,46
520,443	74,81
520,688	79,09
520,933	78,14
521,177	79,17
521,422	76,62
521,667	79,18
521,912	79,26
522,157	74,29
522,401	78,08
522,646	77,43
522,891	78,79
523,135	79,45
523,38	80,28
523,625	79,72
523,869	81,6
524,114	82,06
524,358	81,61
524,603	81,24
524,848	79,61
525,092	77,65
525,337	78,95
525,581	81,92
525,826	85,19
526,07	86,5
526,315	88,18
526,559	86,13
526,803	84,88
527,048	88,98
527,292	90,95
527,537	90,93
527,781	90,99
528,025	90,21
528,269	90,75
528,514	91,41
528,758	90,58
529,002	90,92
529,247	93,17
529,491	92,57
529,735	99,01
529,979	99,24
530,223	100,41
530,467	96,01
530,712	93,84
530,956	92,89
531,2	94,21
531,444	91,56
531,688	94,57
531,932	93,85
532,176	94,97
532,42	98,03
532,664	98,5
532,908	95,56
533,152	92,81
533,396	90,67
533,64	89,78
533,884	87,93
534,128	88,96
534,371	91,14
534,615	90,46
534,859	90,28
535,103	90,42
535,347	90,71
535,59	91,18
535,834	87,72
536,078	88,6
536,322	90,37
536,565	95,18
536,809	93,39
537,053	95,43
537,296	92,81
537,54	91,96
537,784	91,12
538,027	93,1
538,271	92,74
538,514	91,22
538,758	91,68
539,001	89,7
539,245	87,37
539,488	88,01
539,732	89,88
539,975	89,11
540,219	92,15
540,462	94,26
540,706	96,14
540,949	95,55
541,192	96,58
541,436	101,13
541,679	106,03
541,922	106,23
542,166	102,79
542,409	101,72
542,652	102,87
542,895	103,81
543,139	104,8
543,382	109,56
543,625	109,43
543,868	109,66
544,111	106,32
544,354	104,72
544,598	103,43
544,841	103,87
545,084	102,27
545,327	102,25
545,57	104,25
545,813	106,99
546,056	106,84
546,299	105,84
546,542	109,3
546,785	113,23
547,028	113,5
547,271	112,2
547,514	112,23
547,756	108,61
547,999	107,97
548,242	109,04
548,485	107,52
548,728	107,39
548,971	103,09
549,213	102,77
549,456	101,73
549,699	101,95
549,942	101,02
550,184	99,37
550,427	97,4
550,67	97,84
550,912	91,36
551,155	91,23
551,398	89,71
551,64	89,22
551,883	89,26
552,125	89,53
552,368	89,56
552,61	87,84
552,853	88,86
553,095	88,49
553,338	86,23
553,58	87
553,823	85,63
554,065	87,9
554,308	82,72
554,55	80,63
554,792	78,07
555,035	76,49
555,277	75,79
555,519	76,7
555,762	74,68
556,004	74,66
556,246	71,44
556,488	72,84
556,731	69,13
556,973	70,17
557,215	68,43
557,457	70,46
557,699	73,93
557,941	72,51
558,183	70
558,426	73,27
558,668	70,91
558,91	73,25
559,152	72,41
559,394	72,06
559,636	72,8
559,878	72,41
560,12	72,61
560,362	73,41
560,604	72,24
560,845	72,38
561,087	70,97
561,329	73,79
561,571	68,97
561,813	70,38
562,055	69,95
562,297	70,67
562,538	72,43
562,78	74,91
563,022	70,24
563,264	71,05
563,505	71,32
563,747	71,49
563,989	68,31
564,23	67,05
564,472	64,63
564,714	67,84
564,955	68,07
565,197	62,85
565,438	64,91
565,68	68,14
565,921	66,15
566,163	67,71
566,404	65,38
566,646	67,15
566,887	67,77
567,129	68,48
567,37	66,3
567,612	68,18
567,853	66,36
568,094	67,53
568,336	67,77
568,577	68,25
568,818	67
569,06	67,13
569,301	63,49
569,542	65,08
569,783	66,63
570,025	65,89
570,266	65,42
570,507	69,05
570,748	68,41
570,989	70,62
571,23	73,76
571,472	75,8
571,713	75,11
571,954	77,5
572,195	75,14
572,436	77,05
572,677	79,97
572,918	81,03
573,159	78,49
573,4	76,56
573,641	75,06
573,882	76,17
574,123	74,53
574,364	70,66
574,604	70,76
574,845	70,32
575,086	69,36
575,327	68,84
575,568	66,82
575,809	65,25
576,049	63,73
576,29	62,48
576,531	65,55
576,771	70,68
577,012	72,26
577,253	73,35
577,494	72,67
577,734	71,83
577,975	72,35
578,215	72,02
578,456	68,82
578,697	68,25
578,937	68,61
579,178	68,96
579,418	66,7
579,659	67,07
579,899	63,06
580,14	61,83
580,38	60,91
580,62	62,74
580,861	64,64
581,101	64,42
581,342	64,54
581,582	59,9
581,822	62,13
582,063	61,31
582,303	63,41
582,543	63,3
582,783	65,86
583,024	68,77
583,264	73,13
583,504	73,03
583,744	74,39
583,984	72,77
584,224	72,09
584,465	69,28
584,705	69,4
584,945	69,85
585,185	69,97
585,425	69,5
585,665	69,29
585,905	68,59
586,145	67,72
586,385	67,04
586,625	69,33
586,865	69,21
587,105	68,86
587,345	70,54
587,585	71,42
587,824	70,61
588,064	70,7
588,304	69,86
588,544	70,51
588,784	67,92
589,024	71,78
589,263	72,28
589,503	70,4
589,743	72,77
589,982	72,98
590,222	72,29
590,462	70,65
590,701	67,33
590,941	68,77
591,181	68,68
591,42	68,01
591,66	70,13
591,899	74,81
592,139	74,4
592,378	75,39
592,618	74,22
592,857	73,69
593,097	74,17
593,336	76,01
593,576	76,23
593,815	76,46
594,055	75,51
594,294	76,45
594,533	75,95
594,773	74,75
595,012	76,27
595,251	77,27
595,491	78,45
595,73	80,43
595,969	81,85
596,208	82,81
596,447	86,74
596,687	88,03
596,926	89,83
597,165	84,13
597,404	86,92
597,643	85,37
597,882	83,26
598,121	84,41
598,36	86,11
598,599	87,15
598,838	87,3
599,077	84,01
599,316	83,77
599,555	82,71
599,794	83,07
600,033	86,58
600,272	88,08
600,511	87,92
600,75	90,67
600,989	92,8
601,228	93,17
601,466	94,43
601,705	95,78
601,944	97,26
602,183	100,7
602,422	100,29
602,66	100,39
602,899	100,16
603,138	101,58
603,376	101,51
603,615	102,79
603,854	101,01
604,092	101,64
604,331	104,56
604,569	107,67
604,808	105,93
605,047	108,83
605,285	109,49
605,524	109,26
605,762	107,19
606	108,67
606,239	108,37
606,477	108,55
606,716	105,86
606,954	105,75
607,193	104,13
607,431	100,73
607,669	99,39
607,908	98,19
608,146	100,07
608,384	99,8
608,622	101,6
608,861	101,27
609,099	101,23
609,337	101,18
609,575	100,12
609,813	101,52
610,052	101,49
610,29	97
610,528	94,2
610,766	93,22
611,004	93,77
611,242	93,25
611,48	92,67
611,718	88,69
611,956	90,22
612,194	89,96
612,432	88,27
612,67	87,56
612,908	89,54
613,146	88,48
613,384	86,01
613,621	87,08
613,859	89
614,097	89,18
614,335	90,28
614,573	91,95
614,811	94,22
615,048	94,25
615,286	95,81
615,524	94,07
615,761	90,96
615,999	90,64
616,237	89,97
616,474	91,14
616,712	91,91
616,95	90,79
617,187	90,03
617,425	91,26
617,662	94,03
617,9	93,7
618,137	90,67
618,375	87,92
618,612	86,49
618,85	88,14
619,087	91,06
619,325	88,59
619,562	86,48
619,799	84,65
620,037	86,12
620,274	84,7
620,511	86,63
620,749	85,64
620,986	83,27
621,223	80,26
621,461	78,91
621,698	80,49
621,935	79,18
622,172	77,02
622,409	78,44
622,647	76,82
622,884	73,74
623,121	75,83
623,358	73,34
623,595	73,74
623,832	72,96
624,069	71,58
624,306	73,06
624,543	73,65
624,78	74,79
625,017	74,85
625,254	77,07
625,491	80,27
625,728	83,4
625,965	83,38
626,202	81,87
626,438	79,77
626,675	80,38
626,912	82,13
627,149	84,16
627,386	83,13
627,622	82,17
627,859	81,89
628,096	81,2
628,333	83,46
628,569	83,42
628,806	85,89
629,043	83,53
629,279	85,05
629,516	88,28
629,752	85,54
629,989	87,61
630,225	86,41
630,462	86,47
630,699	86,88
630,935	85,62
631,171	83,68
631,408	83,93
631,644	80,71
631,881	77,8
632,117	74,28
632,354	73,61
632,59	71,34
632,826	72,03
633,063	70,96
633,299	72,32
633,535	69,73
633,771	68,23
634,008	71,4
634,244	71,48
634,48	68,72
634,716	70,15
634,953	69,81
635,189	69,41
635,425	70,88
635,661	72,8
635,897	72,05
636,133	70,37
636,369	69,5
636,605	65,04
636,841	62,42
637,077	64,26
637,313	62,82
637,549	63,36
637,785	61,82
638,021	61,19
638,257	60,69
638,493	62,7
638,729	61,34
638,965	64,31
639,2	66,92
639,436	65,71
639,672	65,77
639,908	64,73
640,144	66,25
640,379	68,26
640,615	65,5
640,851	67,85
641,086	70,14
641,322	66,11
641,558	67,16
641,793	69,4
642,029	67,79
642,264	66,26
642,5	66,71
642,736	64,25
642,971	63,05
643,207	61,91
643,442	59,6
643,678	59,73
643,913	62,75
644,148	61,54
644,384	62,68
644,619	62,6
644,855	63,96
645,09	64,98
645,325	64,3
645,561	64,47
645,796	61,34
646,031	64,86
646,266	62,64
646,502	61,43
646,737	64,04
646,972	63,71
647,207	64,6
647,442	63,43
647,678	61,09
647,913	63,31
648,148	64,12
648,383	61,87
648,618	62,6
648,853	62,63
649,088	63,92
649,323	66,32
649,558	68,6
649,793	69,5
650,028	71,4
650,263	69,36
650,498	71
650,733	72,57
650,968	70,8
651,202	71,61
651,437	71,02
651,672	67,36
651,907	65,69
652,142	66,71
652,376	66,74
652,611	68,6
652,846	69,86
653,081	69,18
653,315	66,99
653,55	67,77
653,785	66,39
654,019	67,17
654,254	66,03
654,488	65,37
654,723	60,86
654,958	57,61
655,192	56,39
655,427	51,63
655,661	54,16
655,896	56,29
656,13	57,16
656,364	53,88
656,599	50,87
656,833	52,11
657,068	52,37
657,302	50,36
657,536	49,46
657,771	51,77
658,005	50,99
658,239	52,69
658,474	49,75
658,708	50,21
658,942	48,92
659,176	47,78
659,41	44,56
659,645	43,59
659,879	43,07
660,113	38,94
660,347	38,65
660,581	35,33
660,815	33,61
661,049	32,85
661,283	30,01
661,517	28,09
661,751	27,38
661,985	26,83
662,219	28,81
662,453	26,82
662,687	29,4
662,921	26,35
663,155	25,34
663,389	19,41
663,622	17,99
663,856	18,36
664,09	14,91
664,324	14,1
664,558	14,85
664,791	13,18
665,025	10,97
665,259	11,88
665,492	10,94
665,726	13,72
665,96	14,02
666,193	13,83
666,427	15,32
666,661	13,78
666,894	11,87
667,128	11,4
667,361	14,14
667,595	14,66
667,828	15,58
668,062	15,83
668,295	15,23
668,529	15,37
668,762	16,4
668,995	15,91
669,229	20,86
669,462	20,84
669,695	22,42
669,929	20,68
670,162	20,27
670,395	18,2
670,629	20,32
670,862	22,57
671,095	19,68
671,328	19,83
671,561	16,42
671,795	17,43
672,028	17,54
672,261	19,5
672,494	19,5
672,727	18,12
672,96	19,43
673,193	18,49
673,426	22,99
673,659	23,46
673,892	24,35
674,125	23,8
674,358	22,87
674,591	21,24
674,824	20,01
675,057	18,42
675,29	17,67
675,523	19,96
675,755	18,99
675,988	19,22
676,221	21,66
676,454	18,49
676,687	20,23
676,919	18,64
677,152	18,72
677,385	18,58
677,617	18,57
677,85	18,82
678,083	15,95
678,315	19,2
678,548	18,85
678,78	18,9
679,013	17,55
679,246	18,54
679,478	17,97
679,711	16,47
679,943	18,38
680,175	14,13
680,408	16,7
680,64	12,39
680,873	13,74
681,105	14,61
681,338	19,41
681,57	19,22
681,802	21,09
682,034	21,37
682,267	24,2
682,499	25,57
682,731	23,9
682,964	21,98
683,196	20,48
683,428	19,21
683,66	18,3
683,892	20,38
684,124	22,22
684,356	24,7
684,589	25,11
684,821	23,21
685,053	21,96
685,285	23,51
685,517	24,37
685,749	24,6
685,981	26,12
686,213	26,2
686,445	25,86
686,676	22,28
686,908	23,29
687,14	21,13
687,372	22,53
687,604	18,78
687,836	19,89
688,068	17,66
688,299	17,38
688,531	13,96
688,763	17,05
688,995	13,51
689,226	17,2
689,458	14,72
689,69	12,95
689,921	10,19
690,153	10,43
690,384	12,76
690,616	11,78
690,848	11,07
691,079	7,18
691,311	4,56
691,542	1,13
691,774	-0,87
692,005	2,81
692,237	8
692,468	6,24
692,699	3,87
692,931	3,93
693,162	0,72
693,393	0,09
693,625	-0,72
693,856	0,97
694,087	1,78
694,319	2,67
694,55	2,66
694,781	2,21
695,012	1,93
695,243	0,99
695,475	0,44
695,706	1,31
695,937	0,6
696,168	1,81
696,399	-2,01
696,63	-1,23
696,861	-0,59
697,092	4,93
697,323	8,52
697,554	7,28
697,785	7,07
698,016	9,33
698,247	8,11
698,478	9,37
698,709	10,6
698,94	13,63
699,171	13,75
699,401	8,86
699,632	11,18
699,863	8,44
700,094	8,04
700,325	11,69
700,555	13,65
700,786	15,42
701,017	15,65
701,247	14,06
701,478	14,96
701,709	14,05
701,939	12,85
702,17	15,85
702,401	18,25
702,631	18,25
702,862	15,91
703,092	13,52
703,323	14,71
703,553	16,77
703,784	17,13
704,014	16,43
704,244	11,31
704,475	10,11
704,705	12,08
704,936	12,7
705,166	11,29
705,396	13,36
705,627	14,68
705,857	15,6
706,087	14,35
706,317	10,7
706,548	8,09
706,778	6,51
707,008	9,41
707,238	9,76
707,468	8,14
707,698	5,74
707,928	4,6
708,158	3,17
708,389	2,56
708,619	0,59
708,849	-0,59
709,079	1,43
709,309	-2,39
709,539	-5,16
709,768	-4,52
709,998	-2,65
710,228	-2,93
710,458	-3,76
710,688	-5,94
710,918	-5,48
711,148	-5,59
711,378	-5,33
711,607	-5,69
711,837	-7,27
712,067	-7,47
712,297	-7,25
712,526	-8
712,756	-7,85
712,986	-11,55
713,215	-12,87
713,445	-10,52
713,674	-8,37
713,904	-8,42
714,134	-6,41
714,363	-7,67
714,593	-8,9
714,822	-8,72
715,052	-9,84
715,281	-7,63
715,511	-8,29
715,74	-9,09
715,969	-10,29
716,199	-11,21
716,428	-10,06
716,657	-10,63
716,887	-7,27
717,116	-9,58
717,345	-8,37
717,575	-8,07
717,804	-8,35
718,033	-10,42
718,262	-10,96
718,492	-10,39
718,721	-10,22
718,95	-9,46
719,179	-11,58
719,408	-10,04
719,637	-12,29
719,866	-13,57
720,095	-11,32
720,324	-12,11
720,553	-15,5
720,782	-16,65
721,011	-15,79
721,24	-17,59
721,469	-17,82
721,698	-16,91
721,927	-17,48
722,156	-17,45
722,385	-19,22
722,613	-15,57
722,842	-13,7
723,071	-9,92
723,3	-7,39
723,529	-8,52
723,757	-6,45
723,986	-11,9
724,215	-11,89
724,443	-11,23
724,672	-8,21
724,901	-7,04
725,129	-4,79
725,358	-2,49
725,586	-3,96
725,815	-4,49
726,043	-5,47
726,272	-7,15
726,5	-8,88
726,729	-8,35
726,957	-11,3
727,186	-12,43
727,414	-10,88
727,642	-9,04
727,871	-7,55
728,099	-9,8
728,327	-10,52
728,556	-7,67
728,784	-6,86
729,012	-8,32
729,241	-6,04
729,469	-6,85
729,697	-10,09
729,925	-10,06
730,153	-10,78
730,381	-11,7
730,61	-11,33
730,838	-14,47
731,066	-12,71
731,294	-11,35
731,522	-13,91
731,75	-18,83
731,978	-20,29
732,206	-21,56
732,434	-21,84
732,662	-20,45
732,89	-22,17
733,118	-24,25
733,346	-22,89
733,573	-23,16
733,801	-21,48
734,029	-15,17
734,257	-14,25
734,485	-11,29
734,712	-10,36
734,94	-11,88
735,168	-6,6
735,396	-6,3
735,623	-8,62
735,851	-8,05
736,078	-6,45
736,306	-5,78
736,534	-5,26
736,761	-4,63
736,989	-5,69
737,216	-7,19
737,444	-9,82
737,671	-8,32
737,899	-2,89
738,126	-5,21
738,354	-5,27
738,581	-3,18
738,809	-1,47
739,036	-1,87
739,263	-1,3
739,491	-3,68
739,718	-3,85
739,945	1,5
740,173	5,87
740,4	4,25
740,627	4,06
740,854	2,77
741,081	-0,19
741,309	-1,32
741,536	-5,02
741,763	-5,59
741,99	-3,83
742,217	-3,7
742,444	-3,86
742,671	-3,15
742,898	-3,16
743,125	-3,79
743,352	-6,89
743,579	-7,22
743,806	-7,24
744,033	-4,59
744,26	-4,4
744,487	-4,33
744,714	-4,7
744,941	-6,07
745,167	-0,94
745,394	-2,73
745,621	-4,63
745,848	-4,01
746,075	-2,53
746,301	0,32
746,528	3,9
746,755	2,33
746,981	0,3
747,208	0,68
747,435	3,98
747,661	5,5
747,888	5,64
748,114	4,17
748,341	5,72
748,567	6,64
748,794	3,62
749,02	2,15
749,247	-2,26
749,473	-2,72
749,7	-2,08
749,926	-3,98
750,152	-0,3
750,379	0,64
750,605	0,3
750,831	-1,1
751,058	-2,08
751,284	-3,76
751,51	-0,94
751,737	1,22
751,963	-0,08
752,189	-0,82
752,415	-0,36
752,641	-0,15
752,867	-0,21
753,094	-1,64
753,32	-3,68
753,546	-4,71
753,772	-2,51
753,998	-3,24
754,224	-5,11
754,45	-5,63
754,676	-7,11
754,902	-7,12
755,128	-6,8
755,354	-7,38
755,579	-5,4
755,805	-3,42
756,031	-4,3
756,257	-3,72
756,483	-3,39
756,709	-5,86
756,934	-4,2
757,16	-6,93
757,386	-7,15
757,612	-9,06
757,837	-9
758,063	-7,93
758,289	-4,12
758,514	-5,53
758,74	-9,97
758,965	-11,67
759,191	-11,29
759,416	-11,09
759,642	-9,71
759,868	-9,8
760,093	-6,22
760,318	-7,52
760,544	-8,49
760,769	-10,24
760,995	-10,28
761,22	-9,83
761,445	-8,37
761,671	-6,08
761,896	-3,84
762,121	-3,83
762,347	-3,24
762,572	-5,91
762,797	-5,9
763,022	-5,68
763,248	-2,41
763,473	-3,78
763,698	-4,66
763,923	-4,63
764,148	-5,61
764,373	-5,37
764,598	-2,78
764,823	-1,34
765,048	-4,33
765,273	-8,43
765,498	-9,58
765,723	-8,86
765,948	-7,61
766,173	-8,59
766,398	-6,92
766,623	-9,44
766,848	-10,91
767,073	-13,39
767,298	-13,29
767,522	-14,36
767,747	-10,92
767,972	-10,48
768,197	-10,32
768,421	-11,84
768,646	-15,79
768,871	-18,52
769,095	-17,85
769,32	-17,63
769,545	-18,1
769,769	-16,33
769,994	-14,84
770,218	-17,28
770,443	-15,58
770,667	-13,54
770,892	-14,32
771,116	-14,94
771,341	-12,34
771,565	-11,11
771,79	-10,33
772,014	-11,02
772,238	-11,54
772,463	-7,91
772,687	-6,58
772,911	-7,1
773,136	-9,06
773,36	-7,64
773,584	-6,08
773,808	-7,4
774,033	-8,23
774,257	-8,23
774,481	-8,18
774,705	-11,31
774,929	-12,07
775,153	-12
775,377	-10,76
775,602	-9,08
775,826	-9,08
776,05	-7,49
776,274	-7,11
776,498	-7,31
776,722	-8,54
776,945	-7,37
777,169	-8,14
777,393	-9,02
777,617	-9,38
777,841	-9,5
778,065	-6,71
778,289	-10,28
778,512	-12,39
778,736	-13,53
778,96	-13,28
779,184	-10,33
779,407	-11,8
779,631	-11,83
779,855	-13,82
780,078	-13,16
780,302	-16,69
780,526	-18,25
780,749	-17,14
780,973	-14,61
781,196	-14,33
781,42	-15,8
781,643	-15,21
781,867	-14,33
782,09	-16,69
782,314	-17,54
782,537	-18,42
782,76	-17,26
782,984	-16,27
783,207	-17,27
783,431	-16,09
783,654	-17,08
783,877	-20,42
784,1	-20,37
784,324	-20,18
784,547	-20,33
784,77	-22,77
784,993	-24,51
785,216	-24,92
785,44	-25,03
785,663	-26,13
785,886	-23,86
786,109	-24,68
786,332	-25,34
786,555	-25,13
786,778	-21,59
787,001	-20,54
787,224	-17,2
787,447	-16,43
787,67	-14,85
787,893	-14,95
788,116	-14,58
788,339	-12,33
788,561	-11,16
788,784	-14,8
789,007	-15,83
789,23	-16,78
789,453	-17,52
789,675	-20,23
789,898	-22,08
790,121	-24,59
790,344	-25,42
790,566	-24,28
790,789	-23,81
791,012	-23,93
791,234	-21,64
791,457	-18,22
791,679	-16,82
791,902	-17,56
792,124	-16,99
792,347	-17,43
792,569	-16,13
792,792	-18,19
793,014	-15,97
793,237	-14,33
793,459	-14,49
793,681	-15,91
793,904	-17,02
794,126	-20,55
794,348	-20,98
794,571	-20,55
794,793	-22,89
795,015	-21,84
795,237	-22,16
795,46	-22,84
795,682	-22
795,904	-18,02
796,126	-18,72
796,348	-18,33
796,57	-14,27
796,792	-13,65
797,014	-9,47
797,237	-6,99
797,459	-4,46
797,681	-2,67
797,903	-4,04
798,124	-3,23
798,346	7,13
798,568	8,74
798,79	13,2
799,012	15,41
799,234	15,67
799,456	15,7
799,678	17,54
799,899	14,28
800,121	11,31
800,343	10,67
800,565	10,23
800,786	10,85
801,008	13,33
801,23	13,13
801,451	13,35
801,673	12,49
801,895	11,34
802,116	12,77
802,338	13,58
802,559	13,03
802,781	10,31
803,002	12,35
803,224	14,09
803,445	11,26
803,667	11,65
803,888	11,41
804,109	11,12
804,331	9,51
804,552	9,1
804,773	11,32
804,995	7,89
805,216	-5,47
805,437	-7,51
805,658	-10,48
805,88	-11,74
806,101	-9,78
806,322	-10,7
806,543	-10,52
806,764	-11,17
806,985	-9,08
807,207	-7,91
807,428	-6,37
807,649	-9,78
807,87	-11,2
808,091	-10,61
808,312	-11,02
808,533	-6
808,754	-4,85
808,975	-7,85
809,195	-6,38
809,416	-5,15
809,637	-6,43
809,858	-9,08
810,079	-10,05
810,3	-8,25
810,52	-8,67
810,741	-12,32
810,962	-14,46
811,183	-15,2
811,403	-13,37
811,624	-13,8
811,845	-12,9
812,065	-12,04
812,286	-11,47
812,506	-11,94
812,727	-11,92
812,948	-11,74
813,168	-8,58
813,389	-11,24
813,609	-9,82
813,83	-10,63
814,05	-12,81
814,27	-12,09
814,491	-7,89
814,711	-8,91
814,931	-10,49
815,152	-10,92
815,372	-12,81
815,592	-12,16
815,813	-12,21
816,033	-13,31
816,253	-11,82
816,473	-12,1
816,694	-10,99
816,914	-9,48
817,134	-9,25
817,354	-11,91
817,574	-10,7
817,794	-10,41
818,014	-11,92
818,234	-14,6
818,454	-15,67
818,674	-16,91
818,894	-18,4
819,114	-14,77
819,334	-14,06
819,554	-13,03
819,774	-11,16
819,994	-13,7
820,214	-13,57
820,433	-13,24
820,653	-13,89
820,873	-10,76
821,093	-10,73
821,312	-12,76
821,532	-11,06
821,752	-8,92
821,972	-10,3
822,191	-8,87
822,411	-11,08
822,63	-10,95
822,85	-11,68
823,07	-15,52
823,289	-14,11
823,509	-14,11
823,728	-12,75
823,948	-13,77
824,167	-14,84
824,387	-15,44
824,606	-13,82
824,825	-13,53
825,045	-12,22
825,264	-12,02
825,483	-10,7
825,703	-9,76
825,922	-14,27
826,141	-15,88
826,361	-16,34
826,58	-20,42
826,799	-22,19
827,018	-20,66
827,237	-19,87
827,456	-18,96
827,676	-18,78
827,895	-18,75
828,114	-17,93
828,333	-16,97
828,552	-17,59
828,771	-15,59
828,99	-18,34
829,209	-17,46
829,428	-14,1
829,647	-13,76
829,866	-11,09
830,084	-11,81
830,303	-11,31
830,522	-12,47
830,741	-12,93
830,96	-10,37
831,179	-8,53
831,397	-11,21
831,616	-11,37
831,835	-12,44
832,053	-12,71
832,272	-12,18
832,491	-10,91
832,709	-11,19
832,928	-9,48
833,147	-9,53
833,365	-8,25
833,584	-4,38
833,802	-2,59
834,021	-3,33
834,239	-1,76
834,458	-3,27
834,676	-7,17
834,894	-7,99
835,113	-9,77
835,331	-10,73
835,55	-11,31
835,768	-9,85
835,986	-9,66
836,204	-12,35
836,423	-11,11
836,641	-12,71
836,859	-12,27
837,077	-12,2
837,296	-12,31
837,514	-12,93
837,732	-14,06
837,95	-15,59
838,168	-12,05
838,386	-12
838,604	-10,4
838,822	-9,71
839,04	-10,96
839,258	-10,11
839,476	-7,53
839,694	-9,07
839,912	-10,95
840,13	-12,9
840,348	-11,26
840,566	-14,71
840,783	-13,32
841,001	-15,6
841,219	-14,6
841,437	-12,46
841,655	-10,94
841,872	-9,61
842,09	-9,81
842,308	-8,95
842,525	-8,47
842,743	-7
842,961	-8,29
843,178	-11,23
843,396	-6,99
843,613	-6,91
843,831	-5,86
844,048	-6,66
844,266	-5,85
844,483	-6,86
844,701	-7,93
844,918	-8,71
845,136	-9,01
845,353	-9,9
845,57	-8,07
845,788	-5,55
846,005	-8,34
846,222	-9,55
846,439	-7,43
846,657	-6,43
846,874	-4,21
847,091	-5,96
847,308	-3,75
847,526	-5,69
847,743	-5,67
847,96	-8,12
848,177	-8,07
848,394	-9,4
848,611	-11,76
848,828	-11,21
849,045	-12,65
849,262	-13,98
849,479	-14,24
849,696	-15,13
849,913	-15,44
850,13	-20,76
850,347	-17,26
850,564	-18,55
850,78	-20,31
850,997	-21,78
851,214	-20,99
851,431	-20,15
851,647	-22,33
851,864	-21,44
852,081	-18,72
852,298	-22,4
852,514	-24,17
852,731	-22,61
852,948	-19,53
853,164	-18,23
853,381	-18,76
853,597	-20,45
853,814	-23,94
854,03	-26,64
854,247	-24,02
854,463	-23,28
854,68	-23,03
854,896	-22,77
855,113	-21,75
855,329	-19,82
855,545	-18,53
855,762	-19,94
855,978	-23,11
856,194	-25,85
856,411	-21,57
856,627	-20,05
856,843	-18,18
857,059	-17,45
857,275	-17,96
857,492	-15,49
857,708	-12,04
857,924	-10,81
858,14	-8,28
858,356	-9,28
858,572	-10,4
858,788	-12,12
859,004	-10,34
859,22	-12,21
859,436	-12,99
859,652	-16,2
859,868	-18,1
860,084	-17,76
860,3	-17,79
860,516	-17,32
860,731	-16,76
860,947	-18,94
861,163	-17,81
861,379	-16,02
861,595	-15,31
861,81	-15,19
862,026	-14,83
862,242	-15,01
862,457	-12,78
862,673	-10,47
862,889	-9,71
863,104	-10,82
863,32	-10,1
863,535	-9,89
863,751	-14,61
863,966	-11,52
864,182	-10,71
864,397	-12,21
864,613	-14,32
864,828	-16,28
865,044	-15,1
865,259	-12
865,474	-13,23
865,69	-12,13
865,905	-10,56
866,12	-11,32
866,336	-10,21
866,551	-9,71
866,766	-11,8
866,981	-11,6
867,196	-10,12
867,412	-9,74
867,627	-9,38
867,842	-10,76
868,057	-11,85
868,272	-12,33
868,487	-12,91
868,702	-15,13
868,917	-14,55
869,132	-14,32
869,347	-13,33
869,562	-14,98
869,777	-14,98
869,992	-16,3
870,207	-16,41
870,422	-16,26
870,636	-18,32
870,851	-20,68
871,066	-23,05
871,281	-22,23
871,495	-22,71
871,71	-19,67
871,925	-22,95
872,14	-23,6
872,354	-27,1
872,569	-28,61
872,783	-27,41
872,998	-27,9
873,213	-27,79
873,427	-23,59
873,642	-21,99
873,856	-22,19
874,071	-22,25
874,285	-23,22
874,5	-24,93
874,714	-27,86
874,928	-28,88
875,143	-29,95
875,357	-30,53
875,571	-32,5
875,786	-32,2
876	-28,53
876,214	-26,52
876,429	-28,86
876,643	-27,38
876,857	-25,07
877,071	-23,44
877,285	-25,11
877,499	-27,66
877,714	-23,99
877,928	-22,34
878,142	-24,16
878,356	-26,32
878,57	-25,06
878,784	-24,79
878,998	-23,78
879,212	-18,23
879,426	-20,89
879,639	-18,6
879,853	-19,35
880,067	-20,59
880,281	-22,46
880,495	-21,36
880,709	-19,41
880,922	-19,73
881,136	-17,19
881,35	-13,47
881,564	-12,54
881,777	-13,98
881,991	-12,34
882,205	-9,06
882,418	-8,74
882,632	-14,11
882,845	-14,43
883,059	-13,54
883,273	-15,15
883,486	-18,12
883,7	-17,45
883,913	-17,51
884,126	-15,27
884,34	-18,49
884,553	-21,56
884,767	-17,45
884,98	-17,11
885,193	-17,78
885,407	-16,39
885,62	-14,84
885,833	-18,39
886,046	-15,91
886,26	-18,31
886,473	-19,22
886,686	-19,14
886,899	-17,09
887,112	-19,11
887,326	-20,98
887,539	-19,13
887,752	-18,83
887,965	-20,3
888,178	-19,98
888,391	-19,3
888,604	-19,79
888,817	-21,93
889,03	-21,27
889,243	-21,34
889,455	-23,5
889,668	-22,49
889,881	-18,06
890,094	-18,35
890,307	-20
890,52	-17,65
890,732	-15,94
890,945	-16,27
891,158	-13,96
891,37	-16,65
891,583	-16,65
891,796	-15,97
892,008	-18,41
892,221	-18,26
892,434	-20,57
892,646	-21,95
892,859	-23,37
893,071	-21,19
893,284	-20
893,496	-20,85
893,709	-19,51
893,921	-17,91
894,133	-18,61
894,346	-18,45
894,558	-19,78
894,771	-18,78
894,983	-15,62
895,195	-14,51
895,407	-14,39
895,62	-16,69
895,832	-14,9
896,044	-13,27
896,256	-15,01
896,468	-18,38
896,681	-16,69
896,893	-16,26
897,105	-16,3
897,317	-17,59
897,529	-15,76
897,741	-15,4
897,953	-12,54
898,165	-14,31
898,377	-16,47
898,589	-14,68
898,801	-16,13
899,013	-14,49
899,224	-11,1
899,436	-7,68
899,648	-9,68
899,86	-11,73
900,072	-9,31
900,283	-8,94
900,495	-8,81
900,707	-7,84
900,919	-10,62
901,13	-8,42
901,342	-11,37
901,554	-12,8
901,765	-12,69
901,977	-14,38
902,188	-14,85
902,4	-16,52
902,611	-16,28
902,823	-16,76
903,034	-18,15
903,246	-19,85
903,457	-20,53
903,669	-22,78
903,88	-22,62
904,091	-22,64
904,303	-22,75
904,514	-24,92
904,725	-23,64
904,936	-21,99
905,148	-21,43
905,359	-18,74
905,57	-18,92
905,781	-21,06
905,992	-21,46
906,204	-20,72
906,415	-20,61
906,626	-23,05
906,837	-21,4
907,048	-22,69
907,259	-23,04
907,47	-23,66
907,681	-25,72
907,892	-22,84
908,103	-23,12
908,314	-24,75
908,525	-21,57
908,735	-21,37
908,946	-22,74
909,157	-22,69
909,368	-19,46
909,579	-18,59
909,789	-18,75
910	-20,11
910,211	-16,82
910,421	-17,87
910,632	-16,6
910,843	-18,75
911,053	-15,31
911,264	-12,05
911,475	-12,97
911,685	-14,35
911,896	-14,85
912,106	-13,98
912,317	-16,85
912,527	-15,98
912,737	-16,54
912,948	-15,74
913,158	-14,19
913,369	-17,79
913,579	-15,35
913,789	-15,64
914	-12,44
914,21	-11,94
914,42	-12,1
914,63	-12,34
914,841	-12,35
915,051	-12,34
915,261	-11,83
915,471	-8,07
915,681	-8,3
915,891	-8,86
916,101	-10,14
916,311	-9,53
916,521	-8,78
916,731	-7,69
916,941	-5,31
917,151	-7,58
917,361	-5,51
917,571	-8,89
917,781	-11,17
917,991	-12,85
918,201	-11,58
918,411	-14,13
918,621	-14,58
918,83	-12,93
919,04	-14,75
919,25	-12,68
919,46	-11,32
919,669	-14,78
919,879	-13,5
920,089	-15,83
920,298	-16,38
920,508	-15,5
920,717	-13,67
920,927	-14,24
921,136	-13,42
921,346	-14,86
921,555	-17,63
921,765	-17,87
921,974	-20,15
922,184	-21,5
922,393	-22,88
922,603	-23,25
922,812	-21,25
923,021	-20,44
923,23	-24,23
923,44	-26,09
923,649	-26,09
923,858	-27,27
924,067	-27,55
924,277	-30,74
924,486	-28,15
924,695	-29,06
924,904	-27,05
925,113	-26,85
925,322	-24,87
925,531	-24,96
925,74	-26,22
925,949	-27,71
926,158	-24,49
926,367	-24,15
926,576	-23,71
926,785	-24,52
926,994	-25,98
927,203	-27,19
927,412	-28,92
927,621	-31,73
927,83	-27,57
928,038	-26,72
928,247	-26,09
928,456	-26,18
928,665	-25,15
928,873	-24,18
929,082	-22,33
929,291	-21,3
929,499	-19,54
929,708	-20,53
929,916	-19,59
930,125	-19,54
930,333	-19,8
930,542	-16,41
930,75	-11,51
930,959	-11,68
931,167	-11,95
931,376	-12,66
931,584	-11,48
931,793	-12,47
932,001	-12,79
932,209	-16,55
932,418	-18,87
932,626	-21,53
932,834	-23,37
933,042	-25,18
933,251	-25,54
933,459	-27,25
933,667	-26,99
933,875	-25,95
934,083	-23,06
934,291	-22,49
934,499	-20,94
934,707	-22,19
934,915	-22,11
935,123	-21,07
935,331	-21,26
935,539	-23,86
935,747	-27,24
935,955	-28,25
936,163	-27,55
936,371	-28,45
936,579	-27,22
936,787	-26,4
936,995	-29,69
937,202	-33,23
937,41	-32,05
937,618	-32,82
937,826	-31,56
938,033	-35,62
938,241	-36,5
938,449	-34,73
938,656	-32,09
938,864	-31,3
939,071	-30,6
939,279	-27,16
939,486	-23,82
939,694	-23,34
939,901	-23,75
940,109	-22,92
940,316	-22,64
940,524	-24,03
940,731	-26,58
940,939	-26,09
941,146	-24,91
941,353	-26,07
941,561	-25,35
941,768	-25,84
941,975	-23,93
942,182	-24,12
942,39	-24,32
942,597	-20,31
942,804	-20,02
943,011	-20,85
943,218	-21,16
943,425	-20,83
943,632	-17,81
943,839	-19,43
944,046	-19
944,253	-18,96
944,46	-18,28
944,667	-14,68
944,874	-15,58
945,081	-12,53
945,288	-10,98
945,495	-8,43
945,702	-9,17
945,909	-12,99
946,115	-11,72
946,322	-11,99
946,529	-12,56
946,736	-13,61
946,942	-10,78
947,149	-11,45
947,356	-13,65
947,562	-15,63
947,769	-14,31
947,976	-15,3
948,182	-13,86
948,389	-14,4
948,595	-13,22
948,802	-12,58
949,008	-14,97
949,215	-13,59
949,421	-13,94
949,628	-14,88
949,834	-13,06
950,04	-16,11
950,247	-12,64
950,453	-10,91
950,659	-12,76
950,865	-11,39
951,072	-15,52
951,278	-11,97
951,484	-14,66
951,69	-18,54
951,896	-20,45
952,103	-21,28
952,309	-18,94
952,515	-18,87
952,721	-17
952,927	-16,67
953,133	-16,71
953,339	-19,53
953,545	-19,94
953,751	-18,45
953,957	-15,29
954,163	-18,27
954,369	-18,82
954,574	-21,29
954,78	-20,76
954,986	-19,58
955,192	-18,98
955,398	-19,88
955,603	-23,46
955,809	-21,29
956,015	-19,8
956,22	-20,08
956,426	-17,77
956,632	-20,32
956,837	-20,75
957,043	-20,21
957,248	-19,21
957,454	-19,18
957,66	-23,2
957,865	-23,62
958,07	-20,45
958,276	-21,62
958,481	-23,82
958,687	-25,39
958,892	-25,96
959,097	-25,86
959,303	-25,61
959,508	-26,43
959,713	-25,99
959,919	-26,31
960,124	-28,4
960,329	-27,93
960,534	-23,48
960,739	-22,03
960,945	-19,66
961,15	-21,09
961,355	-21,64
961,56	-24,8
961,765	-26,38
961,97	-25,04
962,175	-22,76
962,38	-25,98
962,585	-25,83
962,79	-27,04
962,995	-28,51
963,2	-29,75
963,404	-30,66
963,609	-32,83
963,814	-33,89
964,019	-37,09
964,224	-38,07
964,428	-36,29
964,633	-35
964,838	-32,63
965,042	-31,97
965,247	-34,42
965,452	-33,63
965,656	-33,41
965,861	-32,3
966,066	-32,79
966,27	-29,61
966,475	-24,07
966,679	-29,39
966,884	-28,38
967,088	-30,29
967,292	-31,29
967,497	-29,17
967,701	-31,46
967,906	-29,96
968,11	-27,4
968,314	-22,63
968,518	-25,85
968,723	-23,69
968,927	-22,7
969,131	-22,97
969,335	-20,36
969,539	-20,62
969,744	-18,19
969,948	-15,57
970,152	-13,99
970,356	-10,62
970,56	-10,27
970,764	-11,03
970,968	-9,73
971,172	-9,75
971,376	-8,78
971,58	-6,58
971,784	-7,02
971,988	-9,06
972,192	-6,64
972,395	-7,19
972,599	-10,06
972,803	-13,07
973,007	-10,08
973,21	-10,89
973,414	-11,16
973,618	-10,71
973,822	-11,69
974,025	-9,59
974,229	-10,2
974,432	-12,69
974,636	-16,49
974,84	-15,2
975,043	-14,12
975,247	-16,67
975,45	-17,81
975,654	-16,51
975,857	-14,83
976,06	-15,74
976,264	-17,59
976,467	-15,39
976,671	-17,26
976,874	-15,64
977,077	-17,88
977,28	-17,22
977,484	-20,13
977,687	-19,9
977,89	-18,2
978,093	-17,94
978,297	-15,78
978,5	-19,07
978,703	-17,57
978,906	-16,11
979,109	-15,96
979,312	-14,42
979,515	-15,02
979,718	-16,12
979,921	-16,55
980,124	-17,86
980,327	-19,15
980,53	-19,11
980,733	-16,38
980,936	-13,79
981,138	-15,82
981,341	-15,68
981,544	-14,43
981,747	-14,13
981,949	-16,77
982,152	-14,57
982,355	-15,47
982,558	-12,55
982,76	-16,56
982,963	-16,38
983,165	-16,53
983,368	-15,96
983,571	-17,19
983,773	-13,61
983,976	-13,5
984,178	-14,38
984,381	-16,32
984,583	-19,52
984,785	-17,8
984,988	-15,91
985,19	-13,71
985,392	-14,77
985,595	-18,15
985,797	-17,06
985,999	-13,45
986,202	-11,3
986,404	-10,93
986,606	-6,49
986,808	-6,88
987,01	-6,71
987,212	-7,85
987,415	-9,24
987,617	-8,96
987,819	-11,07
988,021	-11,07
988,223	-11,39
988,425	-13,74
988,627	-13,53
988,829	-17,43
989,031	-14,13
989,232	-14,14
989,434	-13,37
989,636	-11,52
989,838	-11,97
990,04	-11,03
990,242	-12,94
990,443	-14,31
990,645	-10,93
990,847	-7
991,048	-6,37
991,25	-8,15
991,452	-10,22
991,653	-12,78
991,855	-13,17
992,057	-15,1
992,258	-14,65
992,46	-14,91
992,661	-14,21
992,863	-16,98
993,064	-15,03
993,265	-16,39
993,467	-18,56
993,668	-15,01
993,87	-15,47
994,071	-14,93
994,272	-13,61
994,473	-12,92
994,675	-10,87
994,876	-11,07
995,077	-11,57
995,278	-11,39
995,48	-10,37
995,681	-12,09
995,882	-12,88
996,083	-13,27
996,284	-17,17
996,485	-16,34
996,686	-17,98
996,887	-20,23
997,088	-24,52
997,289	-25,74
997,49	-25,95
997,691	-26,22
997,892	-24,61
998,092	-19,16
998,293	-18,6
998,494	-19,88
998,695	-22,21
998,896	-20,26
999,096	-20,98
999,297	-21,94
999,498	-22,32
999,698	-23,45
999,899	-26,89
1000,1	-28,17
1000,3	-26,74
1000,501	-26,61
1000,701	-26,89
1000,902	-29,72
1001,102	-28,69
1001,303	-26,17
1001,503	-28,03
1001,704	-27,8
1001,904	-28,87
1002,105	-28,77
1002,305	-28,76
1002,505	-30,28
1002,706	-31,64
1002,906	-30,37
1003,106	-30,53
1003,306	-28,58
1003,507	-28,1
1003,707	-28,82
1003,907	-25,99
1004,107	-25,25
1004,307	-28,39
1004,507	-26,68
1004,707	-26,01
1004,907	-25,76
1005,107	-25,81
1005,308	-24,92
1005,507	-25,62
1005,707	-23,49
1005,907	-23,33
1006,107	-20,59
1006,307	-20,68
1006,507	-22,17
1006,707	-21,51
1006,907	-20,97
1007,106	-22,26
1007,306	-23,55
1007,506	-22,77
1007,706	-22,53
1007,905	-25,57
1008,105	-24,6
1008,305	-25,27
1008,504	-24,03
1008,704	-17,88
1008,903	-17,43
1009,103	-15,25
1009,303	-17,15
1009,502	-15,8
1009,702	-17,48
1009,901	-17,5
1010,1	-21,74
1010,3	-20,57
1010,499	-21
1010,699	-22,95
1010,898	-26,4
1011,097	-26,36
1011,296	-26,79
1011,496	-28,99
1011,695	-28,86
1011,894	-30,89
1012,093	-27,83
1012,293	-27,66
1012,492	-26,96
1012,691	-27,99
1012,89	-29,91
1013,089	-32,66
1013,288	-29,94
1013,487	-28,71
1013,686	-28,31
1013,885	-29,58
1014,084	-27,84
1014,283	-28,14
1014,482	-28,69
1014,681	-28,99
1014,88	-32,85
1015,078	-31,03
1015,277	-34,64
1015,476	-36,01
1015,675	-37,28
1015,873	-34,94
1016,072	-36,7
1016,271	-31,57
1016,47	-34,58
1016,668	-33,29
1016,867	-34,75
1017,065	-34,18
1017,264	-35,08
1017,463	-35,18
1017,661	-34,74
1017,86	-34,25
1018,058	-32,74
1018,256	-33,59
1018,455	-35
1018,653	-34,05
1018,852	-32,71
1019,05	-33,78
1019,248	-34,12
1019,447	-34,52
1019,645	-36,28
1019,843	-38,55
1020,041	-36,77
1020,24	-36,72
1020,438	-33,17
1020,636	-33,49
1020,834	-35,48
1021,032	-33,35
1021,23	-33,93
1021,428	-30,81
1021,626	-26,05
1021,824	-26,79
1022,022	-28,17
1022,22	-24,85
1022,418	-25,7
1022,616	-26,54
1022,814	-27,48
1023,012	-26,88
1023,21	-24,55
1023,408	-24,84
1023,606	-26,2
1023,803	-20,77
1024,001	-21,38
1024,199	-23,66
1024,397	-23,65
1024,594	-25,5
1024,792	-27,32
1024,99	-26,44
1025,187	-26,67
1025,385	-22,54
1025,582	-23,81
1025,78	-24,02
1025,977	-23,95
1026,175	-24,37
1026,372	-24,04
1026,57	-26,21
1026,767	-23,72
1026,965	-23,69
1027,162	-23,04
1027,359	-23,79
1027,557	-23,65
1027,754	-26,29
1027,951	-26,3
1028,148	-24,7
1028,346	-26,62
1028,543	-29,98
1028,74	-29,88
1028,937	-32,46
1029,134	-32,37
1029,331	-35,02
1029,528	-33,86
1029,725	-34,9
1029,923	-38,23
1030,12	-34,26
1030,317	-33,27
1030,513	-33,07
1030,71	-29,92
1030,907	-26,51
1031,104	-27,24
1031,301	-26,21
1031,498	-27,19
1031,695	-27,31
1031,892	-25,35
1032,088	-23,73
1032,285	-25,49
1032,482	-25,37
1032,678	-28,5
1032,875	-30,59
1033,072	-29,57
1033,268	-30,49
1033,465	-29,65
1033,662	-31,33
1033,858	-31,39
1034,055	-30,19
1034,251	-27,1
1034,448	-27,1
1034,644	-26,02
1034,84	-23,15
1035,037	-20,1
1035,233	-18,99
1035,43	-16,09
1035,626	-16,98
1035,822	-14,73
1036,019	-16,9
1036,215	-21,85
1036,411	-23,76
1036,607	-25,07
1036,803	-28,86
1037	-30,91
1037,196	-30,88
1037,392	-31,64
1037,588	-32,63
1037,784	-30,37
1037,98	-32,74
1038,176	-33,92
1038,372	-33,23
1038,568	-32,26
1038,764	-29,72
1038,96	-27,01
1039,156	-27,71
1039,352	-28,54
1039,547	-28,35
1039,743	-28,31
1039,939	-25,92
1040,135	-26,36
1040,331	-29,29
1040,526	-26,99
1040,722	-28,86
1040,918	-30,09
1041,113	-33,74
1041,309	-35,83
1041,505	-38,22
1041,7	-37,38
1041,896	-38,66
1042,091	-38,66
1042,287	-37,89
1042,482	-35,92
1042,678	-35,64
1042,873	-33,42
1043,069	-33,82
1043,264	-34,28
1043,459	-33,18
1043,655	-32,76
1043,85	-35,1
1044,045	-32,94
1044,24	-32,98
1044,436	-31,54
1044,631	-32,78
1044,826	-33,59
1045,021	-37,5
1045,216	-37,62
