Data from led_4000k_2_FLMT021711__7__17-33-04-539.txt Node

Date: Tue Nov 05 17:33:04 CET 2024
User: Etudiants TP
Spectrometer: FLMT02171
Trigger mode: 0
Integration Time (sec): 1.000000E-1
Scans to average: 5
Electric dark correction enabled: true
Nonlinearity correction enabled: true
Boxcar width: 15
XAxis mode: Wavelengths
Number of Pixels in Spectrum: 3648
>>>>>Begin Spectral Data<<<<<
194.658	-64.47
194.923	-62.2
195.188	-55.12
195.453	-55.41
195.717	-49.17
195.982	-47.84
196.247	-46.68
196.512	-48.8
196.777	-46.74
197.042	-45.61
197.307	-45.3
197.572	-40.46
197.837	-41.35
198.101	-38.8
198.366	-36.55
198.631	-35.6
198.896	-29.85
199.161	-22.52
199.425	-15.54
199.69	-5.66
199.955	-5.72
200.22	-8.28
200.484	-8.99
200.749	-10.28
201.014	-7.56
201.278	-7.66
201.543	-7.02
201.807	-7.09
202.072	-5.38
202.337	-5.86
202.601	-6.93
202.866	-8.5
203.13	-6.85
203.395	-9.11
203.659	-8.69
203.924	-11.02
204.189	-10.59
204.453	-8.13
204.717	-5.87
204.982	-6.13
205.246	-3.92
205.511	-2.35
205.775	-3.92
206.04	2.51
206.304	2.84
206.568	4.5
206.833	5.88
207.097	5.93
207.361	6.96
207.626	11.24
207.89	11.87
208.154	13.89
208.419	15.1
208.683	15.96
208.947	18.55
209.211	17.07
209.476	16.3
209.74	16.48
210.004	16.35
210.268	16.97
210.532	21.81
210.796	22
211.061	22.52
211.325	21.88
211.589	21.56
211.853	22.66
212.117	24.27
212.381	24.56
212.645	24.65
212.909	24.96
213.173	23.85
213.437	23.39
213.701	24.42
213.965	25.64
214.229	19.68
214.493	19.46
214.757	18.88
215.021	17.41
215.285	23.17
215.549	25.7
215.813	21.9
216.077	21.07
216.34	22.44
216.604	21.4
216.868	22.18
217.132	22.66
217.396	20.98
217.659	22.04
217.923	17.86
218.187	18.21
218.451	17.92
218.714	15.26
218.978	16.62
219.242	20.06
219.505	21.24
219.769	22.55
220.033	22.74
220.296	22.07
220.56	23.1
220.824	19.61
221.087	19.76
221.351	20.05
221.614	19.91
221.878	20.86
222.142	18.94
222.405	19.51
222.669	22.04
222.932	18.26
223.196	16.92
223.459	12.67
223.722	12.98
223.986	11.99
224.249	10.24
224.513	10.49
224.776	10.31
225.04	10.76
225.303	9.63
225.566	9.49
225.83	10.84
226.093	15.22
226.356	14.01
226.62	12.68
226.883	13.43
227.146	12.39
227.409	9.8
227.673	8.13
227.936	6.43
228.199	6.58
228.462	5.09
228.725	4.5
228.989	4.69
229.252	6.2
229.515	10.38
229.778	8.53
230.041	7.28
230.304	5.27
230.567	7.64
230.83	4.75
231.093	6.64
231.356	7.83
231.619	13.01
231.882	12.38
232.145	16.15
232.408	15.76
232.671	15.26
232.934	15.29
233.197	12.87
233.46	11.13
233.723	13.41
233.986	13.22
234.249	11.2
234.512	13.35
234.775	15.92
235.037	14.89
235.3	15.46
235.563	16.49
235.826	17.27
236.089	19.7
236.351	19.51
236.614	22.05
236.877	21.46
237.14	23.87
237.402	22.64
237.665	16.75
237.928	15.77
238.19	12.67
238.453	15.41
238.716	14.07
238.978	14.96
239.241	14.19
239.503	16.6
239.766	12.9
240.029	10.82
240.291	11.69
240.554	11.4
240.816	10.93
241.079	11.38
241.341	11.06
241.604	11.63
241.866	8.52
242.129	8.24
242.391	10.21
242.653	8.32
242.916	8.68
243.178	7.62
243.441	8.57
243.703	7.14
243.965	4.48
244.228	3.88
244.49	3.29
244.752	4.9
245.015	5.96
245.277	8.4
245.539	8.58
245.801	10.37
246.064	11.23
246.326	10.8
246.588	9.91
246.85	12.06
247.112	11.16
247.374	13.21
247.637	13.17
247.899	12.16
248.161	12.47
248.423	8.43
248.685	10.31
248.947	8.74
249.209	8.22
249.471	10.14
249.733	10.49
249.995	10.62
250.257	9.86
250.519	7.4
250.781	10.08
251.043	7.26
251.305	9.6
251.567	10.99
251.829	11.7
252.091	13.06
252.353	9.9
252.615	10.5
252.876	7.39
253.138	6.59
253.4	2.73
253.662	2.97
253.924	5.8
254.185	7.54
254.447	8.67
254.709	7.13
254.971	8.81
255.232	11.67
255.494	9.79
255.756	8.67
256.017	9.99
256.279	10.42
256.541	10.58
256.802	9.68
257.064	10.34
257.326	9.4
257.587	9.43
257.849	9.85
258.11	12.17
258.372	13.83
258.633	15.81
258.895	15.35
259.156	14.27
259.418	13.02
259.679	8.23
259.941	7.38
260.202	8.68
260.464	10.37
260.725	9.04
260.987	8.43
261.248	6.38
261.509	7.31
261.771	4.84
262.032	5.8
262.293	5.44
262.555	6.04
262.816	6
263.077	1.94
263.338	-0.55
263.6	-0.26
263.861	-1.44
264.122	-1.9
264.383	0.22
264.645	2.09
264.906	0.71
265.167	2.81
265.428	2.31
265.689	2.03
265.95	0.08
266.211	-0.5
266.473	-2.32
266.734	-5.35
266.995	-9.73
267.256	-8.28
267.517	-6.02
267.778	-1.92
268.039	-1.5
268.3	-2.55
268.561	-4.83
268.822	-2.12
269.083	-3.8
269.344	-4.5
269.604	-5.69
269.865	-3.99
270.126	-8.8
270.387	-7.95
270.648	-7.52
270.909	-5.95
271.17	-6.4
271.43	-10.09
271.691	-12.79
271.952	-12.74
272.213	-11.59
272.473	-14.1
272.734	-13.47
272.995	-10.85
273.256	-10.13
273.516	-6.79
273.777	-8.97
274.038	-5.86
274.298	-7.02
274.559	-6.94
274.82	-3.13
275.08	0.02
275.341	2.37
275.601	1.26
275.862	-1.32
276.122	-0.5
276.383	1.12
276.643	4.98
276.904	4.34
277.164	6.61
277.425	7.86
277.685	10.66
277.946	11.14
278.206	12.89
278.467	14.83
278.727	14.8
278.987	13.45
279.248	13.68
279.508	15.87
279.768	19.52
280.029	20.95
280.289	16.85
280.549	15.49
280.81	15.41
281.07	13.42
281.33	14.51
281.59	12.44
281.851	16
282.111	14.5
282.371	12.73
282.631	14.53
282.891	13.47
283.151	13.19
283.412	11.21
283.672	10.24
283.932	11.04
284.192	12.64
284.452	9.73
284.712	7.28
284.972	6.2
285.232	4.26
285.492	6.48
285.752	5.05
286.012	10.8
286.272	12.12
286.532	9.17
286.792	9.96
287.052	10.46
287.312	10.6
287.571	10.28
287.831	10.28
288.091	7.46
288.351	8.98
288.611	12.5
288.871	11.86
289.13	11.9
289.39	7.9
289.65	9.87
289.91	7.73
290.17	10.2
290.429	13.79
290.689	11.99
290.949	8.96
291.208	9.98
291.468	12.06
291.728	12.75
291.987	13.56
292.247	11.03
292.506	13.92
292.766	15.07
293.026	13.43
293.285	15.02
293.545	17.83
293.804	18.64
294.064	14.36
294.323	12.93
294.583	13.38
294.842	12.95
295.102	14.61
295.361	15.42
295.621	15.82
295.88	15.41
296.139	15.04
296.399	15.05
296.658	11.18
296.917	11.65
297.177	7.98
297.436	8.74
297.695	6.26
297.955	7.64
298.214	4.8
298.473	6.73
298.732	9.25
298.992	11.32
299.251	9.68
299.51	6.33
299.769	7.02
300.028	7.79
300.287	9.19
300.547	8.58
300.806	7.49
301.065	10.69
301.324	12.88
301.583	9.24
301.842	5.05
302.101	2.73
302.36	2.89
302.619	2.41
302.878	3.4
303.137	1.07
303.396	2.29
303.655	3.73
303.914	0.59
304.173	1.11
304.432	2.04
304.691	3.72
304.95	0.29
305.208	6.82
305.467	7.63
305.726	7.06
305.985	7.92
306.244	10.07
306.503	8.09
306.761	5.55
307.02	2.93
307.279	3.08
307.537	3.07
307.796	0.32
308.055	-1.59
308.314	-1.37
308.572	-2.76
308.831	-2.14
309.09	-0.8
309.348	-1.54
309.607	-3.13
309.865	0.94
310.124	1.59
310.382	3.89
310.641	5.79
310.9	3.55
311.158	4.18
311.417	3.12
311.675	2.74
311.933	5.86
312.192	7.71
312.45	7.64
312.709	8.87
312.967	9.88
313.226	8.69
313.484	7.4
313.742	6.84
314.001	4.51
314.259	3.44
314.517	5.22
314.776	7.71
315.034	10.9
315.292	9.28
315.55	8.82
315.809	8.68
316.067	7.97
316.325	6.35
316.583	7.39
316.841	6.9
317.1	4.63
317.358	1.32
317.616	0.98
317.874	-0.75
318.132	-0.93
318.39	-1.92
318.648	-3.47
318.906	-2.51
319.164	-2.44
319.422	-3.16
319.68	-4.58
319.938	-6.11
320.196	-6.71
320.454	-5.73
320.712	-6.56
320.97	-6.28
321.228	-7.43
321.486	-5.62
321.744	-4.7
322.002	-3.01
322.26	-4.26
322.517	-5.88
322.775	-9.46
323.033	-10.77
323.291	-7.45
323.549	-7.27
323.806	-5.55
324.064	-4.48
324.322	-3.16
324.58	-4.99
324.837	-3.39
325.095	-5.2
325.353	-2.26
325.61	-0.52
325.868	-0.41
326.126	1.51
326.383	0.63
326.641	-0.34
326.898	0.68
327.156	1.26
327.413	1.97
327.671	2.77
327.928	6.1
328.186	7.24
328.443	5.22
328.701	9.28
328.958	10.57
329.216	10.1
329.473	7.71
329.731	8.98
329.988	9.68
330.245	12.36
330.503	14.68
330.76	16.03
331.017	18.36
331.275	15.84
331.532	16.86
331.789	14.8
332.047	14.71
332.304	11.19
332.561	13
332.818	12.49
333.076	14.08
333.333	14.39
333.59	14.49
333.847	16.18
334.104	14.64
334.361	13.7
334.618	11.93
334.876	9.04
335.133	8.79
335.39	6.32
335.647	7.48
335.904	2.12
336.161	-0.02
336.418	1.35
336.675	-4.46
336.932	-4.12
337.189	-4.03
337.446	-3.1
337.703	-3.98
337.96	-9.07
338.216	-9.86
338.473	-13.4
338.73	-12.63
338.987	-13.22
339.244	-10.24
339.501	-12.2
339.757	-10.28
340.014	-8.65
340.271	-6.54
340.528	-5.07
340.785	-1.8
341.041	-1.52
341.298	-3.21
341.555	-2.87
341.811	-4.26
342.068	-7.13
342.325	-7.35
342.581	-4.13
342.838	-1.96
343.094	-2.05
343.351	-1.37
343.608	-4.33
343.864	-0.56
344.121	-0.14
344.377	-0.84
344.634	-0.2
344.89	-0.89
345.147	-1.45
345.403	-1.99
345.66	-2.56
345.916	0.25
346.172	-1.61
346.429	-2.14
346.685	-3.84
346.942	-3.41
347.198	-6.77
347.454	-4.94
347.711	-5.01
347.967	-8.13
348.223	-8.32
348.48	-10.89
348.736	-7.73
348.992	-8.23
349.248	-6.21
349.504	-6.75
349.761	-6.11
350.017	-3.01
350.273	-2.4
350.529	-3.53
350.785	-4.25
351.041	-4.96
351.297	-3.38
351.554	-4.29
351.81	-5.36
352.066	-4.51
352.322	-4.31
352.578	-3.82
352.834	-4.44
353.09	-4.25
353.346	-4.31
353.602	-5.86
353.858	-7.01
354.114	-6.13
354.369	-4.39
354.625	-3.61
354.881	-5.69
355.137	-3
355.393	-3
355.649	-2.65
355.905	-2.78
356.16	-2.19
356.416	-0.2
356.672	-7.22
356.928	-6.58
357.183	-7.4
357.439	-7.75
357.695	-9.07
357.951	-5.61
358.206	-5.7
358.462	-5.99
358.718	-7.58
358.973	-6.46
359.229	-6.57
359.484	-3.6
359.74	-2.76
359.996	-3.28
360.251	-0
360.507	-0.51
360.762	-1.3
361.018	1.74
361.273	0.73
361.529	2.37
361.784	3.51
362.04	4.28
362.295	3.95
362.55	4.18
362.806	7.2
363.061	7.49
363.316	8.29
363.572	8.34
363.827	10.67
364.082	8.32
364.338	6.91
364.593	7.57
364.848	8.35
365.104	7.72
365.359	10.08
365.614	11.36
365.869	7.11
366.124	8.16
366.38	7.41
366.635	9.01
366.89	9.58
367.145	8.1
367.4	10.02
367.655	10.9
367.91	11
368.165	8.93
368.42	6.97
368.675	8.72
368.93	8.31
369.185	6.13
369.44	6.02
369.695	8.4
369.95	6.67
370.205	5.96
370.46	6.31
370.715	4.69
370.97	5.35
371.225	4.24
371.48	4.93
371.734	4.72
371.989	7.33
372.244	8.39
372.499	9.33
372.754	8.3
373.008	4.62
373.263	0.37
373.518	1.34
373.773	-0.04
374.027	-1.76
374.282	0.54
374.537	1.81
374.791	3.66
375.046	2.67
375.301	0.6
375.555	-1.7
375.81	0.68
376.064	1.81
376.319	4.45
376.573	4.89
376.828	0.98
377.082	5.24
377.337	3.34
377.591	0.01
377.846	1.26
378.1	4.29
378.355	4.11
378.609	2.66
378.863	-1.73
379.118	0.23
379.372	-1.08
379.627	-2.34
379.881	-4.6
380.135	-5.32
380.389	-4.53
380.644	-5.21
380.898	-2.35
381.152	-0.28
381.407	-1.18
381.661	1.97
381.915	3.33
382.169	3.7
382.423	3.1
382.677	-1
382.932	1.06
383.186	1.52
383.44	2.96
383.694	3.3
383.948	0.79
384.202	0.45
384.456	0.37
384.71	2.8
384.964	2.46
385.218	4.17
385.472	3.76
385.726	2.97
385.98	0.63
386.234	0.54
386.488	-0.85
386.742	0.77
386.996	-1.46
387.249	-0.05
387.503	2.03
387.757	2.89
388.011	4.1
388.265	3.63
388.518	5.43
388.772	6.5
389.026	7.84
389.28	6.57
389.533	5.38
389.787	7.64
390.041	5.55
390.295	4.15
390.548	4.42
390.802	7.5
391.055	7.09
391.309	5.41
391.563	3.44
391.816	3.42
392.07	3.07
392.323	4.04
392.577	3.66
392.83	4.47
393.084	9.63
393.337	14.82
393.591	16.15
393.844	17.16
394.098	21.34
394.351	26.58
394.604	30.34
394.858	32.24
395.111	32.6
395.364	29.34
395.618	32.33
395.871	30.02
396.124	29.03
396.378	27.9
396.631	27.43
396.884	24.61
397.137	24.36
397.391	25.2
397.644	21.37
397.897	21.99
398.15	24.34
398.403	27.14
398.657	25.75
398.91	24.89
399.163	27.7
399.416	27.9
399.669	26.78
399.922	24.84
400.175	22.27
400.428	22.13
400.681	21.27
400.934	17.33
401.187	15.28
401.44	15.34
401.693	13.67
401.946	9.95
402.199	4.35
402.452	2.14
402.704	-1.32
402.957	-3.23
403.21	-0.79
403.463	-2.84
403.716	-2.27
403.969	-0.85
404.221	-1.29
404.474	0.81
404.727	4.82
404.98	6.82
405.232	6.48
405.485	7.7
405.738	10.12
405.99	9.85
406.243	10.82
406.496	11.78
406.748	10.75
407.001	7.57
407.253	8.8
407.506	9.98
407.759	12.13
408.011	11.18
408.264	10.79
408.516	10.58
408.769	8.38
409.021	9.35
409.274	8.57
409.526	11.5
409.778	10.84
410.031	14.38
410.283	12.86
410.536	17.7
410.788	15.76
411.04	14.88
411.293	17.52
411.545	18.65
411.797	17.88
412.049	18.41
412.302	18.29
412.554	18.33
412.806	16.97
413.058	15.34
413.311	16.51
413.563	13.92
413.815	13.62
414.067	11.4
414.319	11.19
414.571	13.2
414.823	12.97
415.075	11.84
415.328	13.01
415.58	15.53
415.832	17.08
416.084	20.13
416.336	19.76
416.588	23.72
416.84	22.04
417.091	25.23
417.343	21.15
417.595	24.06
417.847	25.13
418.099	28.27
418.351	27.87
418.603	33.24
418.855	34.66
419.106	33.97
419.358	34.47
419.61	34.3
419.862	34.57
420.114	33.07
420.365	33.83
420.617	33.58
420.869	33.48
421.12	31.6
421.372	33.57
421.624	34.69
421.875	34.85
422.127	32.19
422.379	32.64
422.63	35.74
422.882	34.48
423.133	34.82
423.385	34.22
423.636	35.41
423.888	37.29
424.139	39.78
424.391	37.67
424.642	36.98
424.894	34.25
425.145	34.38
425.396	31.57
425.648	33.11
425.899	30.78
426.151	31.61
426.402	29.38
426.653	29.8
426.905	27.79
427.156	24.71
427.407	25.01
427.658	24.48
427.91	22.61
428.161	21.36
428.412	24.05
428.663	25.69
428.914	29.02
429.166	30.25
429.417	29.02
429.668	28.94
429.919	27.22
430.17	27.09
430.421	26.94
430.672	30.38
430.923	29.62
431.174	27.9
431.425	28.29
431.676	26.9
431.927	23.36
432.178	24.04
432.429	24.71
432.68	25.81
432.931	29.95
433.182	32.4
433.433	29.76
433.683	31.36
433.934	30.42
434.185	29.01
434.436	27.95
434.687	30.09
434.937	34.3
435.188	33.15
435.439	33.37
435.69	36.97
435.94	36.69
436.191	37.55
436.442	37.62
436.692	35.44
436.943	32.66
437.194	31.89
437.444	34.24
437.695	38.51
437.945	39.31
438.196	37.3
438.447	36.02
438.697	36.83
438.948	37
439.198	34.44
439.449	30.56
439.699	32.48
439.949	34.22
440.2	33.82
440.45	35
440.701	33.47
440.951	33.42
441.201	34.63
441.452	33.86
441.702	33.43
441.952	35.64
442.203	35.59
442.453	34.84
442.703	34.19
442.953	36.15
443.204	37.81
443.454	36.14
443.704	35.49
443.954	32.48
444.204	33.58
444.455	36.45
444.705	39.1
444.955	39.59
445.205	38.36
445.455	35.93
445.705	36.01
445.955	38.07
446.205	38.8
446.455	40.51
446.705	43.13
446.955	45.89
447.205	47.72
447.455	49.16
447.705	47.69
447.955	47.71
448.205	49.69
448.454	50.42
448.704	54.36
448.954	53.82
449.204	55.33
449.454	56.49
449.704	56.42
449.953	57.9
450.203	61.13
450.453	60.64
450.703	62.62
450.952	62.98
451.202	64.36
451.452	65
451.701	68.53
451.951	72.61
452.201	73.41
452.45	74.27
452.7	76.62
452.949	76.4
453.199	77.45
453.448	80.47
453.698	82.08
453.947	81.78
454.197	80.68
454.446	79.41
454.696	81
454.945	81.36
455.195	80.63
455.444	81.94
455.693	86.25
455.943	82.65
456.192	83.65
456.442	80.99
456.691	80.88
456.94	80.55
457.189	80.39
457.439	81.24
457.688	82.39
457.937	80.24
458.186	80.4
458.436	80.43
458.685	80.61
458.934	79.22
459.183	79.04
459.432	80.69
459.681	79.95
459.93	76.73
460.179	74.81
460.429	73.44
460.678	77.29
460.927	79.36
461.176	77.16
461.425	75.37
461.674	78.43
461.923	78.27
462.172	77.26
462.42	76.92
462.669	79.28
462.918	78.04
463.167	76.56
463.416	73.33
463.665	75.03
463.914	74.26
464.162	71.33
464.411	73.5
464.66	75.67
464.909	73.9
465.158	73.33
465.406	72.69
465.655	74.69
465.904	75.64
466.152	75.55
466.401	75.21
466.65	76.18
466.898	75
467.147	70.27
467.395	68.67
467.644	71.85
467.893	70.17
468.141	69.19
468.39	65.38
468.638	63.75
468.887	61.3
469.135	61.35
469.384	59.13
469.632	59.47
469.88	58.72
470.129	59.09
470.377	54.99
470.626	58.69
470.874	60.09
471.122	60.04
471.371	58.51
471.619	57.69
471.867	61.55
472.115	60.17
472.364	55.89
472.612	58.89
472.86	57.15
473.108	57.32
473.356	55.89
473.605	55.63
473.853	52.28
474.101	52.23
474.349	50.79
474.597	54.25
474.845	53.84
475.093	52.38
475.341	48.51
475.589	49.76
475.837	50.14
476.085	52.21
476.333	50
476.581	52.19
476.829	51.4
477.077	52.46
477.325	50.87
477.573	51.96
477.821	50.37
478.069	51.78
478.317	50.01
478.564	52.52
478.812	50.97
479.06	48.95
479.308	47.71
479.555	47.23
479.803	45.62
480.051	47.8
480.299	45.39
480.546	46.16
480.794	43.29
481.042	44.39
481.289	42.09
481.537	43.18
481.784	42.17
482.032	45.55
482.28	43.34
482.527	42.77
482.775	43.18
483.022	45.42
483.27	45.92
483.517	49.46
483.765	47.5
484.012	47.67
484.259	46.28
484.507	48.38
484.754	48.71
485.002	49.68
485.249	48.82
485.496	51.78
485.744	50.91
485.991	49.57
486.238	47.34
486.486	49.79
486.733	51.69
486.98	54.44
487.227	52.41
487.474	54.18
487.722	56.43
487.969	55.21
488.216	54.78
488.463	55.14
488.71	53.12
488.957	53.16
489.204	52.61
489.451	53
489.699	51.75
489.946	48.78
490.193	49.15
490.44	48.13
490.687	48.87
490.934	47.09
491.18	42.98
491.427	44.28
491.674	46.95
491.921	46.54
492.168	45.39
492.415	44.17
492.662	45.86
492.909	48.32
493.155	46.51
493.402	44.54
493.649	44.27
493.896	44.4
494.142	41.47
494.389	41.65
494.636	40.31
494.883	39.1
495.129	36.84
495.376	35.11
495.623	37.15
495.869	39.35
496.116	41
496.362	43.22
496.609	46.71
496.855	51.35
497.102	50.67
497.348	50.28
497.595	53.12
497.841	55.64
498.088	55.38
498.334	54.42
498.581	53.54
498.827	53.89
499.074	53.51
499.32	54.88
499.566	58.28
499.813	59.44
500.059	56.8
500.305	55.96
500.552	55.18
500.798	54.37
501.044	59.46
501.29	58.41
501.537	55.92
501.783	58.96
502.029	62.77
502.275	59.96
502.521	59.09
502.767	61.25
503.013	63.5
503.26	61.08
503.506	58.73
503.752	59.76
503.998	58.21
504.244	58.71
504.49	56.33
504.736	58.65
504.982	58.81
505.228	60.26
505.474	61.33
505.72	62.36
505.966	60.57
506.211	63.9
506.457	63.43
506.703	62.27
506.949	60.89
507.195	60.05
507.441	56.81
507.686	60.21
507.932	59.68
508.178	61.07
508.424	58.97
508.669	56.75
508.915	58.07
509.161	60.63
509.406	60.41
509.652	59.44
509.898	62.71
510.143	63.28
510.389	61.6
510.634	56.59
510.88	59.83
511.125	62.06
511.371	63.59
511.616	63.11
511.862	59.9
512.107	56.6
512.353	57.1
512.598	56.45
512.844	54.49
513.089	51.56
513.335	52.66
513.58	53.47
513.825	54.25
514.071	53.81
514.316	53.85
514.561	55.36
514.806	53.79
515.052	56.5
515.297	54.53
515.542	55.58
515.787	57.37
516.033	58.96
516.278	58.51
516.523	57.33
516.768	55.59
517.013	53.42
517.258	51.75
517.503	51.53
517.748	51.74
517.993	51.67
518.238	52.65
518.483	51.05
518.728	49.86
518.973	45.84
519.218	46.42
519.463	47.08
519.708	47.38
519.953	44.64
520.198	45.04
520.443	47.21
520.688	50.36
520.933	49.42
521.177	48.69
521.422	46.27
521.667	49.59
521.912	49.18
522.157	43.55
522.401	46.25
522.646	46.22
522.891	46.64
523.135	46.16
523.38	44.83
523.625	45.23
523.869	48.35
524.114	49.75
524.358	49.55
524.603	50.41
524.848	46.59
525.092	45.36
525.337	46.81
525.581	48.47
525.826	50.46
526.07	51.01
526.315	52.19
526.559	52.04
526.803	49.91
527.048	52.85
527.292	53.93
527.537	54.99
527.781	54
528.025	50.81
528.269	51.22
528.514	50.97
528.758	51
529.002	50.81
529.247	53.69
529.491	53.37
529.735	60.02
529.979	59.46
530.223	59.91
530.467	57.38
530.712	56.1
530.956	55.05
531.2	55.38
531.444	51.45
531.688	53.11
531.932	52.89
532.176	53.16
532.42	55.33
532.664	56.36
532.908	54.78
533.152	51.18
533.396	50.74
533.64	47.94
533.884	45.4
534.128	45.75
534.371	47.65
534.615	49.16
534.859	47.65
535.103	45.86
535.347	46.06
535.59	48.1
535.834	45.31
536.078	46.8
536.322	48.03
536.565	52.02
536.809	48.13
537.053	49.21
537.296	44.65
537.54	43.55
537.784	42.95
538.027	44.96
538.271	44.2
538.514	43.1
538.758	42.42
539.001	41.06
539.245	39.39
539.488	39.13
539.732	40.62
539.975	41.2
540.219	43.84
540.462	45.09
540.706	47.62
540.949	46.82
541.192	49.24
541.436	55.18
541.679	60.02
541.922	59.24
542.166	53.97
542.409	54.53
542.652	55.6
542.895	57.08
543.139	57.75
543.382	62.09
543.625	61.29
543.868	60.86
544.111	58.12
544.354	59.52
544.598	59.15
544.841	62.12
545.084	62.05
545.327	60.1
545.57	61.85
545.813	63.65
546.056	62.92
546.299	63.09
546.542	65.55
546.785	70.49
547.028	72.21
547.271	71.34
547.514	71.5
547.756	68.57
547.999	69.09
548.242	70.36
548.485	69.27
548.728	69.81
548.971	65.13
549.213	64.03
549.456	63.43
549.699	64.54
549.942	65.15
550.184	65.15
550.427	65.18
550.67	64.87
550.912	59.22
551.155	60.02
551.398	59.35
551.64	57.99
551.883	56.91
552.125	55.84
552.368	55.47
552.61	53.68
552.853	56.47
553.095	54.52
553.338	54.44
553.58	54.9
553.823	54.33
554.065	57.31
554.308	52.6
554.55	50.73
554.792	49.08
555.035	47.26
555.277	45.67
555.519	45.92
555.762	43.83
556.004	44.54
556.246	41.16
556.488	42.57
556.731	39.59
556.973	41.35
557.215	40.72
557.457	41.53
557.699	44.34
557.941	42.4
558.183	42.05
558.426	45.33
558.668	42.44
558.91	42.61
559.152	42.57
559.394	42.58
559.636	44.16
559.878	43.63
560.12	42.67
560.362	42.74
560.604	42.49
560.845	42.13
561.087	41.53
561.329	43.91
561.571	41.03
561.813	41.62
562.055	40.8
562.297	41.83
562.538	43.53
562.78	46.47
563.022	42.86
563.264	45.21
563.505	44.46
563.747	45.45
563.989	43.56
564.23	43.45
564.472	42.87
564.714	44.91
564.955	46.02
565.197	42.05
565.438	44.82
565.68	47.56
565.921	45.78
566.163	47.4
566.404	47.86
566.646	51.35
566.887	52.35
567.129	53.73
567.37	53.2
567.612	56.33
567.853	54.99
568.094	56.65
568.336	55.98
568.577	58.07
568.818	58.63
569.06	56.11
569.301	53.92
569.542	54.93
569.783	56.77
570.025	56.47
570.266	57.62
570.507	60.37
570.748	59.18
570.989	61.05
571.23	63.15
571.472	62.78
571.713	62.54
571.954	63.02
572.195	62.88
572.436	64.12
572.677	66.79
572.918	66.47
573.159	64.33
573.4	63.02
573.641	63.46
573.882	63.84
574.123	61.99
574.364	58.27
574.604	57.71
574.845	56.04
575.086	56.17
575.327	57.82
575.568	57.88
575.809	59.04
576.049	57.55
576.29	53.66
576.531	59.97
576.771	63.24
577.012	66.99
577.253	66.73
577.494	67.2
577.734	66.5
577.975	67.32
578.215	67.23
578.456	66.14
578.697	65.87
578.937	68.02
579.178	68.41
579.418	67.66
579.659	66.41
579.899	62.61
580.14	62.04
580.38	61.57
580.62	61.83
580.861	65.12
581.101	64.93
581.342	65.21
581.582	60.58
581.822	64.16
582.063	64.64
582.303	66.83
582.543	65.07
582.783	65.66
583.024	67.72
583.264	71.54
583.504	70.67
583.744	73.79
583.984	70.89
584.224	70.89
584.465	68.99
584.705	69.9
584.945	71.17
585.185	71.33
585.425	71.76
585.665	72.91
585.905	74.41
586.145	75.67
586.385	75.62
586.625	78.86
586.865	79
587.105	79.89
587.345	82.07
587.585	83.19
587.824	82.69
588.064	83.63
588.304	82.04
588.544	82.22
588.784	81.91
589.024	86.21
589.263	85.38
589.503	84.43
589.743	87.55
589.982	89.61
590.222	89.98
590.462	87.49
590.701	84.29
590.941	87.65
591.181	87.46
591.42	89.55
591.66	93
591.899	97.24
592.139	97.92
592.378	98.04
592.618	97.91
592.857	99.89
593.097	100.28
593.336	99.97
593.576	100.96
593.815	101.38
594.055	100.89
594.294	102.66
594.533	102.42
594.773	103.22
595.012	105.41
595.251	107.84
595.491	111.29
595.73	114.95
595.969	117.12
596.208	119.09
596.447	124.39
596.687	127.05
596.926	128.96
597.165	126.48
597.404	129.02
597.643	128.26
597.882	129.09
598.121	131.5
598.36	132.56
598.599	134.78
598.838	134.08
599.077	132.32
599.316	131.2
599.555	131.6
599.794	133.79
600.033	138.26
600.272	137.56
600.511	137.5
600.75	140.22
600.989	141.64
601.228	143.41
601.466	144.18
601.705	145.4
601.944	147.95
602.183	149.78
602.422	148.85
602.66	148.6
602.899	147.8
603.138	149.26
603.376	149.81
603.615	151.41
603.854	150.42
604.092	150.06
604.331	152.65
604.569	154.67
604.808	154.07
605.047	157.04
605.285	157.64
605.524	158.54
605.762	159.33
606	161.25
606.239	163.08
606.477	162.64
606.716	160.39
606.954	160.02
607.193	157.9
607.431	152.91
607.669	154.01
607.908	153.47
608.146	155.14
608.384	154.96
608.622	155.24
608.861	156.34
609.099	156.66
609.337	155.75
609.575	155.45
609.813	157.54
610.052	159.24
610.29	155.16
610.528	152.39
610.766	151.35
611.004	150.37
611.242	148.98
611.48	149.81
611.718	147.9
611.956	147.8
612.194	147.55
612.432	147.46
612.67	146.77
612.908	148.08
613.146	147.28
613.384	146.89
613.621	146
613.859	146.91
614.097	146.47
614.335	147.19
614.573	149.07
614.811	151.44
615.048	150.6
615.286	151.16
615.524	149.36
615.761	145.76
615.999	145.77
616.237	144.89
616.474	145.55
616.712	148.39
616.95	147.53
617.187	146.21
617.425	145.91
617.662	147.92
617.9	147.75
618.137	146.39
618.375	145.46
618.612	144.33
618.85	145.4
619.087	147.29
619.325	147.04
619.562	144.9
619.799	144.09
620.037	144.36
620.274	143.24
620.511	143.48
620.749	140.06
620.986	139.21
621.223	137.47
621.461	138.36
621.698	139.15
621.935	139.28
622.172	137.86
622.409	140
622.647	141.08
622.884	139.18
623.121	142.8
623.358	139.66
623.595	140.25
623.832	139.74
624.069	137.49
624.306	138.75
624.543	139.62
624.78	140.39
625.017	140.07
625.254	142.39
625.491	144.4
625.728	146.94
625.965	147.5
626.202	147.16
626.438	146.21
626.675	145.02
626.912	148.21
627.149	147.26
627.386	146.96
627.622	144.32
627.859	142.74
628.096	145.03
628.333	145.21
628.569	146.4
628.806	147.54
629.043	146.76
629.279	147.11
629.516	149.05
629.752	144.62
629.989	143.91
630.225	143.87
630.462	143.99
630.699	145.22
630.935	144.61
631.171	141.91
631.408	140.54
631.644	136.81
631.881	135.35
632.117	131.77
632.354	132.51
632.59	132.08
632.826	131.22
633.063	128.87
633.299	130.17
633.535	127.39
633.771	126.19
634.008	129.41
634.244	126.83
634.48	125.29
634.716	126.59
634.953	126.05
635.189	126.42
635.425	126.46
635.661	127.72
635.897	125.46
636.133	125.21
636.369	124.24
636.605	118.75
636.841	116.92
637.077	119.3
637.313	118.79
637.549	118.9
637.785	117.06
638.021	117.66
638.257	114.69
638.493	117.03
638.729	115.12
638.965	119.68
639.2	119.71
639.436	119.95
639.672	119.36
639.908	115.27
640.144	118.24
640.379	121.69
640.615	118.72
640.851	120.49
641.086	121.2
641.322	118.11
641.558	118.68
641.793	120.18
642.029	117.27
642.264	117.87
642.5	117.9
642.736	114.1
642.971	114.87
643.207	113.83
643.442	110.34
643.678	110.5
643.913	113.99
644.148	113.72
644.384	114.61
644.619	116.37
644.855	117.11
645.09	117.55
645.325	116.56
645.561	117.48
645.796	113.75
646.031	117.8
646.266	114.72
646.502	113.45
646.737	114.95
646.972	114.59
647.207	114.93
647.442	111.59
647.678	107.92
647.913	109.67
648.148	109.17
648.383	107.56
648.618	108.09
648.853	109
649.088	110.34
649.323	113.39
649.558	113.52
649.793	113.21
650.028	113.02
650.263	107.48
650.498	109.18
650.733	111.01
650.968	109.57
651.202	110.19
651.437	107.9
651.672	103.49
651.907	100.37
652.142	100.87
652.376	100.33
652.611	101.84
652.846	103.34
653.081	104.96
653.315	102.49
653.55	102.1
653.785	100.82
654.019	103.3
654.254	101
654.488	101.22
654.723	97.54
654.958	95.26
655.192	92.74
655.427	89.85
655.661	90.8
655.896	93.09
656.13	94.38
656.364	90.79
656.599	86.18
656.833	90.51
657.068	92.96
657.302	92.83
657.536	91.86
657.771	92.15
658.005	91.54
658.239	91.36
658.474	87.65
658.708	88.32
658.942	89.22
659.176	88.51
659.41	83.66
659.645	81.43
659.879	79.7
660.113	74.82
660.347	73.51
660.581	71.22
660.815	70.77
661.049	68.52
661.283	62.9
661.517	61.04
661.751	60.86
661.985	60.7
662.219	61.52
662.453	59.84
662.687	61.78
662.921	58.37
663.155	56.2
663.389	49.83
663.622	48.86
663.856	52.54
664.09	46.94
664.324	44.47
664.558	44.99
664.791	44.71
665.025	44.59
665.259	43.26
665.492	41.66
665.726	44.62
665.96	44.61
666.193	41.96
666.427	43.4
666.661	42.61
666.894	41.5
667.128	40.39
667.361	43.98
667.595	44.01
667.828	42.62
668.062	42.37
668.295	44.02
668.529	44.47
668.762	45.27
668.995	44.17
669.229	47.99
669.462	48.37
669.695	49.69
669.929	47.21
670.162	48.1
670.395	45.7
670.629	46.22
670.862	47.26
671.095	42.27
671.328	40.98
671.561	38
671.795	38.96
672.028	39.94
672.261	39.71
672.494	41.65
672.727	40.88
672.96	42.03
673.193	40.76
673.426	46.1
673.659	45.75
673.892	47.49
674.125	47.54
674.358	47.2
674.591	44.87
674.824	43.56
675.057	44.39
675.29	42.66
675.523	43.77
675.755	42.23
675.988	43.01
676.221	45.13
676.454	42.82
676.687	42.54
676.919	40.68
677.152	40.56
677.385	40.08
677.617	41.06
677.85	42.75
678.083	41.41
678.315	44.05
678.548	42.44
678.78	41.57
679.013	41.14
679.246	41.72
679.478	42.02
679.711	39.49
679.943	40.84
680.175	36.44
680.408	40.78
680.64	35.13
680.873	34.24
681.105	34.16
681.338	37.28
681.57	36.67
681.802	38.04
682.034	37.8
682.267	39.81
682.499	40.9
682.731	37.36
682.964	36.83
683.196	34.35
683.428	32.66
683.66	31.28
683.892	34.11
684.124	36.97
684.356	39.41
684.589	39
684.821	37.25
685.053	37.23
685.285	37.06
685.517	38.6
685.749	39.48
685.981	40.54
686.213	39.49
686.445	39.66
686.676	36.61
686.908	37.35
687.14	36.48
687.372	37.79
687.604	32.67
687.836	35.06
688.068	34.97
688.299	33.72
688.531	31.88
688.763	36.33
688.995	33.89
689.226	37.22
689.458	34.84
689.69	34.17
689.921	34.32
690.153	35.06
690.384	36.89
690.616	35.12
690.848	35.45
691.079	32.09
691.311	29.01
691.542	27.8
691.774	25.99
692.005	28.57
692.237	30.26
692.468	29.3
692.699	28.6
692.931	29.54
693.162	26.6
693.393	26.75
693.625	24.48
693.856	25.16
694.087	25.1
694.319	26.29
694.55	25.36
694.781	25.37
695.012	24.64
695.243	23
695.475	23.72
695.706	23.21
695.937	20.86
696.168	20.66
696.399	17.95
696.63	18.32
696.861	17.98
697.092	22.73
697.323	25.61
697.554	27.77
697.785	28.42
698.016	29.35
698.247	27.75
698.478	29.69
698.709	29.88
698.94	31.57
699.171	30.34
699.401	25.57
699.632	28.23
699.863	25.27
700.094	25.77
700.325	31.31
700.555	31.16
700.786	34.02
701.017	34.36
701.247	33.14
701.478	33.13
701.709	34.3
701.939	32.93
702.17	34.04
702.401	36.55
702.631	35.65
702.862	33.83
703.092	31.26
703.323	34.48
703.553	35.52
703.784	35.34
704.014	35.01
704.244	29.16
704.475	27.05
704.705	25.52
704.936	25.73
705.166	24.98
705.396	27.19
705.627	26.78
705.857	26.28
706.087	26.7
706.317	24.53
706.548	23.53
706.778	21.77
707.008	21.28
707.238	20.48
707.468	17.22
707.698	14.95
707.928	12.3
708.158	10.94
708.389	11.37
708.619	8.88
708.849	7.69
709.079	10.06
709.309	7.47
709.539	4.89
709.768	6.55
709.998	9.47
710.228	9.21
710.458	6.8
710.688	3.96
710.918	4.77
711.148	4.04
711.378	5.65
711.607	3.19
711.837	3.19
712.067	2.97
712.297	2.66
712.526	2.4
712.756	3.22
712.986	0.89
713.215	-1.19
713.445	0.23
713.674	1.8
713.904	0.91
714.134	3.66
714.363	2.77
714.593	1.57
714.822	1.77
715.052	2.97
715.281	4.32
715.511	1.97
715.74	2.63
715.969	0.21
716.199	-0.33
716.428	0.78
716.657	0.33
716.887	1.85
717.116	-1.02
717.345	1.55
717.575	0.78
717.804	2.52
718.033	1.19
718.262	1.17
718.492	1.26
718.721	2.76
718.95	2.54
719.179	1.07
719.408	1.41
719.637	-3.35
719.866	-6.97
720.095	-4.76
720.324	-4.81
720.553	-9.02
720.782	-10.86
721.011	-10.94
721.24	-11.9
721.469	-12.59
721.698	-12.16
721.927	-11.89
722.156	-14.44
722.385	-15.42
722.613	-10.78
722.842	-10.9
723.071	-6.24
723.3	-5.94
723.529	-7.62
723.757	-5.44
723.986	-9.31
724.215	-9.76
724.443	-9.94
724.672	-7.69
724.901	-7.37
725.129	-5.96
725.358	-2.58
725.586	-5.56
725.815	-6.13
726.043	-7.57
726.272	-8.81
726.5	-8.94
726.729	-6.12
726.957	-7.65
727.186	-10.04
727.414	-9.49
727.642	-6.83
727.871	-4.01
728.099	-3.96
728.327	-5.52
728.556	-4.36
728.784	-4.06
729.012	-5.65
729.241	-2.49
729.469	-3.28
729.697	-6.87
729.925	-6.05
730.153	-8.84
730.381	-8.93
730.61	-8.57
730.838	-12.16
731.066	-10.68
731.294	-9.68
731.522	-12.62
731.75	-16.78
731.978	-17.81
732.206	-18.8
732.434	-22.17
732.662	-18.45
732.89	-19.87
733.118	-20.52
733.346	-19.51
733.573	-17.71
733.801	-17.57
734.029	-10.89
734.257	-9.72
734.485	-5.92
734.712	-4.54
734.94	-6.6
735.168	-3.07
735.396	-2.66
735.623	-2.99
735.851	-2.54
736.078	-0.62
736.306	-0.23
736.534	-0.44
736.761	0.39
736.989	-2.58
737.216	-3.91
737.444	-6.67
737.671	-4.09
737.899	1.6
738.126	0.96
738.354	0.18
738.581	1.81
738.809	4.36
739.036	2.38
739.263	1.93
739.491	1.44
739.718	-0.36
739.945	4.9
740.173	7.22
740.4	7.42
740.627	4.21
740.854	3.42
741.081	2
741.309	0.02
741.536	-4.85
741.763	-7.05
741.99	-5.75
742.217	-6.94
742.444	-6.94
742.671	-6.18
742.898	-5.27
743.125	-7.76
743.352	-10.24
743.579	-10.3
743.806	-10.99
744.033	-6.94
744.26	-5.3
744.487	-5.35
744.714	-6.47
744.941	-8.76
745.167	-6.92
745.394	-6.84
745.621	-7.98
745.848	-8.87
746.075	-5.91
746.301	-2.13
746.528	1.58
746.755	0.27
746.981	-1.22
747.208	-0.45
747.435	1.47
747.661	2.88
747.888	4.7
748.114	0.89
748.341	3.34
748.567	5.91
748.794	5.17
749.02	4.45
749.247	2.4
749.473	1.34
749.7	1.67
749.926	0.4
750.152	4.37
750.379	4.74
750.605	5.77
750.831	4.7
751.058	3.33
751.284	2.12
751.51	4.81
751.737	7.36
751.963	6.44
752.189	5.34
752.415	4.47
752.641	4.16
752.867	4.6
753.094	2.38
753.32	1.11
753.546	-0.03
753.772	3.56
753.998	1.08
754.224	0.75
754.45	-1.19
754.676	-0.49
754.902	-2.35
755.128	-1.99
755.354	-2.84
755.579	-1.65
755.805	0.66
756.031	-0.95
756.257	-1.66
756.483	-2.61
756.709	-4.53
756.934	-4.36
757.16	-6.36
757.386	-6.36
757.612	-10.05
757.837	-10.57
758.063	-8.62
758.289	-5.74
758.514	-7.43
758.74	-11.52
758.965	-14.11
759.191	-11.14
759.416	-9.31
759.642	-6.97
759.868	-7.04
760.093	-4.5
760.318	-6.79
760.544	-7.28
760.769	-10.52
760.995	-10.01
761.22	-11.28
761.445	-8.03
761.671	-8.53
761.896	-4.98
762.121	-4.2
762.347	-5.15
762.572	-8.68
762.797	-8.19
763.022	-6.91
763.248	-2.75
763.473	0.11
763.698	-0.43
763.923	1.08
764.148	0.72
764.373	1.46
764.598	5.78
764.823	8.75
765.048	5.52
765.273	1.88
765.498	1.47
765.723	1.89
765.948	3.86
766.173	2.96
766.398	3.29
766.623	-0.21
766.848	0.12
767.073	-0.92
767.298	-0.86
767.522	-0.67
767.747	0.52
767.972	1.71
768.197	2.85
768.421	-0.12
768.646	-2.27
768.871	-6.63
769.095	-5.52
769.32	-3.17
769.545	-2.82
769.769	-2.82
769.994	-1.59
770.218	-4.32
770.443	-4.49
770.667	-4.68
770.892	-5.03
771.116	-5.5
771.341	-4.29
771.565	-6.11
771.79	-6.4
772.014	-6.59
772.238	-7.59
772.463	-5.38
772.687	-4.77
772.911	-5.79
773.136	-9.13
773.36	-8.11
773.584	-5.48
773.808	-8.21
774.033	-8.71
774.257	-7.17
774.481	-10.17
774.705	-10.7
774.929	-12.41
775.153	-12.2
775.377	-11.85
775.602	-11.58
775.826	-10.02
776.05	-8.39
776.274	-9.52
776.498	-9.82
776.722	-10.62
776.945	-10.61
777.169	-10.43
777.393	-12.4
777.617	-11.17
777.841	-10.83
778.065	-10.48
778.289	-11.65
778.512	-11.96
778.736	-12.62
778.96	-13.81
779.184	-10.8
779.407	-11.19
779.631	-12.84
779.855	-14.17
780.078	-13.35
780.302	-15.65
780.526	-18.07
780.749	-17.52
780.973	-15.21
781.196	-15.29
781.42	-15.72
781.643	-15.12
781.867	-13.58
782.09	-15.81
782.314	-15.01
782.537	-14.86
782.76	-16.1
782.984	-15.27
783.207	-15.51
783.431	-15.15
783.654	-16.21
783.877	-18.61
784.1	-21.49
784.324	-21.14
784.547	-23.16
784.77	-27.4
784.993	-27.7
785.216	-28.49
785.44	-28.1
785.663	-29.37
785.886	-26.05
786.109	-27.69
786.332	-28.13
786.555	-25.82
786.778	-23.32
787.001	-22.02
787.224	-20.72
787.447	-20.51
787.67	-18.4
787.893	-20.36
788.116	-21.84
788.339	-20.68
788.561	-20.28
788.784	-22.51
789.007	-24.1
789.23	-24.97
789.453	-26.15
789.675	-25.62
789.898	-28.58
790.121	-31.56
790.344	-31.48
790.566	-30.42
790.789	-29.07
791.012	-26.17
791.234	-22.73
791.457	-18.46
791.679	-17.44
791.902	-17.1
792.124	-17.32
792.347	-18.68
792.569	-18.77
792.792	-21.62
793.014	-18.38
793.237	-17.11
793.459	-18.01
793.681	-18.72
793.904	-21.24
794.126	-22.51
794.348	-21.92
794.571	-20.74
794.793	-21.01
795.015	-19.02
795.237	-18.91
795.46	-18.7
795.682	-18.16
795.904	-15.74
796.126	-17.18
796.348	-17.11
796.57	-14.36
796.792	-14.12
797.014	-8.57
797.237	-5.54
797.459	-4.78
797.681	-4.44
797.903	-7.38
798.124	-7.45
798.346	3.14
798.568	4.82
798.79	8.28
799.012	9.16
799.234	10.85
799.456	11.71
799.678	13.5
799.899	11.29
800.121	8.71
800.343	9.7
800.565	9.82
800.786	12.14
801.008	13.73
801.23	13.42
801.451	14.52
801.673	12.48
801.895	10.96
802.116	13.06
802.338	14.68
802.559	14.04
802.781	12.31
803.002	13.84
803.224	17.02
803.445	13.3
803.667	14.51
803.888	10.83
804.109	9.41
804.331	9.31
804.552	9.56
804.773	12.27
804.995	8.84
805.216	-4.5
805.437	-6.33
805.658	-9.42
805.88	-11.12
806.101	-11.95
806.322	-10.62
806.543	-11.8
806.764	-14.12
806.985	-11.27
807.207	-11.57
807.428	-10.82
807.649	-14.7
807.87	-15.88
808.091	-14.82
808.312	-16.15
808.533	-10.46
808.754	-7.99
808.975	-9.87
809.195	-7.53
809.416	-6.11
809.637	-5.53
809.858	-7.21
810.079	-9.58
810.3	-6.24
810.52	-7.19
810.741	-7.91
810.962	-9.56
811.183	-10.71
811.403	-10.56
811.624	-11.34
811.845	-8.56
812.065	-8.31
812.286	-7.59
812.506	-7.67
812.727	-8.06
812.948	-6.97
813.168	-5.91
813.389	-7.02
813.609	-4.84
813.83	-6.77
814.05	-7.81
814.27	-7.69
814.491	-3.44
814.711	-5.79
814.931	-8.19
815.152	-9.01
815.372	-11.13
815.592	-12.59
815.813	-13.41
816.033	-15.84
816.253	-15.4
816.473	-16.73
816.694	-15.2
816.914	-13.85
817.134	-13.79
817.354	-15.53
817.574	-14.05
817.794	-14.69
818.014	-15.69
818.234	-16.61
818.454	-18.16
818.674	-21.12
818.894	-23.27
819.114	-21.06
819.334	-20.24
819.554	-16.81
819.774	-12.51
819.994	-15.04
820.214	-15.92
820.433	-14.53
820.653	-14.76
820.873	-13.85
821.093	-12.81
821.312	-15.81
821.532	-11.79
821.752	-9.05
821.972	-9.16
822.191	-8.83
822.411	-9.9
822.63	-9.76
822.85	-10.61
823.07	-14.01
823.289	-13.07
823.509	-15.13
823.728	-13.72
823.948	-15.23
824.167	-14.09
824.387	-16.48
824.606	-15.48
824.825	-17.33
825.045	-17.48
825.264	-16.67
825.483	-15.64
825.703	-13.52
825.922	-16.14
826.141	-17.71
826.361	-19.87
826.58	-24.97
826.799	-26.45
827.018	-24.2
827.237	-24.96
827.456	-23.34
827.676	-22.09
827.895	-22.98
828.114	-20.31
828.333	-21.34
828.552	-21.94
828.771	-21.62
828.99	-23.64
829.209	-22.73
829.428	-19.35
829.647	-19.34
829.866	-18
830.084	-17.92
830.303	-17.47
830.522	-18.11
830.741	-18.14
830.96	-17.92
831.179	-15.53
831.397	-16.66
831.616	-14.55
831.835	-13.39
832.053	-13.13
832.272	-11.93
832.491	-10.36
832.709	-11.21
832.928	-9.53
833.147	-8.69
833.365	-7.38
833.584	-4.99
833.802	-2.58
834.021	-2.89
834.239	-2.64
834.458	-3.47
834.676	-6.61
834.894	-6.62
835.113	-8.61
835.331	-8.84
835.55	-10.24
835.768	-9.73
835.986	-9.61
836.204	-12.4
836.423	-11.67
836.641	-11.74
836.859	-12.6
837.077	-10.95
837.296	-9.86
837.514	-11.43
837.732	-13.04
837.95	-14.24
838.168	-12.48
838.386	-12.62
838.604	-10
838.822	-8.89
839.04	-11.49
839.258	-11.3
839.476	-7.72
839.694	-7.8
839.912	-9.39
840.13	-10.03
840.348	-7.21
840.566	-10.59
840.783	-9.41
841.001	-9.98
841.219	-10.23
841.437	-8.72
841.655	-8.5
841.872	-7.89
842.09	-8.57
842.308	-6.93
842.525	-6.66
842.743	-6.26
842.961	-7.51
843.178	-9.49
843.396	-5.5
843.613	-3.02
843.831	-2.83
844.048	-3.83
844.266	-2.61
844.483	-2.74
844.701	-3.95
844.918	-3.03
845.136	-2.91
845.353	-6.45
845.57	-7.2
845.788	-3.68
846.005	-6.65
846.222	-9.08
846.439	-7.75
846.657	-6.62
846.874	-4.96
847.091	-8.05
847.308	-5.67
847.526	-6.64
847.743	-8.12
847.96	-8.26
848.177	-8.26
848.394	-9.02
848.611	-9.3
848.828	-10.23
849.045	-11.59
849.262	-11.46
849.479	-11.43
849.696	-10.84
849.913	-12.31
850.13	-15.59
850.347	-14.83
850.564	-14.68
850.78	-16.98
850.997	-18.75
851.214	-18.46
851.431	-16.69
851.647	-19.15
851.864	-18.39
852.081	-15.34
852.298	-18.01
852.514	-18.78
852.731	-16.73
852.948	-14.85
853.164	-15.25
853.381	-15.32
853.597	-18.07
853.814	-20.47
854.03	-23.56
854.247	-21.88
854.463	-20.02
854.68	-20.97
854.896	-20.1
855.113	-19.33
855.329	-18.06
855.545	-15.18
855.762	-14.1
855.978	-16.14
856.194	-18.4
856.411	-15.42
856.627	-13.03
856.843	-13.94
857.059	-12
857.275	-13.37
857.492	-12.22
857.708	-8.2
857.924	-7.38
858.14	-4.47
858.356	-4.84
858.572	-6.04
858.788	-8.09
859.004	-6.04
859.22	-9.68
859.436	-10.64
859.652	-11.66
859.868	-13.58
860.084	-14.18
860.3	-12.72
860.516	-11.04
860.731	-10.02
860.947	-12.11
861.163	-11.89
861.379	-11.58
861.595	-10.09
861.81	-9.79
862.026	-10.46
862.242	-10.61
862.457	-12.12
862.673	-11.61
862.889	-10.34
863.104	-11.28
863.32	-11.73
863.535	-10.31
863.751	-14.25
863.966	-10.86
864.182	-8.73
864.397	-10.71
864.613	-12.02
864.828	-14.55
865.044	-14.23
865.259	-12.63
865.474	-14.34
865.69	-12.69
865.905	-9.79
866.12	-10.86
866.336	-11.3
866.551	-10.27
866.766	-11.86
866.981	-13.73
867.196	-13.65
867.412	-13.83
867.627	-14.38
867.842	-16.02
868.057	-16.59
868.272	-17.32
868.487	-18.38
868.702	-20.25
868.917	-21.07
869.132	-18.53
869.347	-17.58
869.562	-18.43
869.777	-18.76
869.992	-20.09
870.207	-20.54
870.422	-20.46
870.636	-22.6
870.851	-25.36
871.066	-27.48
871.281	-26.88
871.495	-27.97
871.71	-25.26
871.925	-27.69
872.14	-27.56
872.354	-30.77
872.569	-32.17
872.783	-30.37
872.998	-29.89
873.213	-30.3
873.427	-26.85
873.642	-26.31
873.856	-26.24
874.071	-26.11
874.285	-27.7
874.5	-29.77
874.714	-30.08
874.928	-30.64
875.143	-31.29
875.357	-30.06
875.571	-32.4
875.786	-32.19
876	-28.82
876.214	-28.07
876.429	-30.86
876.643	-29.47
876.857	-28.95
877.071	-28.85
877.285	-30.5
877.499	-32.28
877.714	-29.91
877.928	-29.07
878.142	-29.9
878.356	-32.21
878.57	-32
878.784	-30.42
878.998	-30.33
879.212	-27.26
879.426	-29.31
879.639	-28.48
879.853	-28.67
880.067	-28.87
880.281	-29.17
880.495	-26.79
880.709	-24.56
880.922	-21.79
881.136	-18.54
881.35	-17.19
881.564	-18.39
881.777	-20.57
881.991	-20.69
882.205	-16.61
882.418	-18.09
882.632	-21.19
882.845	-20.8
883.059	-18.77
883.273	-18.85
883.486	-19.72
883.7	-17.8
883.913	-17.56
884.126	-16.86
884.34	-19.78
884.553	-20.89
884.767	-17.56
884.98	-16.98
885.193	-17.32
885.407	-18.57
885.62	-16.26
885.833	-16.83
886.046	-14.73
886.26	-16.15
886.473	-16.88
886.686	-18.29
886.899	-15.27
887.112	-17.56
887.326	-20.16
887.539	-20.73
887.752	-19.63
887.965	-21.47
888.178	-19.84
888.391	-18.58
888.604	-18.39
888.817	-20.14
889.03	-19
889.243	-20.22
889.455	-22.67
889.668	-22.97
889.881	-20.6
890.094	-21.78
890.307	-25.42
890.52	-24.1
890.732	-22.19
890.945	-21.01
891.158	-19.8
891.37	-21.86
891.583	-20.98
891.796	-18.89
892.008	-19.59
892.221	-19.83
892.434	-23.58
892.646	-24.09
892.859	-24.26
893.071	-23.63
893.284	-20.94
893.496	-23.18
893.709	-23.88
893.921	-21.38
894.133	-22.91
894.346	-24.05
894.558	-24.67
894.771	-23.24
894.983	-21.7
895.195	-20.32
895.407	-21.36
895.62	-24.36
895.832	-23.87
896.044	-21.63
896.256	-21.72
896.468	-23.19
896.681	-19.46
896.893	-17.3
897.105	-16.77
897.317	-17.52
897.529	-15.95
897.741	-16.49
897.953	-13.94
898.165	-15.58
898.377	-16.98
898.589	-15.34
898.801	-16.83
899.013	-13.72
899.224	-11.81
899.436	-8.93
899.648	-10.08
899.86	-12.77
900.072	-10.64
900.283	-8.49
900.495	-8.69
900.707	-7.53
900.919	-10.11
901.13	-8.48
901.342	-12.1
901.554	-12.1
901.765	-11.67
901.977	-12.25
902.188	-11.49
902.4	-11.61
902.611	-12.42
902.823	-13.49
903.034	-16.59
903.246	-20.25
903.457	-20.89
903.669	-21.95
903.88	-21.16
904.091	-21.64
904.303	-20.69
904.514	-23.19
904.725	-21.54
904.936	-19.81
905.148	-20.48
905.359	-17.76
905.57	-18.41
905.781	-20.59
905.992	-22.2
906.204	-18.92
906.415	-17.49
906.626	-19.17
906.837	-17.34
907.048	-19.31
907.259	-19.17
907.47	-20.23
907.681	-21.17
907.892	-18.1
908.103	-19.62
908.314	-22.25
908.525	-20.4
908.735	-20.07
908.946	-21.8
909.157	-22.53
909.368	-19.54
909.579	-17.12
909.789	-18.04
910	-19.56
910.211	-18.94
910.421	-20.86
910.632	-20.15
910.843	-23.69
911.053	-19.25
911.264	-17.03
911.475	-18.4
911.685	-16.78
911.896	-16.66
912.106	-16.7
912.317	-18.68
912.527	-16.77
912.737	-18.2
912.948	-18.97
913.158	-18.03
913.369	-20.62
913.579	-18.03
913.789	-17.42
914	-12.03
914.21	-12.23
914.42	-12.33
914.63	-12.1
914.841	-10.82
915.051	-9.29
915.261	-8.92
915.471	-4.41
915.681	-4.11
915.891	-5.28
916.101	-6.21
916.311	-6.33
916.521	-3.84
916.731	-2.54
916.941	-0.37
917.151	-1.78
917.361	1.7
917.571	-3.55
917.781	-6.63
917.991	-9
918.201	-10.31
918.411	-12.94
918.621	-13.25
918.83	-10.9
919.04	-14.18
919.25	-12.42
919.46	-10.07
919.669	-13.55
919.879	-13.94
920.089	-16.06
920.298	-17.56
920.508	-18.89
920.717	-16.8
920.927	-19.29
921.136	-19.5
921.346	-21.01
921.555	-24.21
921.765	-24.5
921.974	-28.45
922.184	-31.17
922.393	-31.1
922.603	-32.03
922.812	-28.36
923.021	-29.77
923.23	-31.7
923.44	-34.06
923.649	-34.09
923.858	-34.18
924.067	-33.54
924.277	-33.69
924.486	-30.57
924.695	-29.66
924.904	-28.86
925.113	-28.31
925.322	-27.3
925.531	-26.93
925.74	-30.27
925.949	-31.88
926.158	-29.07
926.367	-28.2
926.576	-26.53
926.785	-27.02
926.994	-28.79
927.203	-28.58
927.412	-27.19
927.621	-27.61
927.83	-25.42
928.038	-25.8
928.247	-25.46
928.456	-23.99
928.665	-21.29
928.873	-20.43
929.082	-18.37
929.291	-17.95
929.499	-15.8
929.708	-16.81
929.916	-16.05
930.125	-17.45
930.333	-17.71
930.542	-15.43
930.75	-13.06
930.959	-13.01
931.167	-14.53
931.376	-15.07
931.584	-13.31
931.793	-12.87
932.001	-12.23
932.209	-13.26
932.418	-14.66
932.626	-16.43
932.834	-18.97
933.042	-23.46
933.251	-22.67
933.459	-22.17
933.667	-22.65
933.875	-23.89
934.083	-21.82
934.291	-21.09
934.499	-20.33
934.707	-20.53
934.915	-21.14
935.123	-19.22
935.331	-20.43
935.539	-22.79
935.747	-24.68
935.955	-26.14
936.163	-25.54
936.371	-25.41
936.579	-22.3
936.787	-23.26
936.995	-25.22
937.202	-27.05
937.41	-26.12
937.618	-26.75
937.826	-26.33
938.033	-31.5
938.241	-34
938.449	-31.73
938.656	-29.02
938.864	-29.34
939.071	-29.27
939.279	-26.78
939.486	-23.42
939.694	-24.68
939.901	-25.85
940.109	-24.96
940.316	-24.08
940.524	-25.24
940.731	-26.93
940.939	-24.6
941.146	-25.01
941.353	-26.01
941.561	-26.96
941.768	-28.4
941.975	-26.31
942.182	-26.64
942.39	-26.2
942.597	-22.77
942.804	-22.54
943.011	-22.59
943.218	-21.63
943.425	-21.46
943.632	-21.38
943.839	-23.9
944.046	-23.71
944.253	-22.36
944.46	-21.26
944.667	-17.71
944.874	-19.11
945.081	-16.58
945.288	-14.58
945.495	-11.95
945.702	-11.55
945.909	-12.92
946.115	-10.3
946.322	-10.77
946.529	-13.16
946.736	-13.49
946.942	-12.61
947.149	-12.77
947.356	-15.66
947.562	-16.82
947.769	-16.28
947.976	-16.63
948.182	-14.36
948.389	-15.38
948.595	-14.59
948.802	-14.26
949.008	-16.49
949.215	-15.23
949.421	-16.6
949.628	-17.87
949.834	-16.34
950.04	-16.37
950.247	-12.23
950.453	-11.93
950.659	-14.7
950.865	-12.41
951.072	-17.73
951.278	-16.36
951.484	-20.28
951.69	-24.34
951.896	-26.05
952.103	-26.14
952.309	-24.65
952.515	-26.21
952.721	-24.93
952.927	-23.72
953.133	-24.53
953.339	-24.64
953.545	-24.59
953.751	-22.23
953.957	-20.38
954.163	-21.53
954.369	-21.61
954.574	-23.78
954.78	-24.48
954.986	-23.6
955.192	-22.88
955.398	-24.78
955.603	-26.95
955.809	-25.41
956.015	-24.06
956.22	-24.93
956.426	-24.52
956.632	-28.23
956.837	-26.75
957.043	-25.19
957.248	-24.28
957.454	-22.58
957.66	-23.1
957.865	-22.66
958.07	-19.67
958.276	-20.35
958.481	-22.51
958.687	-22.52
958.892	-22.69
959.097	-22.95
959.303	-22.03
959.508	-21.86
959.713	-22.99
959.919	-23.32
960.124	-24.89
960.329	-24.3
960.534	-21.24
960.739	-20.9
960.945	-19.33
961.15	-19.05
961.355	-21.4
961.56	-24.5
961.765	-25.1
961.97	-26.13
962.175	-24.19
962.38	-27.39
962.585	-25.9
962.79	-27.76
962.995	-28.37
963.2	-30.19
963.404	-31.08
963.609	-34.65
963.814	-35.35
964.019	-38.42
964.224	-40.11
964.428	-39.27
964.633	-38.21
964.838	-36.63
965.042	-38.15
965.247	-38.69
965.452	-37.17
965.656	-36.33
965.861	-35.71
966.066	-35.96
966.27	-33.95
966.475	-28.91
966.679	-31.73
966.884	-31.51
967.088	-33.06
967.292	-33.49
967.497	-31.31
967.701	-30.85
967.906	-29.32
968.11	-25.97
968.314	-20.36
968.518	-22.43
968.723	-19.78
968.927	-19.95
969.131	-18.72
969.335	-15.21
969.539	-14.8
969.744	-12.46
969.948	-8.37
970.152	-7.83
970.356	-7.06
970.56	-5.84
970.764	-6.53
970.968	-3.63
971.172	-3.01
971.376	-2.17
971.58	-1.31
971.784	-3.08
971.988	-5.08
972.192	-2.74
972.395	-2.76
972.599	-4.88
972.803	-7.86
973.007	-5.35
973.21	-5.1
973.414	-5.06
973.618	-4.41
973.822	-4.89
974.025	-4.54
974.229	-4.11
974.432	-7.75
974.636	-10.78
974.84	-9.78
975.043	-9.35
975.247	-12.02
975.45	-13.79
975.654	-13.43
975.857	-11.53
976.06	-12.64
976.264	-15.32
976.467	-14.04
976.671	-14.09
976.874	-12.1
977.077	-13.62
977.28	-15.13
977.484	-17.42
977.687	-18.63
977.89	-15.78
978.093	-13.71
978.297	-12.17
978.5	-14.61
978.703	-13.9
978.906	-11.86
979.109	-12.03
979.312	-11.75
979.515	-12.49
979.718	-13.68
979.921	-14.08
980.124	-15.47
980.327	-16.15
980.53	-15.79
980.733	-13.5
980.936	-10.98
981.138	-13.48
981.341	-13.07
981.544	-11.16
981.747	-11.22
981.949	-13.3
982.152	-12.79
982.355	-13.28
982.558	-11.09
982.76	-12.71
982.963	-11.86
983.165	-13.82
983.368	-12.64
983.571	-13.73
983.773	-10.41
983.976	-9.31
984.178	-8.97
984.381	-10.12
984.583	-13.27
984.785	-13.13
984.988	-11.34
985.19	-10.9
985.392	-12.5
985.595	-15.5
985.797	-15.67
985.999	-10.74
986.202	-9.17
986.404	-10.41
986.606	-7.56
986.808	-9.28
987.01	-7.83
987.212	-9.54
987.415	-10.56
987.617	-10.6
987.819	-11.92
988.021	-10.67
988.223	-12.6
988.425	-13.97
988.627	-14.3
988.829	-17.99
989.031	-16.29
989.232	-18
989.434	-15.6
989.636	-16.07
989.838	-17.07
990.04	-17.37
990.242	-18.03
990.443	-20.9
990.645	-19
990.847	-15.84
991.048	-14.45
991.25	-16.48
991.452	-17.52
991.653	-18.16
991.855	-17.11
992.057	-17.83
992.258	-18.06
992.46	-19.42
992.661	-17.94
992.863	-19.64
993.064	-18.48
993.265	-19.25
993.467	-22
993.668	-18.6
993.87	-18.16
994.071	-18.26
994.272	-17.98
994.473	-16.69
994.675	-15.94
994.876	-14.66
995.077	-13.11
995.278	-12.66
995.48	-11.64
995.681	-12.86
995.882	-12.49
996.083	-12.18
996.284	-15.31
996.485	-15.27
996.686	-16.18
996.887	-17.79
997.088	-21.72
997.289	-25.41
997.49	-24.81
997.691	-25.02
997.892	-24.5
998.092	-20.7
998.293	-20.36
998.494	-22.31
998.695	-23.25
998.896	-21.48
999.096	-21.62
999.297	-20.35
999.498	-22.53
999.698	-23.85
999.899	-28.07
1000.1	-30.36
1000.3	-30.35
1000.501	-29.51
1000.701	-28.55
1000.902	-28.48
1001.102	-29.73
1001.303	-29.05
1001.503	-31.14
1001.704	-29.84
1001.904	-32.33
1002.105	-31.13
1002.305	-30.78
1002.505	-31.01
1002.706	-31.8
1002.906	-31.7
1003.106	-33.15
1003.306	-32.33
1003.507	-29.63
1003.707	-29.69
1003.907	-27.19
1004.107	-26.52
1004.307	-27.74
1004.507	-26.43
1004.707	-25.31
1004.907	-25.65
1005.107	-26.38
1005.308	-26.26
1005.507	-28.35
1005.707	-25.68
1005.907	-23.94
1006.107	-20.5
1006.307	-19.24
1006.507	-19.77
1006.707	-19.07
1006.907	-18.55
1007.106	-20.27
1007.306	-21.49
1007.506	-21.25
1007.706	-21.4
1007.905	-23.77
1008.105	-22.57
1008.305	-25.01
1008.504	-24.07
1008.704	-19.24
1008.903	-17.07
1009.103	-14.59
1009.303	-15.01
1009.502	-13.9
1009.702	-14.71
1009.901	-14.56
1010.1	-17.99
1010.3	-16.54
1010.499	-17.45
1010.699	-19.03
1010.898	-21.71
1011.097	-20.18
1011.296	-20.39
1011.496	-21.13
1011.695	-22.61
1011.894	-24.26
1012.093	-22.58
1012.293	-23.79
1012.492	-24.38
1012.691	-23.85
1012.89	-24.61
1013.089	-27.13
1013.288	-25.75
1013.487	-22.69
1013.686	-22.13
1013.885	-22.32
1014.084	-21.94
1014.283	-21.69
1014.482	-20.79
1014.681	-20.66
1014.88	-24.52
1015.078	-24.87
1015.277	-28.42
1015.476	-29.75
1015.675	-29.45
1015.873	-27.6
1016.072	-29.66
1016.271	-26.16
1016.47	-29.34
1016.668	-28.45
1016.867	-29.83
1017.065	-31.25
1017.264	-33.55
1017.463	-33.36
1017.661	-33.15
1017.86	-32.04
1018.058	-31.66
1018.256	-32.41
1018.455	-33.3
1018.653	-30.91
1018.852	-29.44
1019.05	-32
1019.248	-33.44
1019.447	-34.85
1019.645	-36.03
1019.843	-38.31
1020.041	-37.66
1020.24	-37.72
1020.438	-33.89
1020.636	-35
1020.834	-38.87
1021.032	-37.54
1021.23	-37.39
1021.428	-33.97
1021.626	-30.04
1021.824	-30.13
1022.022	-32.66
1022.22	-29.81
1022.418	-29.9
1022.616	-30.98
1022.814	-32.42
1023.012	-32.1
1023.21	-28.88
1023.408	-28.55
1023.606	-30.43
1023.803	-24.92
1024.001	-24.57
1024.199	-27.91
1024.397	-26.89
1024.594	-25.68
1024.792	-29.01
1024.99	-28.8
1025.187	-28.04
1025.385	-22.58
1025.582	-22.31
1025.78	-22.67
1025.977	-20.69
1026.175	-19.97
1026.372	-19.26
1026.57	-22.9
1026.767	-19.85
1026.965	-17.37
1027.162	-15.64
1027.359	-17.31
1027.557	-17.41
1027.754	-20.42
1027.951	-20.8
1028.148	-18.13
1028.346	-21.12
1028.543	-23.97
1028.74	-23.12
1028.937	-26.12
1029.134	-26.18
1029.331	-28.05
1029.528	-27.07
1029.725	-27.04
1029.923	-31.54
1030.12	-27.95
1030.317	-25.48
1030.513	-25
1030.71	-25.04
1030.907	-21.92
1031.104	-23.6
1031.301	-25.07
1031.498	-26.83
1031.695	-27.57
1031.892	-27.29
1032.088	-28.49
1032.285	-30.74
1032.482	-32.62
1032.678	-34.87
1032.875	-37.2
1033.072	-37.73
1033.268	-39.93
1033.465	-39.52
1033.662	-42.29
1033.858	-41.06
1034.055	-40.56
1034.251	-38.59
1034.448	-38.65
1034.644	-38.04
1034.84	-35.35
1035.037	-31.56
1035.233	-31.41
1035.43	-30.18
1035.626	-30.97
1035.822	-29.85
1036.019	-29.61
1036.215	-33.57
1036.411	-33.97
1036.607	-34.63
1036.803	-37.05
1037	-38.86
1037.196	-39.23
1037.392	-38.54
1037.588	-40.28
1037.784	-39.38
1037.98	-39.58
1038.176	-38.4
1038.372	-37.96
1038.568	-34.44
1038.764	-31.83
1038.96	-29.49
1039.156	-30.14
1039.352	-30.36
1039.547	-29.71
1039.743	-28.23
1039.939	-27.08
1040.135	-28.09
1040.331	-29.6
1040.526	-26.63
1040.722	-28.64
1040.918	-30.67
1041.113	-33.44
1041.309	-33.41
1041.505	-34.91
1041.7	-33.99
1041.896	-33.53
1042.091	-34.12
1042.287	-32.78
1042.482	-31.81
1042.678	-32.7
1042.873	-30.87
1043.069	-30.93
1043.264	-30.33
1043.459	-28.94
1043.655	-27.79
1043.85	-27.56
1044.045	-27.26
1044.24	-28.11
1044.436	-25.64
1044.631	-28.33
1044.826	-29.14
1045.021	-32.1
1045.216	-30.36
