Data from led_4000k_2_FLMT021711__6__17-32-56-682.txt Node

Date: Tue Nov 05 17:32:56 CET 2024
User: Etudiants TP
Spectrometer: FLMT02171
Trigger mode: 0
Integration Time (sec): 1,000000E-1
Scans to average: 5
Electric dark correction enabled: true
Nonlinearity correction enabled: true
Boxcar width: 15
XAxis mode: Wavelengths
Number of Pixels in Spectrum: 3648
>>>>>Begin Spectral Data<<<<<
194,658	-64,9
194,923	-61,46
195,188	-55,07
195,453	-55,91
195,717	-50,14
195,982	-49,81
196,247	-47,08
196,512	-49,77
196,777	-48,17
197,042	-45,47
197,307	-45,69
197,572	-41,87
197,837	-42,55
198,101	-40,9
198,366	-38,27
198,631	-37,28
198,896	-31,24
199,161	-25,12
199,425	-18,08
199,69	-8,78
199,955	-9,24
200,22	-11,51
200,484	-11,49
200,749	-12,8
201,014	-13,65
201,278	-13,25
201,543	-12,79
201,807	-13,47
202,072	-12,09
202,337	-10,9
202,601	-12,29
202,866	-13,73
203,13	-13,38
203,395	-15,77
203,659	-15,86
203,924	-17,34
204,189	-16,66
204,453	-15,3
204,717	-12,98
204,982	-11,55
205,246	-11,59
205,511	-9,66
205,775	-11,11
206,04	-5,36
206,304	-5,18
206,568	-4,83
206,833	-3,5
207,097	-3,12
207,361	-1,16
207,626	2,02
207,89	2,73
208,154	2,52
208,419	3,54
208,683	2,99
208,947	5,21
209,211	5,52
209,476	4,08
209,74	4,18
210,004	4,6
210,268	5,52
210,532	8,9
210,796	10,27
211,061	9,97
211,325	10,77
211,589	9,05
211,853	11,58
212,117	10,88
212,381	11,58
212,645	9,78
212,909	10,23
213,173	8,04
213,437	9,78
213,701	10
213,965	10,16
214,229	5,02
214,493	5,44
214,757	6,1
215,021	4,32
215,285	9,4
215,549	12,3
215,813	9,65
216,077	9,38
216,34	11,52
216,604	10,33
216,868	11,74
217,132	11,64
217,396	11,71
217,659	12,46
217,923	9,78
218,187	9,25
218,451	7,48
218,714	3,82
218,978	5,19
219,242	8,45
219,505	8,59
219,769	10,73
220,033	9,36
220,296	10,69
220,56	11,88
220,824	9,57
221,087	9,35
221,351	8,86
221,614	8,11
221,878	9,38
222,142	9,15
222,405	9,52
222,669	10,69
222,932	6,37
223,196	5,78
223,459	1,39
223,722	1,08
223,986	-0,26
224,249	-1,44
224,513	-1,76
224,776	-1,26
225,04	-1,68
225,303	-2,15
225,566	-1,93
225,83	-0,17
226,093	2,2
226,356	1,09
226,62	0,14
226,883	1,76
227,146	1,31
227,409	-0,32
227,673	-2,18
227,936	-2,32
228,199	-1,64
228,462	-4,47
228,725	-6,37
228,989	-3,44
229,252	-2,28
229,515	1,68
229,778	-0,83
230,041	-2,25
230,304	-4,83
230,567	-3,9
230,83	-5,46
231,093	-3,01
231,356	-2,98
231,619	3,12
231,882	1,93
232,145	4,04
232,408	2,63
232,671	2,64
232,934	2,84
233,197	0,63
233,46	0,57
233,723	0,95
233,986	0,05
234,249	-1,57
234,512	1,46
234,775	6
235,037	5,31
235,3	4,77
235,563	5,09
235,826	6,01
236,089	7,14
236,351	6,07
236,614	9,58
236,877	10,84
237,14	11,59
237,402	11,92
237,665	5,96
237,928	6,72
238,19	5,3
238,453	9,42
238,716	8,56
238,978	8,97
239,241	7,14
239,503	10,08
239,766	5,49
240,029	2,98
240,291	5,7
240,554	5,95
240,816	4,9
241,079	5,05
241,341	5,28
241,604	2,2
241,866	-0,63
242,129	-0,69
242,391	0,13
242,653	-1,8
242,916	-2,96
243,178	-3,88
243,441	-2,56
243,703	-2,48
243,965	-3,97
244,228	-4,15
244,49	-2,94
244,752	-3,43
245,015	-2,67
245,277	-1,86
245,539	-3,01
245,801	-0,43
246,064	-1,32
246,326	-1,98
246,588	-2,63
246,85	-0,8
247,112	-0,25
247,374	1,54
247,637	1,89
247,899	1,28
248,161	1,98
248,423	-2,18
248,685	-1,57
248,947	-1,97
249,209	-2,4
249,471	-2,43
249,733	0,95
249,995	-0,28
250,257	-0,99
250,519	-2,06
250,781	0,65
251,043	-2,19
251,305	-0,11
251,567	1,71
251,829	2,16
252,091	1,87
252,353	-2,54
252,615	-2,64
252,876	-3,93
253,138	-4,89
253,4	-8,19
253,662	-7,72
253,924	-5,59
254,185	-5,38
254,447	-5,73
254,709	-7,49
254,971	-6,97
255,232	-4,77
255,494	-5,88
255,756	-6,53
256,017	-6,55
256,279	-6,14
256,541	-5,93
256,802	-6,1
257,064	-5,23
257,326	-6,02
257,587	-3,37
257,849	-3,06
258,11	-0,93
258,372	0,39
258,633	2,03
258,895	0,78
259,156	0,72
259,418	-0,64
259,679	-5,74
259,941	-7,32
260,202	-5,06
260,464	-1,15
260,725	-2,99
260,987	-3,5
261,248	-5,58
261,509	-4,71
261,771	-5,82
262,032	-4,9
262,293	-4,92
262,555	-4,75
262,816	-5,55
263,077	-7
263,338	-9,78
263,6	-8,58
263,861	-9,38
264,122	-9,4
264,383	-6,63
264,645	-5,08
264,906	-5,95
265,167	-4,22
265,428	-5,43
265,689	-4,84
265,95	-7,14
266,211	-4,59
266,473	-3,93
266,734	-6,71
266,995	-8,86
267,256	-8,1
267,517	-5,77
267,778	-2
268,039	-0,92
268,3	-2,02
268,561	-4,32
268,822	-0,23
269,083	-2,37
269,344	-3,4
269,604	-3,44
269,865	-1,56
270,126	-6,38
270,387	-4,81
270,648	-2,22
270,909	-2,34
271,17	-3,46
271,43	-7,19
271,691	-9,63
271,952	-11,71
272,213	-9,05
272,473	-12,31
272,734	-11,4
272,995	-9,44
273,256	-9,55
273,516	-6,26
273,777	-9,81
274,038	-7,86
274,298	-11,25
274,559	-12,97
274,82	-8,76
275,08	-6,49
275,341	-4,58
275,601	-5,85
275,862	-7,74
276,122	-8,14
276,383	-7,32
276,643	-5,7
276,904	-7,65
277,164	-3,83
277,425	-2,79
277,685	0,29
277,946	0,41
278,206	3,71
278,467	5,29
278,727	4,1
278,987	4,18
279,248	4,68
279,508	7,87
279,768	8,98
280,029	10,38
280,289	6,7
280,549	6
280,81	5,08
281,07	4,28
281,33	4,42
281,59	2,9
281,851	6,37
282,111	5,61
282,371	5,71
282,631	7,55
282,891	6,84
283,151	5,41
283,412	2,52
283,672	2,15
283,932	2,64
284,192	3,2
284,452	0,73
284,712	-1,56
284,972	-3,2
285,232	-4,57
285,492	-2,18
285,752	-5,07
286,012	-0,65
286,272	0,17
286,532	-2,47
286,792	-2,76
287,052	0,12
287,312	0,36
287,571	-2,05
287,831	-0,08
288,091	-0,82
288,351	-0,34
288,611	3,52
288,871	3,4
289,13	4,13
289,39	1,07
289,65	1,82
289,91	-1,37
290,17	0,88
290,429	2,91
290,689	0,62
290,949	-2,41
291,208	-1,73
291,468	1,92
291,728	3,32
291,987	3,83
292,247	2,21
292,506	4,95
292,766	7,96
293,026	7,77
293,285	8,34
293,545	10,31
293,804	10,62
294,064	7,13
294,323	4,92
294,583	5,06
294,842	6,29
295,102	5,37
295,361	5,17
295,621	6,09
295,88	5,86
296,139	3,87
296,399	4,72
296,658	0,5
296,917	0,83
297,177	-2,94
297,436	-2,03
297,695	-3,04
297,955	-1,63
298,214	-3,38
298,473	-2
298,732	-0,34
298,992	1,8
299,251	1,31
299,51	-3,06
299,769	-3,54
300,028	-3,7
300,287	-2,37
300,547	-2,6
300,806	-4,05
301,065	-1,06
301,324	-0,01
301,583	-4
301,842	-7,64
302,101	-10,91
302,36	-9,84
302,619	-8,96
302,878	-8,36
303,137	-10,04
303,396	-9,22
303,655	-6,79
303,914	-9,88
304,173	-7,74
304,432	-9,14
304,691	-6,12
304,95	-8,69
305,208	-3,59
305,467	-0,83
305,726	-2,6
305,985	-1,43
306,244	-0,23
306,503	-0,79
306,761	-2,37
307,02	-5,11
307,279	-3,89
307,537	-2,32
307,796	-4,29
308,055	-6,81
308,314	-5,75
308,572	-7,99
308,831	-7,95
309,09	-6,92
309,348	-5,44
309,607	-5,8
309,865	-0,64
310,124	-0,17
310,382	1,5
310,641	1,51
310,9	-1,08
311,158	-0,48
311,417	0,32
311,675	0,94
311,933	2,16
312,192	3,91
312,45	4,39
312,709	3,17
312,967	2,9
313,226	1,35
313,484	-1,14
313,742	-1,04
314,001	-2
314,259	-3,07
314,517	-2,34
314,776	-0,28
315,034	2,23
315,292	-1,22
315,55	-2,62
315,809	-4,16
316,067	-2,16
316,325	-4,14
316,583	-1,44
316,841	-1,65
317,1	-4,15
317,358	-7,96
317,616	-7,44
317,874	-8,98
318,132	-8,11
318,39	-8,62
318,648	-10,22
318,906	-10
319,164	-10,67
319,422	-13,02
319,68	-15,18
319,938	-15,5
320,196	-16,84
320,454	-15,1
320,712	-14,31
320,97	-13,12
321,228	-14,29
321,486	-12,69
321,744	-11,62
322,002	-10,39
322,26	-12,75
322,517	-13,32
322,775	-16,87
323,033	-19,03
323,291	-16,61
323,549	-15,68
323,806	-13,26
324,064	-13,73
324,322	-12,24
324,58	-13,84
324,837	-11,8
325,095	-13,69
325,353	-11,33
325,61	-11,35
325,868	-13,24
326,126	-11,96
326,383	-13,75
326,641	-14,2
326,898	-12,37
327,156	-11,37
327,413	-10,93
327,671	-10,58
327,928	-8,31
328,186	-6,83
328,443	-8,27
328,701	-4,4
328,958	-3,75
329,216	-3,73
329,473	-4,47
329,731	-3,73
329,988	-3,45
330,245	-0,11
330,503	0,57
330,76	1,68
331,017	5,13
331,275	3,67
331,532	4,55
331,789	2,4
332,047	2,33
332,304	-0,54
332,561	-1,16
332,818	-3,15
333,076	-0,76
333,333	-0,19
333,59	1,59
333,847	2,7
334,104	1,29
334,361	1,6
334,618	1,46
334,876	-1,12
335,133	-1,24
335,39	-2,22
335,647	-0,53
335,904	-3,36
336,161	-6,31
336,418	-5,82
336,675	-11,46
336,932	-10,13
337,189	-9,39
337,446	-9,36
337,703	-9,82
337,96	-13,71
338,216	-14,15
338,473	-16,72
338,73	-15,55
338,987	-16,53
339,244	-13,59
339,501	-16,1
339,757	-14,27
340,014	-12,54
340,271	-10,6
340,528	-8,69
340,785	-5,24
341,041	-5,57
341,298	-10,02
341,555	-11,09
341,811	-9,57
342,068	-11,77
342,325	-12,46
342,581	-9,82
342,838	-8,18
343,094	-8,08
343,351	-7,42
343,608	-10,59
343,864	-9,04
344,121	-8,53
344,377	-7,87
344,634	-6,68
344,89	-8,25
345,147	-8,74
345,403	-10,66
345,66	-11,25
345,916	-9,55
346,172	-10,56
346,429	-11,48
346,685	-13,58
346,942	-13,75
347,198	-17,26
347,454	-15,21
347,711	-16,13
347,967	-20,15
348,223	-19,72
348,48	-21,18
348,736	-16,54
348,992	-15,38
349,248	-11,14
349,504	-10,81
349,761	-10,84
350,017	-10,28
350,273	-11,42
350,529	-13,09
350,785	-13,33
351,041	-14,08
351,297	-12,36
351,554	-13,39
351,81	-15,61
352,066	-16,19
352,322	-17,59
352,578	-17,24
352,834	-17,3
353,09	-17,17
353,346	-16,42
353,602	-18,68
353,858	-19,29
354,114	-20,27
354,369	-18,75
354,625	-16,28
354,881	-17,3
355,137	-14,87
355,393	-15,33
355,649	-15,53
355,905	-13,68
356,16	-14,61
356,416	-13,06
356,672	-20,63
356,928	-21,1
357,183	-22,09
357,439	-22,04
357,695	-24,32
357,951	-19,76
358,206	-19,5
358,462	-19,35
358,718	-20,9
358,973	-20,29
359,229	-20,88
359,484	-20,08
359,74	-16,01
359,996	-15,42
360,251	-11,81
360,507	-12,75
360,762	-13,5
361,018	-11,58
361,273	-13,68
361,529	-11,09
361,784	-10,77
362,04	-9,42
362,295	-9,56
362,55	-9,6
362,806	-7,32
363,061	-7,67
363,316	-7,35
363,572	-5,31
363,827	-4,86
364,082	-6,53
364,338	-6,78
364,593	-6,38
364,848	-7,14
365,104	-8,36
365,359	-5,15
365,614	-4,94
365,869	-7,22
366,124	-5,71
366,38	-6,24
366,635	-4,97
366,89	-3,63
367,145	-4,86
367,4	-0,16
367,655	-0,18
367,91	0,33
368,165	-1,83
368,42	-3,95
368,675	-1,69
368,93	-2,67
369,185	-3,59
369,44	-2,69
369,695	-0,33
369,95	-1,86
370,205	-3,15
370,46	-3,52
370,715	-3,51
370,97	-2,38
371,225	-2,24
371,48	-0,18
371,734	0,21
371,989	1,83
372,244	0,73
372,499	2,32
372,754	2,08
373,008	-1,41
373,263	-6,54
373,518	-3,59
373,773	-5,53
374,027	-6,06
374,282	-4,29
374,537	-3,21
374,791	-2,16
375,046	-2,05
375,301	-4,83
375,555	-7,54
375,81	-5,87
376,064	-6,12
376,319	-3,08
376,573	-5,51
376,828	-8,73
377,082	-4,2
377,337	-7,17
377,591	-9,69
377,846	-7,85
378,1	-5,01
378,355	-5,05
378,609	-7,13
378,863	-10,47
379,118	-8,55
379,372	-10,39
379,627	-11,81
379,881	-13,48
380,135	-13,56
380,389	-13,88
380,644	-12,96
380,898	-10,13
381,152	-8,56
381,407	-9,62
381,661	-7,7
381,915	-7,27
382,169	-7,73
382,423	-8,49
382,677	-11,73
382,932	-9,74
383,186	-8,31
383,44	-6,53
383,694	-5,29
383,948	-7,25
384,202	-8,21
384,456	-5,57
384,71	-2,71
384,964	-4,2
385,218	-1,27
385,472	-1,98
385,726	-2,28
385,98	-2,48
386,234	-1,93
386,488	-4,26
386,742	-3,37
386,996	-7,13
387,249	-6,82
387,503	-4,81
387,757	-3,94
388,011	-2,2
388,265	-1,54
388,518	0,08
388,772	1,62
389,026	3,43
389,28	1,15
389,533	0,86
389,787	3,97
390,041	2,87
390,295	2,99
390,548	3,71
390,802	6,25
391,055	5,04
391,309	3,94
391,563	1,61
391,816	3,9
392,07	3,49
392,323	5,11
392,577	5,3
392,83	6,03
393,084	11,13
393,337	14,28
393,591	13,69
393,844	12,89
394,098	16,25
394,351	20,67
394,604	24,38
394,858	27,03
395,111	27,14
395,364	24,79
395,618	27,19
395,871	23,94
396,124	22,34
396,378	21,12
396,631	20,83
396,884	17,03
397,137	17,57
397,391	18,44
397,644	15,07
397,897	15,36
398,15	15,98
398,403	17,7
398,657	16,25
398,91	15,43
399,163	16,52
399,416	15,89
399,669	13,85
399,922	12,7
400,175	10,07
400,428	9,37
400,681	10,38
400,934	5,41
401,187	4,96
401,44	4,72
401,693	3,94
401,946	-0,38
402,199	-6,09
402,452	-6,39
402,704	-10,09
402,957	-11,46
403,21	-9,26
403,463	-11,27
403,716	-9
403,969	-6,97
404,221	-7,75
404,474	-5,7
404,727	-2,05
404,98	-0,08
405,232	0,43
405,485	0,84
405,738	2,85
405,99	3,53
406,243	4,23
406,496	5,45
406,748	5,56
407,001	3,95
407,253	5,22
407,506	5,64
407,759	6,56
408,011	3,3
408,264	4,19
408,516	4,03
408,769	2,29
409,021	3,2
409,274	4,08
409,526	6,02
409,778	6,87
410,031	12,24
410,283	11,07
410,536	16,61
410,788	15,22
411,04	13,79
411,293	15,65
411,545	15,76
411,797	13,99
412,049	13,59
412,302	14,17
412,554	14,72
412,806	13,03
413,058	11,3
413,311	11,92
413,563	9,95
413,815	9,18
414,067	7,67
414,319	5,98
414,571	5,74
414,823	4,89
415,075	4,01
415,328	5,9
415,58	9,49
415,832	11,93
416,084	12,31
416,336	10,74
416,588	13,52
416,84	12,18
417,091	14,51
417,343	10,98
417,595	12,03
417,847	12,44
418,099	13,11
418,351	12,55
418,603	15,66
418,855	17,01
419,106	17,58
419,358	18,56
419,61	19,82
419,862	21,39
420,114	18,52
420,365	17,78
420,617	18,64
420,869	17,03
421,12	17,19
421,372	17,8
421,624	18,56
421,875	18,19
422,127	15,16
422,379	16,67
422,63	18,74
422,882	16,94
423,133	16,49
423,385	16,65
423,636	18,35
423,888	19,52
424,139	22,59
424,391	20,51
424,642	19,75
424,894	18,93
425,145	19,49
425,396	17,34
425,648	19,38
425,899	17,75
426,151	18,46
426,402	17,25
426,653	18,57
426,905	16,89
427,156	13,05
427,407	12,33
427,658	11,23
427,91	10,82
428,161	10,64
428,412	12,08
428,663	13,12
428,914	14,73
429,166	18,02
429,417	17,49
429,668	16,73
429,919	15,86
430,17	15,66
430,421	16,62
430,672	22,02
430,923	21,4
431,174	20,51
431,425	21,09
431,676	21,76
431,927	18,62
432,178	19,98
432,429	19,78
432,68	19,01
432,931	24,12
433,182	27,63
433,433	26,04
433,683	28,34
433,934	26,27
434,185	25,16
434,436	23,42
434,687	27,62
434,937	32,83
435,188	32,31
435,439	32,17
435,69	34,4
435,94	34,09
436,191	35,31
436,442	36,25
436,692	34,42
436,943	31,47
437,194	31,2
437,444	34,99
437,695	40,02
437,945	42,71
438,196	41,39
438,447	40,3
438,697	41,37
438,948	40,94
439,198	38,69
439,449	36,06
439,699	37,98
439,949	40,05
440,2	42,18
440,45	45,23
440,701	43,93
440,951	43,8
441,201	46,05
441,452	46,08
441,702	50,1
441,952	53,46
442,203	56,66
442,453	54,17
442,703	54,51
442,953	57,1
443,204	59,92
443,454	60,33
443,704	62,73
443,954	62,27
444,204	65,44
444,455	70,28
444,705	73,63
444,955	76,25
445,205	76,79
445,455	76,01
445,705	76,11
445,955	79,05
446,205	81,06
446,455	83,22
446,705	87,28
446,955	90,34
447,205	93,13
447,455	96,24
447,705	95,77
447,955	96,38
448,205	97,55
448,454	100,24
448,704	104,23
448,954	103,05
449,204	105,8
449,454	105,76
449,704	107,53
449,953	108,93
450,203	113,2
450,453	113,27
450,703	118,45
450,952	120,12
451,202	123,34
451,452	124,05
451,701	128,12
451,951	132,44
452,201	132,32
452,45	133,62
452,7	137,25
452,949	139,01
453,199	141,44
453,448	145,05
453,698	148,26
453,947	148,17
454,197	149,39
454,446	148,04
454,696	153,63
454,945	155,37
455,195	155,5
455,444	157,45
455,693	162,91
455,943	162,46
456,192	163,35
456,442	163,26
456,691	164,84
456,94	164,09
457,189	164,9
457,439	166,95
457,688	168,66
457,937	169,57
458,186	170,38
458,436	168,68
458,685	168,9
458,934	166,24
459,183	166,54
459,432	168,65
459,681	168,11
459,93	166,81
460,179	165,78
460,429	162,55
460,678	163,89
460,927	167,55
461,176	166,19
461,425	164,71
461,674	166,96
461,923	166,96
462,172	165,45
462,42	162,24
462,669	163,67
462,918	162,68
463,167	161,21
463,416	156,76
463,665	157,26
463,914	156,71
464,162	154,38
464,411	155,23
464,66	157,49
464,909	154,49
465,158	153,55
465,406	152,31
465,655	152,02
465,904	153,79
466,152	153,13
466,401	152,54
466,65	153,79
466,898	152,29
467,147	147,41
467,395	146,54
467,644	148,64
467,893	147,09
468,141	147,07
468,39	146,22
468,638	142,13
468,887	139,39
469,135	138,02
469,384	136,12
469,632	136,39
469,88	136,42
470,129	135,87
470,377	131,92
470,626	134,33
470,874	137,2
471,122	137,2
471,371	135,22
471,619	133,46
471,867	135,87
472,115	134,86
472,364	131,75
472,612	134,84
472,86	132,07
473,108	132,38
473,356	130,55
473,605	129,5
473,853	126,54
474,101	126,76
474,349	125,73
474,597	128,19
474,845	127,39
475,093	124,66
475,341	121,77
475,589	123,3
475,837	124,2
476,085	124,05
476,333	121,18
476,581	122,61
476,829	122,13
477,077	124,61
477,325	124,42
477,573	125,95
477,821	125,87
478,069	126,2
478,317	125,72
478,564	127,28
478,812	124,65
479,06	124,14
479,308	122,8
479,555	122,3
479,803	119,99
480,051	121,64
480,299	120,65
480,546	121,96
480,794	118,43
481,042	120,22
481,289	119,62
481,537	121,41
481,784	120,49
482,032	123,95
482,28	123,71
482,527	123,51
482,775	124,26
483,022	126,63
483,27	126,22
483,517	129,89
483,765	128,13
484,012	130,44
484,259	129,08
484,507	131,74
484,754	132
485,002	131,01
485,249	130,83
485,496	132,78
485,744	133,28
485,991	132,64
486,238	130,95
486,486	136,05
486,733	137,68
486,98	141,94
487,227	141,28
487,474	143,88
487,722	146,48
487,969	145,37
488,216	146,02
488,463	147,56
488,71	144,93
488,957	144,22
489,204	144,41
489,451	145,09
489,699	143,93
489,946	141,78
490,193	142,48
490,44	142,64
490,687	142,37
490,934	142,64
491,18	139,53
491,427	141,42
491,674	144,57
491,921	145,8
492,168	145,34
492,415	143,14
492,662	145,82
492,909	147,26
493,155	147,48
493,402	147,23
493,649	145,3
493,896	146,97
494,142	142,98
494,389	143,42
494,636	142,68
494,883	139,86
495,129	139,17
495,376	137,01
495,623	139,44
495,869	141,97
496,116	143,61
496,362	146,54
496,609	149,53
496,855	155,56
497,102	156,03
497,348	155,97
497,595	159,15
497,841	163,3
498,088	162,91
498,334	163,56
498,581	162,69
498,827	162,42
499,074	164,98
499,32	165,85
499,566	170,08
499,813	170,97
500,059	170,09
500,305	170,06
500,552	169,6
500,798	170,03
501,044	174,43
501,29	173,5
501,537	170,97
501,783	175,7
502,029	178,19
502,275	175,13
502,521	176,26
502,767	177,54
503,013	181,4
503,26	179,66
503,506	176,07
503,752	178,04
503,998	176,89
504,244	177,45
504,49	173,84
504,736	175,99
504,982	175,93
505,228	177,43
505,474	177,14
505,72	178,54
505,966	177,69
506,211	181,31
506,457	182,98
506,703	179,57
506,949	176,26
507,195	173,73
507,441	170,38
507,686	174,1
507,932	173,49
508,178	175,18
508,424	172,58
508,669	170,13
508,915	172,56
509,161	174,57
509,406	174,45
509,652	173,43
509,898	176,69
510,143	178,38
510,389	178,4
510,634	173,54
510,88	177,04
511,125	179,68
511,371	180,18
511,616	181,41
511,862	179,51
512,107	177,14
512,353	176,81
512,598	176,95
512,844	173,84
513,089	171,2
513,335	172,03
513,58	171,57
513,825	171,54
514,071	168,89
514,316	168,11
514,561	170,08
514,806	169,02
515,052	171,46
515,297	169,18
515,542	170,45
515,787	170,75
516,033	171,85
516,278	172,25
516,523	170,73
516,768	169,26
517,013	167,12
517,258	166,31
517,503	165,67
517,748	164,83
517,993	163,17
518,238	163,28
518,483	161,07
518,728	160,31
518,973	157,78
519,218	157,23
519,463	158,1
519,708	157,6
519,953	154,89
520,198	154,78
520,443	155,82
520,688	159,67
520,933	158,4
521,177	158,34
521,422	155,29
521,667	159,63
521,912	160,46
522,157	157,99
522,401	160,81
522,646	160,51
522,891	161,22
523,135	160,46
523,38	160,46
523,625	158,78
523,869	159,32
524,114	161,42
524,358	159,93
524,603	159,23
524,848	157,19
525,092	156,73
525,337	157,86
525,581	159,89
525,826	162,89
526,07	162,12
526,315	162,69
526,559	161,59
526,803	159,55
527,048	161,08
527,292	160,29
527,537	161,12
527,781	160,48
528,025	158,52
528,269	157,73
528,514	158,96
528,758	157,92
529,002	157,88
529,247	159,15
529,491	156,54
529,735	159,22
529,979	158,18
530,223	158,91
530,467	155,08
530,712	152,49
530,956	151,26
531,2	152,72
531,444	149,97
531,688	150,77
531,932	150,77
532,176	151,2
532,42	151,68
532,664	151,11
532,908	148,67
533,152	146,12
533,396	143,43
533,64	141,69
533,884	138,38
534,128	138,45
534,371	139,89
534,615	140,93
534,859	141,07
535,103	139,67
535,347	139,6
535,59	141,67
535,834	138,98
536,078	138,31
536,322	138,93
536,565	141,41
536,809	138,03
537,053	140,32
537,296	136,72
537,54	135,53
537,784	134,69
538,027	136,56
538,271	135,54
538,514	132,79
538,758	132,39
539,001	131,33
539,245	129,75
539,488	130,25
539,732	131,42
539,975	131,68
540,219	134,13
540,462	135,31
540,706	136,42
540,949	135,79
541,192	135,76
541,436	141,75
541,679	145,97
541,922	145,08
542,166	141,01
542,409	139,42
542,652	141,21
542,895	141,66
543,139	139,61
543,382	142,38
543,625	140,31
543,868	139,67
544,111	137,51
544,354	135,39
544,598	134,04
544,841	134,55
545,084	132,79
545,327	130,8
545,57	130,72
545,813	133,02
546,056	133,22
546,299	131,15
546,542	132,42
546,785	134,62
547,028	133,67
547,271	131,53
547,514	130,4
547,756	126,43
547,999	125,18
548,242	125,82
548,485	123,77
548,728	124,26
548,971	118,43
549,213	117,09
549,456	115,59
549,699	115,1
549,942	115,73
550,184	113,82
550,427	113,25
550,67	112,41
550,912	106,75
551,155	109,28
551,398	109,16
551,64	108,12
551,883	108,01
552,125	106,24
552,368	106,72
552,61	104,35
552,853	105,83
553,095	105,15
553,338	104,62
553,58	104,61
553,823	104,1
554,065	105,84
554,308	100,76
554,55	98,48
554,792	96,54
555,035	95,69
555,277	95,57
555,519	94,91
555,762	92,17
556,004	91,86
556,246	89,22
556,488	89,8
556,731	85,29
556,973	86,09
557,215	83,73
557,457	83,59
557,699	85,45
557,941	81,27
558,183	80,95
558,426	83,75
558,668	79,57
558,91	80,46
559,152	81,12
559,394	80,87
559,636	81,54
559,878	81,51
560,12	81,3
560,362	81,61
560,604	79,84
560,845	78,42
561,087	75,91
561,329	77,57
561,571	75,43
561,813	75,69
562,055	74,99
562,297	75,46
562,538	76,55
562,78	77,78
563,022	75,35
563,264	76,11
563,505	75,71
563,747	74,56
563,989	71,92
564,23	72,87
564,472	71,33
564,714	73,52
564,955	74,71
565,197	71,13
565,438	73,73
565,68	77,83
565,921	74,64
566,163	76,29
566,404	73,91
566,646	75,25
566,887	76,29
567,129	76,71
567,37	74,49
567,612	76,62
567,853	75,08
568,094	78,51
568,336	76,7
568,577	79,94
568,818	79,37
569,06	77,62
569,301	75,2
569,542	76,55
569,783	77,73
570,025	76,79
570,266	77,27
570,507	79,77
570,748	79,52
570,989	81,07
571,23	84,86
571,472	85,72
571,713	83,81
571,954	84,02
572,195	83,8
572,436	85,07
572,677	87,89
572,918	88,77
573,159	85,55
573,4	84,33
573,641	82,82
573,882	83,41
574,123	80,61
574,364	77,16
574,604	78,48
574,845	76,42
575,086	75,18
575,327	75,2
575,568	71,47
575,809	71,46
576,049	68,21
576,29	66,72
576,531	70,96
576,771	76,24
577,012	76,97
577,253	77,98
577,494	77,99
577,734	76,46
577,975	76,62
578,215	76,17
578,456	74,14
578,697	73,37
578,937	74,77
579,178	74,31
579,418	74,32
579,659	72,22
579,899	67,91
580,14	65,09
580,38	63,6
580,62	62,94
580,861	66,89
581,101	65,37
581,342	65,16
581,582	62,49
581,822	63,74
582,063	62,45
582,303	64,47
582,543	64,31
582,783	65,09
583,024	67,77
583,264	70,39
583,504	69,81
583,744	71,08
583,984	67,67
584,224	65,26
584,465	63,15
584,705	62,04
584,945	61,23
585,185	62,6
585,425	63,05
585,665	62,06
585,905	60,93
586,145	61,62
586,385	59,83
586,625	61,23
586,865	59,25
587,105	58,76
587,345	60,23
587,585	61,61
587,824	60,7
588,064	61,48
588,304	59,1
588,544	61,63
588,784	58,96
589,024	61,23
589,263	60,45
589,503	58,42
589,743	60,79
589,982	58,9
590,222	58,49
590,462	55,69
590,701	53,41
590,941	55,86
591,181	55,69
591,42	55,03
591,66	57,75
591,899	62,2
592,139	62,26
592,378	63,15
592,618	60,02
592,857	58,64
593,097	58,74
593,336	58,96
593,576	58
593,815	58,76
594,055	59,91
594,294	60,58
594,533	60,42
594,773	59,74
595,012	60,44
595,251	61,23
595,491	62,71
595,73	64,8
595,969	64,94
596,208	67,25
596,447	71,15
596,687	71,8
596,926	72,83
597,165	69,19
597,404	72,89
597,643	70,74
597,882	69,74
598,121	71,39
598,36	71,39
598,599	72,54
598,838	71,09
599,077	67,66
599,316	66,8
599,555	65,31
599,794	66,16
600,033	68,99
600,272	70,92
600,511	70,32
600,75	71,85
600,989	72,27
601,228	72,15
601,466	71,6
601,705	72,87
601,944	74,77
602,183	76,1
602,422	73,7
602,66	72,78
602,899	72,49
603,138	71,41
603,376	70,87
603,615	70,87
603,854	69,41
604,092	69,76
604,331	70,72
604,569	73,74
604,808	72,81
605,047	75,28
605,285	76,06
605,524	75,19
605,762	72,32
606	72,19
606,239	74,88
606,477	74,77
606,716	70,48
606,954	69,18
607,193	66,8
607,431	62,4
607,669	58,73
607,908	57,41
608,146	60,07
608,384	58,68
608,622	58,72
608,861	58,59
609,099	57,33
609,337	56,32
609,575	56,64
609,813	58,27
610,052	59,31
610,29	53,34
610,528	52,66
610,766	50,44
611,004	50,7
611,242	48,63
611,48	48,92
611,718	46,29
611,956	45,29
612,194	44,19
612,432	42,99
612,67	41,35
612,908	43,42
613,146	41,96
613,384	40,82
613,621	38,95
613,859	39,96
614,097	38,82
614,335	40,68
614,573	42,07
614,811	45,07
615,048	45,67
615,286	45,92
615,524	43,75
615,761	41,23
615,999	41,21
616,237	39,83
616,474	42,26
616,712	43,24
616,95	40,3
617,187	39,68
617,425	39,1
617,662	42,09
617,9	40,7
618,137	39,36
618,375	36,54
618,612	34,42
618,85	35,02
619,087	37,76
619,325	37,16
619,562	35,17
619,799	33,2
620,037	33,74
620,274	32,18
620,511	34,71
620,749	32,92
620,986	31,58
621,223	29,3
621,461	31,1
621,698	32,31
621,935	30,19
622,172	27,74
622,409	30,43
622,647	30,54
622,884	27,59
623,121	29,08
623,358	26,74
623,595	25,75
623,832	24,77
624,069	22,8
624,306	24,8
624,543	25,97
624,78	26,92
625,017	26,85
625,254	28,06
625,491	31,1
625,728	33,46
625,965	33,76
626,202	33,03
626,438	31,11
626,675	29,78
626,912	31,7
627,149	33,02
627,386	32,75
627,622	30,51
627,859	30,24
628,096	29,67
628,333	28,72
628,569	28,96
628,806	29,78
629,043	27,7
629,279	28,7
629,516	30,56
629,752	25,93
629,989	26,7
630,225	25,02
630,462	25,44
630,699	26,23
630,935	27,28
631,171	24,67
631,408	24
631,644	22,2
631,881	19,32
632,117	17,18
632,354	17,57
632,59	17,84
632,826	18,2
633,063	17,18
633,299	17,35
633,535	15,05
633,771	14,18
634,008	16,34
634,244	15,39
634,48	13,5
634,716	15,63
634,953	14,57
635,189	15,17
635,425	16,58
635,661	21,9
635,897	20,73
636,133	20,97
636,369	19,71
636,605	16,69
636,841	15,68
637,077	18,08
637,313	16,66
637,549	17,86
637,785	17,1
638,021	17,45
638,257	15,78
638,493	17,35
638,729	16,38
638,965	19,03
639,2	20,13
639,436	19,4
639,672	17,69
639,908	14,31
640,144	16,39
640,379	19,92
640,615	18,72
640,851	21,47
641,086	23,89
641,322	22,02
641,558	22,89
641,793	23,17
642,029	20,17
642,264	20,67
642,5	19,49
642,736	15,79
642,971	15,17
643,207	13,72
643,442	11,41
643,678	13,47
643,913	14,18
644,148	13,41
644,384	15,78
644,619	16,6
644,855	18,07
645,09	18,06
645,325	18,42
645,561	18,17
645,796	15,42
646,031	18,89
646,266	16,85
646,502	15,92
646,737	18,06
646,972	17,91
647,207	18,72
647,442	15,89
647,678	10,58
647,913	13,62
648,148	13,19
648,383	10,86
648,618	10,8
648,853	10,17
649,088	13,54
649,323	16,53
649,558	17,51
649,793	17,8
650,028	19,05
650,263	15,24
650,498	18,06
650,733	18,87
650,968	16,71
651,202	18,87
651,437	16,68
651,672	13,06
651,907	12,57
652,142	13,32
652,376	15,29
652,611	16,53
652,846	18,21
653,081	19,72
653,315	17,77
653,55	16,35
653,785	15,87
654,019	16,07
654,254	15,47
654,488	15,64
654,723	12,76
654,958	12,83
655,192	10,32
655,427	7,56
655,661	9,21
655,896	11,85
656,13	14,31
656,364	10,02
656,599	6,68
656,833	14,36
657,068	19
657,302	19,44
657,536	18,61
657,771	20,81
658,005	20,67
658,239	22,08
658,474	20,76
658,708	22,71
658,942	21,96
659,176	19,79
659,41	16,96
659,645	14,94
659,879	12,05
660,113	8,84
660,347	7,5
660,581	4,47
660,815	4,48
661,049	3,13
661,283	1,07
661,517	-0,55
661,751	-0,52
661,985	-1,22
662,219	-0,59
662,453	-1,15
662,687	0,49
662,921	-2,84
663,155	-4,74
663,389	-11,26
663,622	-11,03
663,856	-8,62
664,09	-17
664,324	-20,46
664,558	-19,9
664,791	-20,94
665,025	-23
665,259	-24,03
665,492	-26,2
665,726	-24,7
665,96	-23,9
666,193	-24,35
666,427	-22,75
666,661	-22,97
666,894	-25,43
667,128	-24,42
667,361	-20,99
667,595	-21,66
667,828	-20,79
668,062	-18,7
668,295	-18,92
668,529	-18,13
668,762	-16,21
668,995	-17,34
669,229	-13,36
669,462	-13,09
669,695	-13,14
669,929	-15,34
670,162	-14,14
670,395	-14,69
670,629	-12,45
670,862	-10,72
671,095	-13,7
671,328	-12,25
671,561	-14,29
671,795	-12,6
672,028	-11,13
672,261	-9,71
672,494	-6,66
672,727	-7,23
672,96	-5,43
673,193	-6,86
673,426	-3,57
673,659	-3,65
673,892	-2,5
674,125	-1,73
674,358	-2,89
674,591	-5,92
674,824	-6,02
675,057	-5,49
675,29	-8,45
675,523	-4,97
675,755	-7,19
675,988	-7,14
676,221	-3,23
676,454	-4,93
676,687	-2,11
676,919	-3,48
677,152	-2,48
677,385	-2,45
677,617	-1,5
677,85	-0,72
678,083	-1,87
678,315	0,77
678,548	-1,81
678,78	-2,68
679,013	-4,38
679,246	-2,67
679,478	-2,59
679,711	-5,86
679,943	-3,34
680,175	-6,55
680,408	-3,68
680,64	-8,29
680,873	-6,09
681,105	-5,81
681,338	-1,5
681,57	-2,53
681,802	-0,79
682,034	-0,61
682,267	1,42
682,499	3,67
682,731	0,48
682,964	0,84
683,196	-0,94
683,428	-4,76
683,66	-6,38
683,892	-5,11
684,124	-1,39
684,356	1,16
684,589	0,28
684,821	-2,17
685,053	-2,35
685,285	-1,88
685,517	-1,85
685,749	-0,34
685,981	1,51
686,213	2,06
686,445	1,27
686,676	-2,68
686,908	-1,48
687,14	-3,36
687,372	-3,52
687,604	-6,12
687,836	-3,37
688,068	-3,97
688,299	-4,7
688,531	-7,62
688,763	-2,26
688,995	-3,26
689,226	-0,21
689,458	-2,08
689,69	-4,39
689,921	-6,04
690,153	-5,94
690,384	-4,47
690,616	-4,14
690,848	-3,39
691,079	-7,13
691,311	-10,01
691,542	-13,24
691,774	-14,1
692,005	-11,05
692,237	-8,04
692,468	-9,44
692,699	-10,15
692,931	-11,59
693,162	-13,31
693,393	-14,3
693,625	-15,78
693,856	-13,85
694,087	-13,84
694,319	-12,48
694,55	-12,44
694,781	-12,79
695,012	-13,39
695,243	-15,33
695,475	-14,88
695,706	-14,81
695,937	-15,61
696,168	-16,49
696,399	-18,08
696,63	-17,61
696,861	-16,89
697,092	-10,4
697,323	-7,34
697,554	-5,49
697,785	-4,6
698,016	-2,32
698,247	-2,03
698,478	-0,03
698,709	1,53
698,94	4,8
699,171	4,49
699,401	1,82
699,632	3,01
699,863	0,8
700,094	0,42
700,325	2,2
700,555	4,11
700,786	6,98
701,017	6,09
701,247	4,71
701,478	4
701,709	4,67
701,939	2,63
702,17	4,28
702,401	7,08
702,631	9,1
702,862	7,73
703,092	4,12
703,323	6,68
703,553	7,46
703,784	7,05
704,014	6,86
704,244	1,68
704,475	0,55
704,705	0,53
704,936	0,34
705,166	-2,04
705,396	-1,75
705,627	-2,47
705,857	-2,13
706,087	-3,7
706,317	-6,52
706,548	-9,36
706,778	-10,53
707,008	-9,57
707,238	-7,89
707,468	-8,77
707,698	-10,88
707,928	-12,92
708,158	-12,76
708,389	-11,52
708,619	-12,36
708,849	-14,23
709,079	-12,44
709,309	-14,57
709,539	-17,43
709,768	-19,65
709,998	-16,93
710,228	-17,85
710,458	-19,16
710,688	-21,61
710,918	-20,81
711,148	-21,11
711,378	-21,74
711,607	-23,51
711,837	-23,81
712,067	-25,28
712,297	-24,11
712,526	-24,74
712,756	-22,86
712,986	-25,98
713,215	-26,95
713,445	-24,88
713,674	-22
713,904	-21,52
714,134	-18,07
714,363	-18,72
714,593	-19,5
714,822	-20,05
715,052	-20,83
715,281	-18,98
715,511	-21,49
715,74	-20,75
715,969	-20,49
716,199	-20,45
716,428	-19,27
716,657	-20,75
716,887	-17,45
717,116	-20,3
717,345	-18,22
717,575	-17,31
717,804	-16,24
718,033	-17,78
718,262	-17,61
718,492	-14,97
718,721	-14,17
718,95	-14,89
719,179	-14,62
719,408	-14,87
719,637	-17,9
719,866	-21,19
720,095	-18,72
720,324	-19,92
720,553	-24,29
720,782	-27
721,011	-26,71
721,24	-28,42
721,469	-28,86
721,698	-29,24
721,927	-28,58
722,156	-28,94
722,385	-30,08
722,613	-25,48
722,842	-24,96
723,071	-22,06
723,3	-21,09
723,529	-22,59
723,757	-20,03
723,986	-24,06
724,215	-24,84
724,443	-22,96
724,672	-21,3
724,901	-20,95
725,129	-19,34
725,358	-15,9
725,586	-19,33
725,815	-19,33
726,043	-21,26
726,272	-21,93
726,5	-22,93
726,729	-20,25
726,957	-23,22
727,186	-24,87
727,414	-22,57
727,642	-20,4
727,871	-18,24
728,099	-18,86
728,327	-20,81
728,556	-19,04
728,784	-17,37
729,012	-19,18
729,241	-16,44
729,469	-17,97
729,697	-21,01
729,925	-20,7
730,153	-22,81
730,381	-22,97
730,61	-22,34
730,838	-25,31
731,066	-22,64
731,294	-21,08
731,522	-24,71
731,75	-29,19
731,978	-30,08
732,206	-31,06
732,434	-33,71
732,662	-30,55
732,89	-32,2
733,118	-31,14
733,346	-31,71
733,573	-30,24
733,801	-30,65
734,029	-21,98
734,257	-20,8
734,485	-17,76
734,712	-14,31
734,94	-15,91
735,168	-12,77
735,396	-11,72
735,623	-13,39
735,851	-13,53
736,078	-11,53
736,306	-11,8
736,534	-11,81
736,761	-11,03
736,989	-12,88
737,216	-12,61
737,444	-13,93
737,671	-13,72
737,899	-8,43
738,126	-10,68
738,354	-12,02
738,581	-10,45
738,809	-8,65
739,036	-9,7
739,263	-9,62
739,491	-12,68
739,718	-13,21
739,945	-8,94
740,173	-8,06
740,4	-7,95
740,627	-9,69
740,854	-9,93
741,081	-13,1
741,309	-14,21
741,536	-18,68
741,763	-20,31
741,99	-19,09
742,217	-20,29
742,444	-20,2
742,671	-19,2
742,898	-19,33
743,125	-21,31
743,352	-24,2
743,579	-23,9
743,806	-24,12
744,033	-20,75
744,26	-19,45
744,487	-19,07
744,714	-18,68
744,941	-19,46
745,167	-16,58
745,394	-17,01
745,621	-17,59
745,848	-17,78
746,075	-14,97
746,301	-11,29
746,528	-5,37
746,755	-7,56
746,981	-9,59
747,208	-8,66
747,435	-6,05
747,661	-5,04
747,888	-3,22
748,114	-6,01
748,341	-4,2
748,567	-2,67
748,794	-5,51
749,02	-6,59
749,247	-8,33
749,473	-9,1
749,7	-9,07
749,926	-8,7
750,152	-5,03
750,379	-4,68
750,605	-4,81
750,831	-4,6
751,058	-7,91
751,284	-10,68
751,51	-8,24
751,737	-5,95
751,963	-7,48
752,189	-9,73
752,415	-9,64
752,641	-10,94
752,867	-11,1
753,094	-13,25
753,32	-15,31
753,546	-17,92
753,772	-16,15
753,998	-15,58
754,224	-16,3
754,45	-16,93
754,676	-17,38
754,902	-19,01
755,128	-19,31
755,354	-19,65
755,579	-17,58
755,805	-15,9
756,031	-17,24
756,257	-18,52
756,483	-19,23
756,709	-21,52
756,934	-22,42
757,16	-24,11
757,386	-22,53
757,612	-22,47
757,837	-24,3
758,063	-21,02
758,289	-18,06
758,514	-20,49
758,74	-25,4
758,965	-28,17
759,191	-25,23
759,416	-23,83
759,642	-21,45
759,868	-19,96
760,093	-18,2
760,318	-19,67
760,544	-19,74
760,769	-19,76
760,995	-20,18
761,22	-18,97
761,445	-16,74
761,671	-14,94
761,896	-12,13
762,121	-11,14
762,347	-12,25
762,572	-15,86
762,797	-14,46
763,022	-12,1
763,248	-6,95
763,473	-5,89
763,698	-4,68
763,923	-3,26
764,148	-4,18
764,373	-5,15
764,598	-4,61
764,823	-2,22
765,048	-5,81
765,273	-7,67
765,498	-6,76
765,723	-6,04
765,948	-5,06
766,173	-5,59
766,398	-4,86
766,623	-7,64
766,848	-9,73
767,073	-10,63
767,298	-10,7
767,522	-11,2
767,747	-9,95
767,972	-9,91
768,197	-10,53
768,421	-12,26
768,646	-15,17
768,871	-18,16
769,095	-18,01
769,32	-16,22
769,545	-15,43
769,769	-15,86
769,994	-16,15
770,218	-20,27
770,443	-18,49
770,667	-18,43
770,892	-19,05
771,116	-19,34
771,341	-18,38
771,565	-18,39
771,79	-18,17
772,014	-17,75
772,238	-19,69
772,463	-18,44
772,687	-16,68
772,911	-17,52
773,136	-20,65
773,36	-20,46
773,584	-17,42
773,808	-18,89
774,033	-19,64
774,257	-19,2
774,481	-19,65
774,705	-21,57
774,929	-21,97
775,153	-21,25
775,377	-20,66
775,602	-22
775,826	-19,87
776,05	-17,92
776,274	-19,66
776,498	-19,87
776,722	-20,43
776,945	-19,09
777,169	-18,5
777,393	-20,43
777,617	-20,44
777,841	-18,87
778,065	-18,19
778,289	-17,98
778,512	-19,29
778,736	-19,59
778,96	-20,64
779,184	-18,27
779,407	-20,95
779,631	-20,85
779,855	-20,48
780,078	-19,56
780,302	-20,96
780,526	-25,1
780,749	-24,06
780,973	-21,31
781,196	-20,82
781,42	-22,34
781,643	-22,23
781,867	-20,13
782,09	-24,06
782,314	-24,86
782,537	-22,95
782,76	-24,84
782,984	-23,5
783,207	-23,92
783,431	-23,5
783,654	-24,48
783,877	-27,38
784,1	-28,42
784,324	-29,37
784,547	-31,38
784,77	-36,3
784,993	-36,43
785,216	-38,62
785,44	-38,25
785,663	-39,91
785,886	-36,17
786,109	-36,98
786,332	-34,96
786,555	-33,74
786,778	-31,45
787,001	-31,88
787,224	-30,47
787,447	-27,52
787,67	-26,07
787,893	-27,57
788,116	-27,7
788,339	-25,83
788,561	-26,4
788,784	-31,3
789,007	-31,2
789,23	-31,67
789,453	-31,47
789,675	-32,83
789,898	-35,8
790,121	-37,05
790,344	-37,18
790,566	-35,97
790,789	-34,97
791,012	-34,71
791,234	-31,38
791,457	-26,06
791,679	-24,12
791,902	-22,92
792,124	-21,59
792,347	-21,6
792,569	-22,04
792,792	-26,49
793,014	-23,43
793,237	-23,48
793,459	-24,89
793,681	-25,26
793,904	-24,84
794,126	-26,22
794,348	-27,18
794,571	-25,43
794,793	-25,8
795,015	-25,04
795,237	-25,41
795,46	-23,6
795,682	-21,67
795,904	-19,83
796,126	-21,59
796,348	-22,18
796,57	-18,31
796,792	-17,37
797,014	-12,75
797,237	-11,07
797,459	-9,34
797,681	-8,51
797,903	-9,08
798,124	-8,66
798,346	2,85
798,568	4,24
798,79	6,3
799,012	7,48
799,234	7,59
799,456	9,56
799,678	12,85
799,899	8,94
800,121	6,7
800,343	7,68
800,565	7,33
800,786	7,81
801,008	9,53
801,23	10,32
801,451	9,98
801,673	8,13
801,895	7,58
802,116	9,37
802,338	9,53
802,559	9,24
802,781	8,54
803,002	10,58
803,224	12,03
803,445	9,26
803,667	11,38
803,888	8,57
804,109	8,48
804,331	7,52
804,552	7,45
804,773	9,45
804,995	5,76
805,216	-8,91
805,437	-11,2
805,658	-14,45
805,88	-16,23
806,101	-14,57
806,322	-14,54
806,543	-16,1
806,764	-17,03
806,985	-14,46
807,207	-15,02
807,428	-14,17
807,649	-17,83
807,87	-20,8
808,091	-21,77
808,312	-22,37
808,533	-16,87
808,754	-14,83
808,975	-17,78
809,195	-15,65
809,416	-15,97
809,637	-16,07
809,858	-17,57
810,079	-18,97
810,3	-16,42
810,52	-17,81
810,741	-19,74
810,962	-22,3
811,183	-23,54
811,403	-23,32
811,624	-24,15
811,845	-22,21
812,065	-21,23
812,286	-20,13
812,506	-19,67
812,727	-18,8
812,948	-19,23
813,168	-17,03
813,389	-17,27
813,609	-15,4
813,83	-16,57
814,05	-17,65
814,27	-16,79
814,491	-11,56
814,711	-10,29
814,931	-11,63
815,152	-11,93
815,372	-14,22
815,592	-15,45
815,813	-15,53
816,033	-18,22
816,253	-16,9
816,473	-18,36
816,694	-16,52
816,914	-15,39
817,134	-17,06
817,354	-19,38
817,574	-18,85
817,794	-18,48
818,014	-19,68
818,234	-20,56
818,454	-21,68
818,674	-23,82
818,894	-26,56
819,114	-24,86
819,334	-24,66
819,554	-22,81
819,774	-20,83
819,994	-24,35
820,214	-24,86
820,433	-24,84
820,653	-25,26
820,873	-23,8
821,093	-23,03
821,312	-25,63
821,532	-24,43
821,752	-22,49
821,972	-22,85
822,191	-21,73
822,411	-23,18
822,63	-22,13
822,85	-20,74
823,07	-23,66
823,289	-21,12
823,509	-22,8
823,728	-21,86
823,948	-23
824,167	-23,55
824,387	-23,59
824,606	-21,92
824,825	-22,81
825,045	-21,68
825,264	-21,76
825,483	-19,23
825,703	-17,97
825,922	-20,21
826,141	-20,49
826,361	-21,4
826,58	-25,75
826,799	-26,21
827,018	-25
827,237	-24,65
827,456	-22,48
827,676	-23,02
827,895	-24,45
828,114	-23,76
828,333	-23,77
828,552	-23,67
828,771	-21,97
828,99	-25,63
829,209	-24,82
829,428	-22,63
829,647	-23,7
829,866	-22,16
830,084	-21,67
830,303	-21,83
830,522	-22,58
830,741	-22,34
830,96	-21,29
831,179	-20,27
831,397	-21,24
831,616	-20,89
831,835	-21,82
832,053	-20,08
832,272	-20,29
832,491	-18,79
832,709	-19,78
832,928	-20,31
833,147	-20,11
833,365	-17,3
833,584	-14,9
833,802	-11,99
834,021	-12,83
834,239	-12,75
834,458	-13,65
834,676	-17,32
834,894	-18,42
835,113	-19,12
835,331	-19,42
835,55	-20,74
835,768	-18,74
835,986	-17,46
836,204	-20,29
836,423	-19,45
836,641	-20
836,859	-22,87
837,077	-22,01
837,296	-22,01
837,514	-23,24
837,732	-24,88
837,95	-25,83
838,168	-23,67
838,386	-23,87
838,604	-22,71
838,822	-22,92
839,04	-24,21
839,258	-23,4
839,476	-19,08
839,694	-18,5
839,912	-20,87
840,13	-21,41
840,348	-18,86
840,566	-23,18
840,783	-20,53
841,001	-21,8
841,219	-20,57
841,437	-19,1
841,655	-18,28
841,872	-17,97
842,09	-17,97
842,308	-16,58
842,525	-16,09
842,743	-14,8
842,961	-14,42
843,178	-16,72
843,396	-12,76
843,613	-12,27
843,831	-11,72
844,048	-12,18
844,266	-10,2
844,483	-9,64
844,701	-10,51
844,918	-10,59
845,136	-10,32
845,353	-11,7
845,57	-11,63
845,788	-9,22
846,005	-11,58
846,222	-14,47
846,439	-13,53
846,657	-12,17
846,874	-12,58
847,091	-15,32
847,308	-12,62
847,526	-14,36
847,743	-15,78
847,96	-16,95
848,177	-16,56
848,394	-16,32
848,611	-17,37
848,828	-18,27
849,045	-20,06
849,262	-19,93
849,479	-21,15
849,696	-22,27
849,913	-23,21
850,13	-28,04
850,347	-25,16
850,564	-25,45
850,78	-27,27
850,997	-29,81
851,214	-29,02
851,431	-28,85
851,647	-31,41
851,864	-30,35
852,081	-26,88
852,298	-29,35
852,514	-31,43
852,731	-29,95
852,948	-28,07
853,164	-27,35
853,381	-26,9
853,597	-27,64
853,814	-29,64
854,03	-31,75
854,247	-28,48
854,463	-27,23
854,68	-27,58
854,896	-26,76
855,113	-26,41
855,329	-25,55
855,545	-23,48
855,762	-24,24
855,978	-28,02
856,194	-29,73
856,411	-26,69
856,627	-24,04
856,843	-23,47
857,059	-21,02
857,275	-22,67
857,492	-21,84
857,708	-18,41
857,924	-17,63
858,14	-13,18
858,356	-13,36
858,572	-13,6
858,788	-16,44
859,004	-14,25
859,22	-15,01
859,436	-14,3
859,652	-15,64
859,868	-17,98
860,084	-19,32
860,3	-19,64
860,516	-19,17
860,731	-19,46
860,947	-23,66
861,163	-22,82
861,379	-22,22
861,595	-20,52
861,81	-19,33
862,026	-18,57
862,242	-19,02
862,457	-19,1
862,673	-16,83
862,889	-17,4
863,104	-17,67
863,32	-16,91
863,535	-15,7
863,751	-19,9
863,966	-16,72
864,182	-14,3
864,397	-16
864,613	-17,7
864,828	-20,28
865,044	-19,59
865,259	-18,67
865,474	-18,17
865,69	-17,98
865,905	-16,86
866,12	-19,85
866,336	-21,72
866,551	-18,71
866,766	-18,87
866,981	-19,93
867,196	-19,96
867,412	-20,05
867,627	-19,61
867,842	-20,05
868,057	-19,76
868,272	-21,33
868,487	-23,27
868,702	-25,24
868,917	-26,3
869,132	-24,11
869,347	-23,27
869,562	-24,5
869,777	-24,51
869,992	-26,27
870,207	-26,5
870,422	-27,44
870,636	-28,94
870,851	-29,89
871,066	-32,75
871,281	-32,91
871,495	-34,82
871,71	-31,65
871,925	-32,77
872,14	-34,64
872,354	-36,91
872,569	-38,25
872,783	-35,63
872,998	-34,91
873,213	-36,41
873,427	-32,93
873,642	-30,97
873,856	-30,97
874,071	-31,41
874,285	-32,05
874,5	-34,01
874,714	-34,89
874,928	-35,35
875,143	-36,16
875,357	-35,93
875,571	-36,55
875,786	-35,81
876	-33,36
876,214	-32,01
876,429	-34,89
876,643	-33,19
876,857	-32,9
877,071	-31,88
877,285	-32,79
877,499	-34,63
877,714	-30,42
877,928	-27,6
878,142	-28,09
878,356	-31,23
878,57	-31,02
878,784	-29,65
878,998	-29,51
879,212	-26,93
879,426	-29,89
879,639	-27,65
879,853	-28,14
880,067	-28,98
880,281	-30,64
880,495	-29,19
880,709	-25,95
880,922	-25,1
881,136	-22,75
881,35	-20,96
881,564	-21,54
881,777	-23,45
881,991	-22,48
882,205	-17,6
882,418	-19,61
882,632	-22,56
882,845	-22,13
883,059	-21,14
883,273	-22,34
883,486	-22,88
883,7	-21,1
883,913	-21,48
884,126	-20,73
884,34	-23,83
884,553	-26
884,767	-22,26
884,98	-22,54
885,193	-23,33
885,407	-23,8
885,62	-22,21
885,833	-22,71
886,046	-20,82
886,26	-21,9
886,473	-22,71
886,686	-24,06
886,899	-21,49
887,112	-23,31
887,326	-26,26
887,539	-25,97
887,752	-25,35
887,965	-28,2
888,178	-26,47
888,391	-24,66
888,604	-25,14
888,817	-29
889,03	-27,26
889,243	-27,9
889,455	-29,37
889,668	-28,91
889,881	-25,87
890,094	-26,07
890,307	-28,12
890,52	-26,15
890,732	-25,31
890,945	-25,15
891,158	-25,55
891,37	-27,96
891,583	-26,93
891,796	-25,88
892,008	-26,66
892,221	-28,62
892,434	-31,98
892,646	-32,72
892,859	-33,96
893,071	-33,57
893,284	-32,62
893,496	-32,55
893,709	-32,39
893,921	-30,47
894,133	-31,31
894,346	-32,63
894,558	-31,41
894,771	-31,95
894,983	-30,73
895,195	-30,45
895,407	-29,21
895,62	-32,11
895,832	-31,8
896,044	-28,85
896,256	-30,02
896,468	-32,7
896,681	-32,35
896,893	-31,45
897,105	-32,95
897,317	-34,92
897,529	-32,38
897,741	-31,16
897,953	-28,18
898,165	-30,39
898,377	-33
898,589	-32,31
898,801	-31,23
899,013	-28,59
899,224	-24,92
899,436	-21,26
899,648	-22,5
899,86	-22,74
900,072	-20,82
900,283	-18,56
900,495	-16,91
900,707	-16,2
900,919	-17,61
901,13	-16,79
901,342	-18,42
901,554	-18,85
901,765	-17,3
901,977	-20,14
902,188	-21,14
902,4	-21,36
902,611	-23,48
902,823	-23,45
903,034	-25,08
903,246	-25,66
903,457	-26,77
903,669	-27,02
903,88	-26,47
904,091	-27,87
904,303	-27,25
904,514	-29,88
904,725	-27,22
904,936	-23,9
905,148	-23,59
905,359	-21,64
905,57	-22,2
905,781	-25,31
905,992	-28,4
906,204	-27,25
906,415	-28,61
906,626	-32,02
906,837	-30,46
907,048	-33,59
907,259	-34,49
907,47	-35,43
907,681	-36,26
907,892	-33,3
908,103	-33,75
908,314	-36,89
908,525	-35,11
908,735	-33,73
908,946	-35,13
909,157	-36,6
909,368	-35,2
909,579	-33,44
909,789	-34,57
910	-35,94
910,211	-34,75
910,421	-34,79
910,632	-32,77
910,843	-35,37
911,053	-31,37
911,264	-29,5
911,475	-30,47
911,685	-31,12
911,896	-29,9
912,106	-28,98
912,317	-30,72
912,527	-28,39
912,737	-28,34
912,948	-26,32
913,158	-24,98
913,369	-29,14
913,579	-26,41
913,789	-24,57
914	-20,8
914,21	-20,9
914,42	-22,37
914,63	-23,47
914,841	-22
915,051	-20,01
915,261	-19,75
915,471	-16,53
915,681	-14,2
915,891	-14,51
916,101	-16,76
916,311	-15,26
916,521	-14,44
916,731	-13,7
916,941	-10,59
917,151	-13,12
917,361	-9,63
917,571	-13,61
917,781	-15,3
917,991	-18,26
918,201	-16,42
918,411	-20,34
918,621	-21,29
918,83	-20,58
919,04	-22,5
919,25	-18,72
919,46	-17,96
919,669	-21,34
919,879	-20,88
920,089	-22,84
920,298	-24,71
920,508	-25,66
920,717	-24,51
920,927	-25,79
921,136	-24,3
921,346	-25,87
921,555	-28,47
921,765	-28,4
921,974	-31,29
922,184	-35,51
922,393	-35,69
922,603	-36,06
922,812	-33,87
923,021	-34,32
923,23	-35,29
923,44	-39,43
923,649	-39,12
923,858	-41,75
924,067	-43,05
924,277	-44,06
924,486	-41,04
924,695	-43,32
924,904	-41,53
925,113	-41,76
925,322	-39,19
925,531	-38,66
925,74	-42,87
925,949	-44,32
926,158	-41,17
926,367	-41,31
926,576	-40,83
926,785	-41,57
926,994	-42,05
927,203	-41,21
927,412	-39,94
927,621	-39,99
927,83	-37,14
928,038	-38,33
928,247	-38,52
928,456	-37,58
928,665	-34,49
928,873	-31,95
929,082	-28,8
929,291	-28,55
929,499	-27,48
929,708	-28,42
929,916	-26,58
930,125	-26,85
930,333	-26,8
930,542	-24
930,75	-22,81
930,959	-22,03
931,167	-21,39
931,376	-22,49
931,584	-20,05
931,793	-20,08
932,001	-20,5
932,209	-22,92
932,418	-26,32
932,626	-28,43
932,834	-29,15
933,042	-31,85
933,251	-31,73
933,459	-32,15
933,667	-33,75
933,875	-34
934,083	-32,96
934,291	-32,76
934,499	-30,76
934,707	-30,63
934,915	-31,04
935,123	-28,73
935,331	-31,26
935,539	-34,52
935,747	-36,84
935,955	-37,1
936,163	-37,96
936,371	-36,64
936,579	-35,06
936,787	-34,51
936,995	-35,97
937,202	-37,6
937,41	-38,77
937,618	-38,92
937,826	-38,29
938,033	-44,02
938,241	-45,43
938,449	-43,43
938,656	-40,13
938,864	-38,71
939,071	-37,93
939,279	-36,23
939,486	-32,71
939,694	-32,09
939,901	-33,3
940,109	-32,27
940,316	-32,53
940,524	-34,08
940,731	-35,34
940,939	-34,52
941,146	-34,53
941,353	-34,68
941,561	-36,24
941,768	-36,45
941,975	-33,61
942,182	-34,4
942,39	-33,22
942,597	-29,32
942,804	-32,11
943,011	-33,15
943,218	-32,13
943,425	-31,97
943,632	-31,68
943,839	-30,91
944,046	-32,37
944,253	-31,72
944,46	-30,21
944,667	-27,2
944,874	-28,1
945,081	-27,3
945,288	-26,33
945,495	-24,63
945,702	-23,76
945,909	-26,37
946,115	-24,52
946,322	-25,72
946,529	-27,2
946,736	-26,93
946,942	-24,78
947,149	-25,13
947,356	-25,11
947,562	-26,34
947,769	-25,59
947,976	-26,46
948,182	-24,11
948,389	-25,95
948,595	-24,44
948,802	-24,04
949,008	-25,41
949,215	-23,11
949,421	-22,7
949,628	-24,23
949,834	-23,41
950,04	-23,77
950,247	-21
950,453	-18,96
950,659	-21,52
950,865	-19,78
951,072	-26,03
951,278	-24,26
951,484	-24,59
951,69	-27,25
951,896	-27,79
952,103	-28,55
952,309	-26,92
952,515	-27,2
952,721	-25,03
952,927	-23,21
953,133	-24,42
953,339	-26,41
953,545	-26,64
953,751	-27,92
953,957	-25,32
954,163	-26,99
954,369	-25,83
954,574	-28,04
954,78	-28,19
954,986	-28,5
955,192	-27,83
955,398	-28,43
955,603	-32,09
955,809	-31
956,015	-29,72
956,22	-29,53
956,426	-28,69
956,632	-31,78
956,837	-31,02
957,043	-28,9
957,248	-27,45
957,454	-25,22
957,66	-27,47
957,865	-27,53
958,07	-26
958,276	-27,79
958,481	-28,98
958,687	-30,8
958,892	-32,43
959,097	-32,3
959,303	-33,88
959,508	-34,26
959,713	-34,44
959,919	-34,96
960,124	-34,87
960,329	-35,18
960,534	-32,76
960,739	-32,34
960,945	-30,18
961,15	-30,62
961,355	-30,68
961,56	-34,44
961,765	-35,34
961,97	-33,53
962,175	-32,27
962,38	-35,97
962,585	-35,68
962,79	-37,5
962,995	-38,96
963,2	-41,85
963,404	-42,16
963,609	-44,16
963,814	-45,05
964,019	-47,92
964,224	-51,36
964,428	-48,53
964,633	-47,33
964,838	-45,89
965,042	-45,08
965,247	-45
965,452	-46,44
965,656	-44,42
965,861	-42,6
966,066	-42,9
966,27	-40,1
966,475	-37,25
966,679	-41,29
966,884	-41,41
967,088	-43,92
967,292	-44,8
967,497	-43,57
967,701	-44,16
967,906	-42,98
968,11	-41,26
968,314	-37,2
968,518	-38,44
968,723	-35,87
968,927	-35,07
969,131	-33,06
969,335	-30,24
969,539	-29,61
969,744	-28,49
969,948	-26,55
970,152	-24,66
970,356	-21,12
970,56	-20,33
970,764	-21,91
970,968	-20,22
971,172	-20,87
971,376	-18,83
971,58	-18,93
971,784	-16,96
971,988	-18,35
972,192	-16,34
972,395	-16,17
972,599	-19,45
972,803	-20,07
973,007	-17,31
973,21	-16,53
973,414	-16,72
973,618	-17,03
973,822	-16,54
974,025	-17
974,229	-16,15
974,432	-19,81
974,636	-22,66
974,84	-23,37
975,043	-22,5
975,247	-24,63
975,45	-25,9
975,654	-25,82
975,857	-23,61
976,06	-25,76
976,264	-27,24
976,467	-25,81
976,671	-27,36
976,874	-25,14
977,077	-26,86
977,28	-27,9
977,484	-29,69
977,687	-30,85
977,89	-27,84
978,093	-28,21
978,297	-28,2
978,5	-30,13
978,703	-29,16
978,906	-27,54
979,109	-28,65
979,312	-27,17
979,515	-28,13
979,718	-27,17
979,921	-28,94
980,124	-31,14
980,327	-31,29
980,53	-31,54
980,733	-28,92
980,936	-26,64
981,138	-27,1
981,341	-25,97
981,544	-25,93
981,747	-26
981,949	-26,83
982,152	-26,26
982,355	-25,56
982,558	-22,92
982,76	-26,05
982,963	-26,99
983,165	-27,54
983,368	-25,91
983,571	-25,62
983,773	-22,29
983,976	-21,84
984,178	-22,25
984,381	-22,63
984,583	-24,81
984,785	-25,25
984,988	-22,35
985,19	-20,74
985,392	-22,36
985,595	-25,35
985,797	-24,69
985,999	-21,93
986,202	-18,37
986,404	-19,19
986,606	-17
986,808	-16,81
987,01	-15,7
987,212	-16,83
987,415	-18,58
987,617	-18,24
987,819	-17,57
988,021	-17,39
988,223	-19,56
988,425	-21,76
988,627	-21,85
988,829	-26,03
989,031	-23,88
989,232	-23,22
989,434	-20,88
989,636	-21,21
989,838	-22,55
990,04	-21,19
990,242	-23,02
990,443	-26,01
990,645	-24,5
990,847	-20,62
991,048	-21,01
991,25	-24,96
991,452	-27,24
991,653	-27,38
991,855	-26,42
992,057	-28,05
992,258	-29,19
992,46	-31,26
992,661	-29,07
992,863	-29,65
993,064	-29,23
993,265	-30,17
993,467	-32,48
993,668	-29,67
993,87	-31,56
994,071	-31,95
994,272	-31,61
994,473	-28,9
994,675	-25,84
994,876	-24,99
995,077	-23,49
995,278	-23,03
995,48	-23,31
995,681	-26,06
995,882	-24,55
996,083	-24,96
996,284	-29,58
996,485	-28,58
996,686	-28,35
996,887	-28,98
997,088	-34,11
997,289	-34,39
997,49	-33,68
997,691	-33,98
997,892	-33,01
998,092	-29,14
998,293	-29,42
998,494	-29,65
998,695	-29,6
998,896	-28,54
999,096	-29,74
999,297	-29,89
999,498	-31,12
999,698	-32,23
999,899	-34,68
1000,1	-35,66
1000,3	-35,7
1000,501	-35,86
1000,701	-37,1
1000,902	-38,15
1001,102	-38,43
1001,303	-37,7
1001,503	-40,24
1001,704	-38,97
1001,904	-38,17
1002,105	-39,51
1002,305	-38,77
1002,505	-38,93
1002,706	-38,75
1002,906	-38,91
1003,106	-40,15
1003,306	-36,77
1003,507	-34,94
1003,707	-35,07
1003,907	-32,2
1004,107	-31,6
1004,307	-33,3
1004,507	-31,46
1004,707	-32,33
1004,907	-34,18
1005,107	-34,32
1005,308	-33,35
1005,507	-35,71
1005,707	-34,78
1005,907	-34,77
1006,107	-31,69
1006,307	-31,02
1006,507	-32,39
1006,707	-32,34
1006,907	-30,64
1007,106	-31,61
1007,306	-31,47
1007,506	-30,77
1007,706	-29,47
1007,905	-31,07
1008,105	-32,46
1008,305	-33,08
1008,504	-32,27
1008,704	-26,79
1008,903	-28,35
1009,103	-27,16
1009,303	-28,79
1009,502	-29,15
1009,702	-30,34
1009,901	-31,08
1010,1	-33,86
1010,3	-32,13
1010,499	-33,5
1010,699	-34,89
1010,898	-35,57
1011,097	-34,07
1011,296	-33,5
1011,496	-35,03
1011,695	-33,68
1011,894	-34,15
1012,093	-30,08
1012,293	-31,76
1012,492	-32,61
1012,691	-32,08
1012,89	-31,61
1013,089	-35,43
1013,288	-35,3
1013,487	-34,57
1013,686	-34,66
1013,885	-35,88
1014,084	-34,38
1014,283	-34,16
1014,482	-35,1
1014,681	-34,84
1014,88	-38,77
1015,078	-36,39
1015,277	-39
1015,476	-38,84
1015,675	-38,85
1015,873	-39,4
1016,072	-40,25
1016,271	-37,65
1016,47	-42,76
1016,668	-42,18
1016,867	-42,82
1017,065	-44,58
1017,264	-45,85
1017,463	-45,03
1017,661	-44,23
1017,86	-45,01
1018,058	-43,21
1018,256	-46,09
1018,455	-46,98
1018,653	-44,97
1018,852	-42,86
1019,05	-45,24
1019,248	-45,46
1019,447	-46,74
1019,645	-48,68
1019,843	-51,23
1020,041	-49,76
1020,24	-51,62
1020,438	-47,78
1020,636	-47,99
1020,834	-50,89
1021,032	-47,86
1021,23	-49,97
1021,428	-47,36
1021,626	-43,56
1021,824	-43,33
1022,022	-43,46
1022,22	-41,69
1022,418	-39,77
1022,616	-38,54
1022,814	-38,94
1023,012	-39,09
1023,21	-36,43
1023,408	-36,09
1023,606	-38,48
1023,803	-32,86
1024,001	-31,41
1024,199	-34,54
1024,397	-32,3
1024,594	-31,04
1024,792	-33,74
1024,99	-33,43
1025,187	-32,6
1025,385	-27,56
1025,582	-26,86
1025,78	-26,57
1025,977	-24,47
1026,175	-24,75
1026,372	-23,44
1026,57	-25,83
1026,767	-23,06
1026,965	-22,14
1027,162	-23,38
1027,359	-22,97
1027,557	-22,93
1027,754	-27,08
1027,951	-28,4
1028,148	-27,2
1028,346	-28,48
1028,543	-31,74
1028,74	-32,74
1028,937	-34,58
1029,134	-34,17
1029,331	-35,78
1029,528	-34,77
1029,725	-35,51
1029,923	-40,4
1030,12	-37,78
1030,317	-36,07
1030,513	-34,77
1030,71	-33,64
1030,907	-30,48
1031,104	-32,82
1031,301	-33,19
1031,498	-34,92
1031,695	-34,75
1031,892	-32,75
1032,088	-34,13
1032,285	-35,09
1032,482	-35,81
1032,678	-38,96
1032,875	-40,51
1033,072	-38,68
1033,268	-38,87
1033,465	-38,44
1033,662	-41,02
1033,858	-41,46
1034,055	-40,8
1034,251	-38,97
1034,448	-39,64
1034,644	-40,31
1034,84	-37,04
1035,037	-34,83
1035,233	-34,52
1035,43	-33,11
1035,626	-35,65
1035,822	-34,09
1036,019	-35,37
1036,215	-38,95
1036,411	-39,85
1036,607	-43,97
1036,803	-47,15
1037	-47,35
1037,196	-47,81
1037,392	-49,01
1037,588	-50,56
1037,784	-50,01
1037,98	-51,74
1038,176	-51,48
1038,372	-51,46
1038,568	-50,52
1038,764	-48,21
1038,96	-47,2
1039,156	-49,83
1039,352	-50,72
1039,547	-49,95
1039,743	-48,27
1039,939	-44,81
1040,135	-44,99
1040,331	-46,72
1040,526	-42,77
1040,722	-43,46
1040,918	-44,83
1041,113	-48,53
1041,309	-49,04
1041,505	-51,25
1041,7	-48,53
1041,896	-49,02
1042,091	-48,42
1042,287	-47,71
1042,482	-47,21
1042,678	-46,16
1042,873	-44,81
1043,069	-46,49
1043,264	-45,57
1043,459	-43,25
1043,655	-42,7
1043,85	-43,38
1044,045	-42,98
1044,24	-42,75
1044,436	-41,86
1044,631	-42,52
1044,826	-43,21
1045,021	-44,49
1045,216	-42,23
