Data from led_4000k_2_FLMT021711__21__17-35-10-831.txt Node

Date: Tue Nov 05 17:35:10 CET 2024
User: Etudiants TP
Spectrometer: FLMT02171
Trigger mode: 0
Integration Time (sec): 1.000000E-1
Scans to average: 5
Electric dark correction enabled: true
Nonlinearity correction enabled: true
Boxcar width: 15
XAxis mode: Wavelengths
Number of Pixels in Spectrum: 3648
>>>>>Begin Spectral Data<<<<<
194.658	-64.97
194.923	-60.92
195.188	-54.45
195.453	-53.88
195.717	-49.34
195.982	-47.37
196.247	-45.05
196.512	-47.61
196.777	-45.32
197.042	-43.76
197.307	-43.39
197.572	-39.03
197.837	-39.27
198.101	-36.03
198.366	-33.67
198.631	-32.99
198.896	-27.89
199.161	-21.25
199.425	-14.34
199.69	-3.97
199.955	-5.23
200.22	-9.28
200.484	-8.96
200.749	-11.22
201.014	-9.96
201.278	-9.61
201.543	-8.43
201.807	-8.48
202.072	-8.03
202.337	-8.07
202.601	-7.98
202.866	-10.01
203.13	-9.64
203.395	-12.28
203.659	-13.15
203.924	-14.45
204.189	-15.05
204.453	-14.77
204.717	-13.85
204.982	-13.35
205.246	-12.57
205.511	-11.89
205.775	-12.18
206.04	-6.85
206.304	-7.2
206.568	-6.2
206.833	-5.63
207.097	-3.54
207.361	-1.68
207.626	2.5
207.89	2.79
208.154	3.39
208.419	6.46
208.683	5.05
208.947	8.82
209.211	8.63
209.476	8.9
209.74	8.49
210.004	7.39
210.268	7.75
210.532	10.66
210.796	9.56
211.061	9.41
211.325	8.57
211.589	6.97
211.853	8.31
212.117	8.16
212.381	8.82
212.645	9.05
212.909	9.62
213.173	6.21
213.437	7.55
213.701	8.89
213.965	8.05
214.229	3.87
214.493	3.86
214.757	3.07
215.021	3.06
215.285	6.25
215.549	7.3
215.813	3.92
216.077	3.77
216.34	6.57
216.604	6.01
216.868	7.42
217.132	8.13
217.396	7.35
217.659	7.39
217.923	3.32
218.187	3.98
218.451	2.57
218.714	0.65
218.978	2.96
219.242	6.36
219.505	8.36
219.769	10.05
220.033	10.15
220.296	11.76
220.56	13.25
220.824	11.17
221.087	13.03
221.351	13.22
221.614	12.44
221.878	13.19
222.142	12.43
222.405	12.04
222.669	13.3
222.932	9.66
223.196	8.44
223.459	5.95
223.722	7.72
223.986	5.76
224.249	4.24
224.513	4.1
224.776	2.47
225.04	0.92
225.303	0.24
225.566	0.29
225.83	1.87
226.093	6.13
226.356	4.77
226.62	4.37
226.883	5.39
227.146	4.77
227.409	3.21
227.673	0.95
227.936	0.21
228.199	0.36
228.462	-2.6
228.725	-3.22
228.989	-2.93
229.252	-2.28
229.515	4.36
229.778	2.17
230.041	0.72
230.304	-0.38
230.567	0.46
230.83	-1.49
231.093	1.78
231.356	1.1
231.619	6.45
231.882	4.22
232.145	9
232.408	7.31
232.671	5.5
232.934	6.27
233.197	5.09
233.46	4.62
233.723	5.79
233.986	4.54
234.249	1.81
234.512	3.79
234.775	6.75
235.037	5.9
235.3	6.49
235.563	7.11
235.826	8.06
236.089	10.96
236.351	10.5
236.614	14.37
236.877	13.98
237.14	15.99
237.402	15.09
237.665	7.92
237.928	8.11
238.19	5.27
238.453	6.88
238.716	6.68
238.978	5.83
239.241	5.25
239.503	8.61
239.766	4.31
240.029	3.06
240.291	3.78
240.554	5.17
240.816	5.17
241.079	4.47
241.341	4.5
241.604	3.13
241.866	1.35
242.129	3.27
242.391	5.27
242.653	3.9
242.916	3.18
243.178	2.8
243.441	3.98
243.703	2.94
243.965	1.12
244.228	0.92
244.49	1.47
244.752	2.01
245.015	2.51
245.277	4.13
245.539	3.43
245.801	5.03
246.064	5.97
246.326	7.15
246.588	7.45
246.85	9.44
247.112	11.12
247.374	12.35
247.637	13.92
247.899	13.44
248.161	14.35
248.423	9.85
248.685	9.25
248.947	8.86
249.209	9.4
249.471	10.12
249.733	11.74
249.995	8.58
250.257	7.16
250.519	5.12
250.781	9.65
251.043	8.3
251.305	10.09
251.567	10.57
251.829	11.23
252.091	11.41
252.353	7.2
252.615	8.28
252.876	4.99
253.138	2.84
253.4	-0.37
253.662	0.92
253.924	3.66
254.185	4.37
254.447	4.97
254.709	4.64
254.971	5.56
255.232	6.69
255.494	4.33
255.756	1.93
256.017	1.46
256.279	0.99
256.541	1.49
256.802	2.58
257.064	4.88
257.326	4.47
257.587	5.98
257.849	6.22
258.11	10.4
258.372	10.93
258.633	12.52
258.895	11.09
259.156	9.02
259.418	7.89
259.679	4.52
259.941	1.78
260.202	3.65
260.464	6.01
260.725	4.64
260.987	4.41
261.248	4.56
261.509	5.57
261.771	4.5
262.032	5.49
262.293	3.63
262.555	2.69
262.816	0.46
263.077	-3.08
263.338	-5.81
263.6	-4.9
263.861	-5.88
264.122	-5.16
264.383	-2.65
264.645	-1.25
264.906	-2.56
265.167	-3.02
265.428	-4.6
265.689	-3.4
265.95	-5.85
266.211	-4.29
266.473	-5.33
266.734	-8.15
266.995	-12.86
267.256	-9.8
267.517	-7.33
267.778	-5.47
268.039	-3.56
268.3	-4.74
268.561	-7.23
268.822	-3.54
269.083	-4.66
269.344	-5.81
269.604	-7.7
269.865	-7.43
270.126	-11.46
270.387	-9.28
270.648	-7.48
270.909	-6.76
271.17	-6.59
271.43	-8.78
271.691	-11.72
271.952	-13.04
272.213	-12.11
272.473	-14.42
272.734	-13.57
272.995	-12.47
273.256	-12.23
273.516	-9.34
273.777	-11.95
274.038	-8.86
274.298	-11.38
274.559	-10.76
274.82	-5.87
275.08	-2.63
275.341	-3.17
275.601	-4.85
275.862	-6.12
276.122	-6.2
276.383	-6.33
276.643	-4.59
276.904	-6.96
277.164	-3.77
277.425	-2.95
277.685	1.74
277.946	3.47
278.206	4.6
278.467	4.65
278.727	4.1
278.987	3.79
279.248	3.1
279.508	5.17
279.768	9.47
280.029	11.09
280.289	6.81
280.549	5.28
280.81	5.24
281.07	3.88
281.33	5.43
281.59	3.47
281.851	5.27
282.111	3.91
282.371	2.68
282.631	4.16
282.891	1.86
283.151	0.58
283.412	-1.1
283.672	-0.72
283.932	0.59
284.192	3.16
284.452	1.72
284.712	0.41
284.972	-0.26
285.232	-1.55
285.492	0.68
285.752	-2.37
286.012	2.01
286.272	4.48
286.532	2.52
286.792	3.59
287.052	5.72
287.312	7.04
287.571	6.61
287.831	5.25
288.091	3.95
288.351	4.46
288.611	8.82
288.871	7.75
289.13	8.78
289.39	4.33
289.65	4.98
289.91	3.12
290.17	6.21
290.429	9.03
290.689	5.28
290.949	3.8
291.208	5.05
291.468	9.24
291.728	10.41
291.987	11.2
292.247	8.75
292.506	11.94
292.766	14.79
293.026	13.31
293.285	12.94
293.545	15.14
293.804	15.74
294.064	11.79
294.323	8.04
294.583	9.99
294.842	9.59
295.102	8.07
295.361	7.87
295.621	7.39
295.88	7.93
296.139	6.94
296.399	9.38
296.658	4.32
296.917	3.61
297.177	-0.35
297.436	1.61
297.695	0.88
297.955	3.4
298.214	0.93
298.473	3.1
298.732	6.24
298.992	7.91
299.251	8.05
299.51	3.54
299.769	2.9
300.028	2.96
300.287	4.71
300.547	4.59
300.806	2.23
301.065	5.95
301.324	7.84
301.583	3.56
301.842	-0.52
302.101	-3.29
302.36	-3.08
302.619	-4.17
302.878	-3.85
303.137	-6.05
303.396	-4.77
303.655	-1.76
303.914	-4.19
304.173	-3.31
304.432	-4.67
304.691	-0.94
304.95	-2.82
305.208	3.91
305.467	4.01
305.726	4.35
305.985	4.64
306.244	5.8
306.503	3.22
306.761	2.31
307.02	-0.71
307.279	-1.05
307.537	0.21
307.796	-3.24
308.055	-5.92
308.314	-5.13
308.572	-6.86
308.831	-5.45
309.09	-4.91
309.348	-3.76
309.607	-4.25
309.865	0.41
310.124	1.71
310.382	5.1
310.641	5.27
310.9	3.93
311.158	6.15
311.417	5.23
311.675	5.47
311.933	6.62
312.192	7.57
312.45	7.64
312.709	5.88
312.967	6.41
313.226	5.76
313.484	5.38
313.742	3.46
314.001	0.59
314.259	-0.57
314.517	0.61
314.776	2.9
315.034	5.87
315.292	4.23
315.55	2.08
315.809	2.11
316.067	2.98
316.325	-1.41
316.583	-0.21
316.841	-1.82
317.1	-4.47
317.358	-8.25
317.616	-8.22
317.874	-8.87
318.132	-10.6
318.39	-11.1
318.648	-11.97
318.906	-13.68
319.164	-14.48
319.422	-15.12
319.68	-16.69
319.938	-16.79
320.196	-15.85
320.454	-13.6
320.712	-12.43
320.97	-11.88
321.228	-14.82
321.486	-13.71
321.744	-12.08
322.002	-9.46
322.26	-10.95
322.517	-10.49
322.775	-13.86
323.033	-14.54
323.291	-12.19
323.549	-9.82
323.806	-6.1
324.064	-6.07
324.322	-2.31
324.58	-3.81
324.837	-1.62
325.095	-5.16
325.353	-2.82
325.61	-0.09
325.868	-0.36
326.126	2.39
326.383	1.4
326.641	1.26
326.898	2.95
327.156	2.61
327.413	3.64
327.671	3.32
327.928	4.35
328.186	4.22
328.443	2.15
328.701	5.85
328.958	6.16
329.216	6.97
329.473	5.55
329.731	6.35
329.988	6.26
330.245	8.72
330.503	9.03
330.76	8.6
331.017	10.4
331.275	7.63
331.532	7.5
331.789	3.41
332.047	2.6
332.304	-1.04
332.561	0.85
332.818	0.77
333.076	3.7
333.333	4.58
333.59	3.07
333.847	4.02
334.104	2.69
334.361	2.08
334.618	2.38
334.876	1.03
335.133	2.52
335.39	-0.44
335.647	0.48
335.904	-2.11
336.161	-4.65
336.418	-4.92
336.675	-8.99
336.932	-6.7
337.189	-6.54
337.446	-6.94
337.703	-7.67
337.96	-12.16
338.216	-12.41
338.473	-14.85
338.73	-14.06
338.987	-15.06
339.244	-10.44
339.501	-12.45
339.757	-9.4
340.014	-6.94
340.271	-4.79
340.528	-5.81
340.785	-2.78
341.041	-1.53
341.298	-5.26
341.555	-4.6
341.811	-5.69
342.068	-7.85
342.325	-8.43
342.581	-7.04
342.838	-5.07
343.094	-5.91
343.351	-4.37
343.608	-6.82
343.864	-3.67
344.121	-1.96
344.377	-1.65
344.634	-3.25
344.89	-5.43
345.147	-6.32
345.403	-6.42
345.66	-6.86
345.916	-5.07
346.172	-6.44
346.429	-8.56
346.685	-10.04
346.942	-10.61
347.198	-16.03
347.454	-15.24
347.711	-17.33
347.967	-21.29
348.223	-20.6
348.48	-20.81
348.736	-17.6
348.992	-18.38
349.248	-14.57
349.504	-13.86
349.761	-13.29
350.017	-12.99
350.273	-12.95
350.529	-13.65
350.785	-13.85
351.041	-13.83
351.297	-12.58
351.554	-13.69
351.81	-16.12
352.066	-17.11
352.322	-16.01
352.578	-15.8
352.834	-15.15
353.09	-14.69
353.346	-15.07
353.602	-15.74
353.858	-15.51
354.114	-16.14
354.369	-13.85
354.625	-10.92
354.881	-11.86
355.137	-8.98
355.393	-9.32
355.649	-6.98
355.905	-6.08
356.16	-5.91
356.416	-5.62
356.672	-12.56
356.928	-12.01
357.183	-13.57
357.439	-14.5
357.695	-15.58
357.951	-10.73
358.206	-12.1
358.462	-12.87
358.718	-14.48
358.973	-13.61
359.229	-14.91
359.484	-14.28
359.74	-12.38
359.996	-11.45
360.251	-9.29
360.507	-9.3
360.762	-10.49
361.018	-8.4
361.273	-9.53
361.529	-9.74
361.784	-9.82
362.04	-8.83
362.295	-10.06
362.55	-10.1
362.806	-7.65
363.061	-7.06
363.316	-5.82
363.572	-5.66
363.827	-2.31
364.082	-5.62
364.338	-5.14
364.593	-5.33
364.848	-5.74
365.104	-6.91
365.359	-4.36
365.614	-4.78
365.869	-7.96
366.124	-6.8
366.38	-8.02
366.635	-5.54
366.89	-5.81
367.145	-5.15
367.4	-1.15
367.655	-0.94
367.91	-1.71
368.165	-3.63
368.42	-4.7
368.675	-3.59
368.93	-4.81
369.185	-5.67
369.44	-5.21
369.695	-2.53
369.95	-2.23
370.205	-1.82
370.46	-3.1
370.715	-3.37
370.97	-3.19
371.225	-3.76
371.48	-3.3
371.734	-4.55
371.989	-2.98
372.244	-4.85
372.499	-3.19
372.754	-4.28
373.008	-6.25
373.263	-10.93
373.518	-8.36
373.773	-10.12
374.027	-9.66
374.282	-6.25
374.537	-6.32
374.791	-3.26
375.046	-4.65
375.301	-6.05
375.555	-7.32
375.81	-5.84
376.064	-4.62
376.319	-2.13
376.573	-3.88
376.828	-5.43
377.082	-0.83
377.337	-2.51
377.591	-5.19
377.846	-5.9
378.1	-3.09
378.355	-2.99
378.609	-5.31
378.863	-8.32
379.118	-5.89
379.372	-7.67
379.627	-8.28
379.881	-9.52
380.135	-8.48
380.389	-8.92
380.644	-8.91
380.898	-7.69
381.152	-6.58
381.407	-6.72
381.661	-4.14
381.915	-2.72
382.169	-3.84
382.423	-5.02
382.677	-10.13
382.932	-8.58
383.186	-7.73
383.44	-6.18
383.694	-4
383.948	-5.56
384.202	-6.23
384.456	-3.33
384.71	-1.84
384.964	-3.73
385.218	-2.51
385.472	-1.69
385.726	-2.73
385.98	-4.75
386.234	-4.52
386.488	-6.48
386.742	-5.34
386.996	-7.58
387.249	-7.28
387.503	-5.76
387.757	-4.41
388.011	-3.75
388.265	-3.85
388.518	-1.62
388.772	-0.49
389.026	1.6
389.28	-0.26
389.533	-1.61
389.787	-0.17
390.041	-1.64
390.295	-1.69
390.548	-1.31
390.802	0.73
391.055	-1.49
391.309	-2.64
391.563	-4.81
391.816	-4.29
392.07	-4.49
392.323	-3.41
392.577	-3.24
392.83	-2.14
393.084	5.32
393.337	8.12
393.591	9.52
393.844	11.11
394.098	14.4
394.351	18.87
394.604	21.06
394.858	22.78
395.111	24.64
395.364	21.77
395.618	22.36
395.871	20.48
396.124	19.82
396.378	18.7
396.631	19.58
396.884	15.85
397.137	14.72
397.391	15.38
397.644	12.4
397.897	11.9
398.15	13.47
398.403	16.73
398.657	14.72
398.91	15.03
399.163	15.7
399.416	15.16
399.669	13.38
399.922	10.39
400.175	8.58
400.428	7.99
400.681	7.48
400.934	1.5
401.187	0.35
401.44	0.99
401.693	-1.82
401.946	-4.08
402.199	-9.02
402.452	-9.98
402.704	-14.18
402.957	-15.9
403.21	-13.17
403.463	-13.79
403.716	-13.31
403.969	-11.76
404.221	-12.58
404.474	-12.02
404.727	-7.58
404.98	-4.9
405.232	-3.62
405.485	-1.35
405.738	2.21
405.99	2.27
406.243	1.64
406.496	4.65
406.748	4.06
407.001	2.99
407.253	3.34
407.506	4.15
407.759	7.33
408.011	4.39
408.264	4.64
408.516	4.89
408.769	2.84
409.021	4.05
409.274	4
409.526	7.72
409.778	6.38
410.031	10.59
410.283	9.87
410.536	15.47
410.788	14.36
411.04	13.18
411.293	14.84
411.545	15.9
411.797	16.66
412.049	16.09
412.302	17.66
412.554	18
412.806	16.18
413.058	14.45
413.311	14.49
413.563	12.22
413.815	12.51
414.067	12.43
414.319	11.33
414.571	13.12
414.823	10.37
415.075	10.31
415.328	10.13
415.58	12.35
415.832	14.62
416.084	15.13
416.336	13.69
416.588	18.25
416.84	14.95
417.091	17.52
417.343	12.71
417.595	15.45
417.847	17.25
418.099	18.46
418.351	17.55
418.603	20.57
418.855	23.34
419.106	23.71
419.358	24.31
419.61	22.78
419.862	23.83
420.114	21.5
420.365	21.21
420.617	21.9
420.869	20.87
421.12	20.41
421.372	22.78
421.624	21.83
421.875	21.55
422.127	18.22
422.379	18.93
422.63	22.89
422.882	20.99
423.133	21.5
423.385	21.17
423.636	22.89
423.888	25.46
424.139	28.48
424.391	25.21
424.642	25.16
424.894	23.53
425.145	24.03
425.396	20.9
425.648	21.77
425.899	20.47
426.151	21.59
426.402	19.57
426.653	18.24
426.905	17.14
427.156	14.17
427.407	15.3
427.658	15.87
427.91	13.84
428.161	12.57
428.412	14.67
428.663	15.33
428.914	15.26
429.166	14.87
429.417	14.93
429.668	13.55
429.919	12.71
430.17	10.61
430.421	12.3
430.672	16.61
430.923	17.13
431.174	16.54
431.425	16.37
431.676	14.92
431.927	11.04
432.178	14.35
432.429	14.91
432.68	14.58
432.931	18.04
433.182	21.14
433.433	17.99
433.683	19.13
433.934	18.1
434.185	19
434.436	17.45
434.687	18.14
434.937	22.49
435.188	21.46
435.439	20.39
435.69	22.63
435.94	22.55
436.191	23.28
436.442	24.07
436.692	24.91
436.943	22.99
437.194	23.42
437.444	27.63
437.695	31.12
437.945	33.41
438.196	31.66
438.447	32.02
438.697	32.55
438.948	32.44
439.198	30.69
439.449	28
439.699	31.26
439.949	31.91
440.2	32.7
440.45	35.85
440.701	36.44
440.951	35.83
441.201	38.62
441.452	39.85
441.702	40.43
441.952	41.19
442.203	42.05
442.453	42.43
442.703	43
442.953	44.83
443.204	48.07
443.454	47.76
443.704	49.25
443.954	47.14
444.204	50.24
444.455	51.17
444.705	54.85
444.955	55.51
445.205	55.46
445.455	55.31
445.705	57.67
445.955	59.15
446.205	59.46
446.455	62.89
446.705	66.52
446.955	69.86
447.205	73.57
447.455	76.95
447.705	75.35
447.955	77.01
448.205	78.17
448.454	78.86
448.704	83.14
448.954	83.21
449.204	85.6
449.454	87.5
449.704	87.86
449.953	91.93
450.203	95.3
450.453	95.12
450.703	98.03
450.952	98.52
451.202	101.96
451.452	103.6
451.701	107.65
451.951	111.93
452.201	113.38
452.45	113.43
452.7	117.44
452.949	117.6
453.199	118.4
453.448	120.16
453.698	122.9
453.947	122.7
454.197	122.66
454.446	120.86
454.696	124.04
454.945	125.22
455.195	123.57
455.444	126.04
455.693	128.91
455.943	128.26
456.192	130.91
456.442	130.29
456.691	130.98
456.94	130.48
457.189	130.24
457.439	132.82
457.688	132.84
457.937	132.43
458.186	133.32
458.436	133.92
458.685	133.95
458.934	132.28
459.183	131.52
459.432	133.35
459.681	133
459.93	131.34
460.179	130.9
460.429	126.9
460.678	129.33
460.927	132
461.176	130.38
461.425	128.33
461.674	130.1
461.923	127.81
462.172	125.8
462.42	123.33
462.669	123.73
462.918	122.15
463.167	120.35
463.416	118.12
463.665	118.08
463.914	117.41
464.162	114.46
464.411	114.74
464.66	115.39
464.909	112.91
465.158	111.69
465.406	110.13
465.655	110.87
465.904	111.15
466.152	109.67
466.401	109.94
466.65	111.37
466.898	109
467.147	104.14
467.395	102.04
467.644	104.22
467.893	102.73
468.141	102.91
468.39	100.31
468.638	98.51
468.887	96.06
469.135	94.82
469.384	92.99
469.632	93.1
469.88	94.3
470.129	95.1
470.377	90.43
470.626	94.14
470.874	95.62
471.122	94.94
471.371	92.15
471.619	89.76
471.867	92.62
472.115	91.11
472.364	88.79
472.612	90.65
472.86	90
473.108	90.58
473.356	89.85
473.605	88.82
473.853	86.07
474.101	84.96
474.349	82.47
474.597	85.92
474.845	83.82
475.093	82.15
475.341	79.43
475.589	79.64
475.837	80.57
476.085	80.83
476.333	77.47
476.581	78.13
476.829	77.39
477.077	81.17
477.325	81.63
477.573	81.55
477.821	78.7
478.069	80.16
478.317	79.21
478.564	81.05
478.812	78.62
479.06	76.85
479.308	75.21
479.555	74.44
479.803	74.25
480.051	75.71
480.299	74.18
480.546	74.43
480.794	73.33
481.042	74.11
481.289	72.77
481.537	74.95
481.784	74.38
482.032	78.21
482.28	77.45
482.527	78.01
482.775	77.98
483.022	78.5
483.27	80.31
483.517	82.99
483.765	82.89
484.012	84.31
484.259	82.99
484.507	86.27
484.754	85.58
485.002	84.99
485.249	84.15
485.496	88.04
485.744	88.32
485.991	85.63
486.238	83.7
486.486	87.63
486.733	89.77
486.98	92.77
487.227	91.39
487.474	92.44
487.722	96.01
487.969	95.29
488.216	94.8
488.463	94.18
488.71	92.18
488.957	92.44
489.204	92.07
489.451	91.93
489.699	91.63
489.946	87.95
490.193	87.56
490.44	87.13
490.687	88.29
490.934	87.08
491.18	83.35
491.427	83.77
491.674	86.67
491.921	87.82
492.168	86.13
492.415	83.01
492.662	84.2
492.909	86.86
493.155	84.96
493.402	83.64
493.649	83.31
493.896	84.82
494.142	81.68
494.389	81.78
494.636	80.85
494.883	79.53
495.129	77.92
495.376	73.94
495.623	76.88
495.869	79.16
496.116	80.91
496.362	82.31
496.609	86.6
496.855	91.34
497.102	92.66
497.348	90.54
497.595	93.16
497.841	97.66
498.088	96.29
498.334	95.64
498.581	93.84
498.827	95.17
499.074	98.07
499.32	98.57
499.566	101.53
499.813	102.39
500.059	100.96
500.305	101.78
500.552	100.14
500.798	101.37
501.044	105.75
501.29	104.25
501.537	101.15
501.783	103.75
502.029	107.36
502.275	104.47
502.521	103.44
502.767	104.52
503.013	108.29
503.26	105.69
503.506	102.26
503.752	102.77
503.998	101.21
504.244	101.08
504.49	97.94
504.736	97.77
504.982	98.71
505.228	100.59
505.474	101.47
505.72	103.08
505.966	103.4
506.211	106.44
506.457	105.89
506.703	102.33
506.949	100.52
507.195	98.84
507.441	96.29
507.686	99.67
507.932	98.42
508.178	101.38
508.424	98.42
508.669	97.56
508.915	99.82
509.161	101.62
509.406	101.62
509.652	99.45
509.898	103.32
510.143	105.64
510.389	104.94
510.634	100.87
510.88	103.75
511.125	106.71
511.371	107.19
511.616	108.61
511.862	105.77
512.107	103.58
512.353	105.62
512.598	105.9
512.844	103.43
513.089	100.84
513.335	101.9
513.58	100.84
513.825	101.83
514.071	100.91
514.316	99.76
514.561	101.4
514.806	99.81
515.052	102.71
515.297	100.2
515.542	102.07
515.787	102.49
516.033	104.54
516.278	104.13
516.523	103.58
516.768	102.57
517.013	100.61
517.258	101.27
517.503	100.44
517.748	99.7
517.993	99.78
518.238	100.52
518.483	99.73
518.728	98.78
518.973	96.95
519.218	96.81
519.463	97.62
519.708	97.13
519.953	96.5
520.198	96.04
520.443	99.9
520.688	103.52
520.933	103.06
521.177	103.23
521.422	100.22
521.667	103.7
521.912	104.98
522.157	100.56
522.401	105.84
522.646	105.14
522.891	107.38
523.135	107.17
523.38	107.59
523.625	105.52
523.869	106.32
524.114	106.24
524.358	105.63
524.603	106.92
524.848	103.61
525.092	103.88
525.337	104.83
525.581	106.49
525.826	107.08
526.07	106.58
526.315	108.2
526.559	108.31
526.803	105.47
527.048	108.07
527.292	109.59
527.537	109.7
527.781	109.73
528.025	106.27
528.269	106.29
528.514	106.84
528.758	105.62
529.002	107.05
529.247	109.37
529.491	107.02
529.735	113
529.979	110.13
530.223	112.25
530.467	108.03
530.712	105.33
530.956	103.39
531.2	105.54
531.444	104.12
531.688	107.03
531.932	107.27
532.176	107.68
532.42	109.47
532.664	110.79
532.908	110.06
533.152	107.46
533.396	107.23
533.64	106.51
533.884	102.69
534.128	101.23
534.371	103
534.615	103.83
534.859	101.98
535.103	100.2
535.347	99.68
535.59	100.88
535.834	96.33
536.078	98.19
536.322	100.47
536.565	102.98
536.809	101.5
537.053	105.06
537.296	102.67
537.54	102.57
537.784	100.39
538.027	103
538.271	103.45
538.514	101.51
538.758	101.35
539.001	99.11
539.245	98.35
539.488	99.44
539.732	101.04
539.975	101.56
540.219	101.7
540.462	102.83
540.706	105.66
540.949	105.15
541.192	105.96
541.436	112.25
541.679	117.33
541.922	118.54
542.166	113.39
542.409	113.91
542.652	114.64
542.895	116.07
543.139	115.94
543.382	121.33
543.625	119.71
543.868	119.3
544.111	117.85
544.354	115.56
544.598	114.35
544.841	114.33
545.084	114.17
545.327	111.98
545.57	113.09
545.813	115.17
546.056	116.1
546.299	115.52
546.542	117.73
546.785	119.96
547.028	120.41
547.271	119.29
547.514	119.42
547.756	117.18
547.999	116.9
548.242	116.99
548.485	114.52
548.728	112.88
548.971	107.14
549.213	107.14
549.456	106.1
549.699	106.24
549.942	105.9
550.184	104.98
550.427	103.87
550.67	104.55
550.912	99.85
551.155	101.31
551.398	100.1
551.64	99.47
551.883	99.3
552.125	98.48
552.368	99.14
552.61	96.5
552.853	100.62
553.095	100.19
553.338	99.3
553.58	99.52
553.823	98.66
554.065	100.99
554.308	96.47
554.55	94.11
554.792	91.11
555.035	89.85
555.277	89.59
555.519	89.61
555.762	87.41
556.004	88.68
556.246	87.09
556.488	89.61
556.731	85.91
556.973	87
557.215	87.49
557.457	89.14
557.699	92.36
557.941	90.25
558.183	90.46
558.426	92.29
558.668	89.32
558.91	90.49
559.152	90.36
559.394	90.22
559.636	91.7
559.878	92.72
560.12	92.93
560.362	92.53
560.604	92.59
560.845	92.23
561.087	91.6
561.329	93.78
561.571	91.98
561.813	93.39
562.055	92.33
562.297	94.36
562.538	93.38
562.78	96.57
563.022	94.11
563.264	95.75
563.505	96.22
563.747	97.14
563.989	96.03
564.23	95.7
564.472	94.4
564.714	97.44
564.955	97.73
565.197	93.76
565.438	95.96
565.68	97.76
565.921	97.89
566.163	98.55
566.404	97.29
566.646	99.09
566.887	101.48
567.129	102.47
567.37	100.28
567.612	101.44
567.853	99.44
568.094	99.95
568.336	100.88
568.577	101.91
568.818	102.34
569.06	100.21
569.301	97.83
569.542	99.34
569.783	100.55
570.025	101.41
570.266	101.06
570.507	103.6
570.748	102.92
570.989	103.76
571.23	105.94
571.472	106.27
571.713	105.33
571.954	106.62
572.195	104.26
572.436	105.02
572.677	108.11
572.918	109.9
573.159	107.82
573.4	104.5
573.641	103.8
573.882	105.51
574.123	103.95
574.364	98.41
574.604	97.93
574.845	97.36
575.086	99.3
575.327	99.52
575.568	99.36
575.809	97.62
576.049	96
576.29	93.44
576.531	97.92
576.771	100.88
577.012	103.59
577.253	104.29
577.494	104.19
577.734	102.63
577.975	103.6
578.215	102.16
578.456	100.98
578.697	101.79
578.937	101.76
579.178	101.97
579.418	100.12
579.659	99.29
579.899	96.18
580.14	94.78
580.38	93.63
580.62	93.33
580.861	96.15
581.101	96.29
581.342	95.82
581.582	90.55
581.822	93.41
582.063	91.68
582.303	91.91
582.543	90.79
582.783	92.65
583.024	94.97
583.264	96.86
583.504	95.15
583.744	97.66
583.984	94.58
584.224	96
584.465	93.88
584.705	93.85
584.945	94.73
585.185	95.67
585.425	95.31
585.665	96.25
585.905	95.38
586.145	93.89
586.385	92.53
586.625	94.42
586.865	94.74
587.105	95.41
587.345	96.51
587.585	96.19
587.824	93.38
588.064	93.69
588.304	92.55
588.544	92.66
588.784	90.06
589.024	93.27
589.263	92.8
589.503	92.14
589.743	94.81
589.982	92.96
590.222	92.53
590.462	89.56
590.701	86.54
590.941	88.45
591.181	87.09
591.42	87.02
591.66	88.11
591.899	90.51
592.139	89.11
592.378	89.12
592.618	87.6
592.857	85.77
593.097	85.92
593.336	87.45
593.576	87.6
593.815	88.97
594.055	89.41
594.294	88.36
594.533	87.77
594.773	86.91
595.012	88.89
595.251	89.67
595.491	92.56
595.73	94.75
595.969	95.9
596.208	98.12
596.447	102.25
596.687	103.53
596.926	104.07
597.165	99.73
597.404	102.61
597.643	99.87
597.882	97.95
598.121	100.11
598.36	101.82
598.599	102.35
598.838	102.11
599.077	99.08
599.316	98.57
599.555	97.53
599.794	98.02
600.033	99.75
600.272	101
600.511	99.63
600.75	98.76
600.989	100.5
601.228	99.32
601.466	97.75
601.705	98.73
601.944	98.08
602.183	100.46
602.422	98.39
602.66	97.32
602.899	94.27
603.138	93.67
603.376	93.6
603.615	93.31
603.854	90.65
604.092	89.52
604.331	90.23
604.569	91.9
604.808	90.22
605.047	92.77
605.285	93.09
605.524	91.68
605.762	88.79
606	89.67
606.239	90.65
606.477	91.25
606.716	88.25
606.954	88.59
607.193	86.12
607.431	81.46
607.669	80.35
607.908	78.98
608.146	81.79
608.384	78.68
608.622	79.44
608.861	78.88
609.099	78.81
609.337	77.84
609.575	76.65
609.813	78.22
610.052	78.81
610.29	74.48
610.528	71.85
610.766	70.06
611.004	69.5
611.242	68.16
611.48	66.88
611.718	63.71
611.956	62.83
612.194	60.92
612.432	59.62
612.67	59.08
612.908	61.32
613.146	59.13
613.384	57.32
613.621	55.07
613.859	54
614.097	53.52
614.335	52.17
614.573	53.97
614.811	56.38
615.048	55.17
615.286	56.92
615.524	56.54
615.761	55.66
615.999	55.52
616.237	56.01
616.474	56.75
616.712	57.35
616.95	56.38
617.187	54.9
617.425	55.38
617.662	58.87
617.9	57.61
618.137	55.5
618.375	54.39
618.612	52.22
618.85	55.57
619.087	59.36
619.325	60.01
619.562	58.55
619.799	57.14
620.037	55.96
620.274	55.16
620.511	56.81
620.749	54.86
620.986	53.87
621.223	51.91
621.461	51.3
621.698	53.68
621.935	51.48
622.172	48.94
622.409	52.48
622.647	50.97
622.884	46.83
623.121	48.26
623.358	45.19
623.595	44.38
623.832	45.29
624.069	44.27
624.306	44.43
624.543	44.88
624.78	46.23
625.017	44.91
625.254	47.41
625.491	49.76
625.728	51.69
625.965	52.88
626.202	51.9
626.438	49.84
626.675	48.87
626.912	52.57
627.149	53.72
627.386	53.33
627.622	51.11
627.859	51.14
628.096	52.18
628.333	52.1
628.569	53.5
628.806	55.16
629.043	54.94
629.279	56.78
629.516	59.49
629.752	53.62
629.989	55.37
630.225	53.33
630.462	53.78
630.699	54.39
630.935	54.19
631.171	50.66
631.408	49.95
631.644	48.15
631.881	45.71
632.117	42.51
632.354	44.19
632.59	41.54
632.826	41.1
633.063	39.19
633.299	40.17
633.535	37.43
633.771	36.4
634.008	37.68
634.244	36.61
634.48	35.46
634.716	37.77
634.953	37.14
635.189	38.09
635.425	39.62
635.661	43
635.897	40.74
636.133	40.41
636.369	37.77
636.605	33.33
636.841	31.94
637.077	34.62
637.313	33.8
637.549	35.19
637.785	34.22
638.021	34.92
638.257	33.68
638.493	35.34
638.729	35.98
638.965	40
639.2	41.93
639.436	41.71
639.672	40.08
639.908	38.79
640.144	42.49
640.379	45.65
640.615	43.99
640.851	45.54
641.086	46.59
641.322	45.33
641.558	44.22
641.793	43.47
642.029	40.64
642.264	39.5
642.5	39.1
642.736	32.48
642.971	32.6
643.207	32
643.442	29.98
643.678	29.94
643.913	30.89
644.148	30.38
644.384	32.29
644.619	31.82
644.855	34.06
645.09	33.84
645.325	33.06
645.561	33.95
645.796	32.33
646.031	35.78
646.266	32.74
646.502	31.01
646.737	33.03
646.972	33.05
647.207	33.95
647.442	31.52
647.678	28.47
647.913	30.45
648.148	32.3
648.383	31.57
648.618	31.45
648.853	31.89
649.088	34.88
649.323	37.7
649.558	38.87
649.793	38.08
650.028	40.52
650.263	36.22
650.498	38.17
650.733	36.9
650.968	36.7
651.202	38.96
651.437	37.57
651.672	33.95
651.907	34.3
652.142	34.77
652.376	34.65
652.611	37.03
652.846	37.58
653.081	36.88
653.315	34.17
653.55	34.09
653.785	32.55
654.019	33.78
654.254	31.45
654.488	32.06
654.723	27.28
654.958	26.1
655.192	23.91
655.427	19
655.661	20.88
655.896	22.98
656.13	24.08
656.364	20.17
656.599	17.07
656.833	19.06
657.068	22.05
657.302	21.92
657.536	20.72
657.771	20.98
658.005	23.23
658.239	24.3
658.474	21.84
658.708	22.48
658.942	22.55
659.176	19.63
659.41	15.61
659.645	14.6
659.879	13.51
660.113	10.37
660.347	9.97
660.581	9.06
660.815	8.52
661.049	7.94
661.283	4.29
661.517	3.31
661.751	2.16
661.985	2.38
662.219	2.81
662.453	2.75
662.687	5.06
662.921	0.24
663.155	-0.38
663.389	-5.91
663.622	-6.07
663.856	-2.81
664.09	-6.37
664.324	-7.58
664.558	-7.13
664.791	-6.21
665.025	-5.46
665.259	-6.56
665.492	-7.51
665.726	-3.59
665.96	-3.24
666.193	-4.96
666.427	-3.37
666.661	-4.55
666.894	-5.28
667.128	-6.07
667.361	-4.64
667.595	-4.73
667.828	-5.85
668.062	-7.1
668.295	-6.56
668.529	-4.11
668.762	-3.29
668.995	-3.66
669.229	-0.72
669.462	-0.53
669.695	-0.38
669.929	-2.57
670.162	-0.71
670.395	-3.46
670.629	-1.92
670.862	-0.02
671.095	-4.25
671.328	-2.71
671.561	-6.65
671.795	-4.89
672.028	-5.38
672.261	-6.32
672.494	-4.97
672.727	-6.1
672.96	-5.77
673.193	-6.67
673.426	-1.78
673.659	-1.86
673.892	-1.2
674.125	-1.31
674.358	-1.49
674.591	-1.46
674.824	-1.47
675.057	-2.08
675.29	-3
675.523	-0.86
675.755	-3.08
675.988	-1.24
676.221	1.94
676.454	-0.21
676.687	1.03
676.919	0.32
677.152	0.96
677.385	-0.15
677.617	1.05
677.85	1.94
678.083	0.89
678.315	3.94
678.548	1.63
678.78	1.69
679.013	1.4
679.246	4.22
679.478	4.49
679.711	2.43
679.943	3.38
680.175	-0.73
680.408	2.3
680.64	-2.72
680.873	-1.99
681.105	-0.3
681.338	3.21
681.57	1.78
681.802	1.99
682.034	1.36
682.267	4.17
682.499	6.41
682.731	5.01
682.964	2.69
683.196	-0.28
683.428	-2.5
683.66	-2
683.892	-0.29
684.124	1.39
684.356	4.07
684.589	4.79
684.821	3.06
685.053	4.24
685.285	4.77
685.517	5.42
685.749	7.64
685.981	8.66
686.213	8.82
686.445	7.87
686.676	5.57
686.908	5.43
687.14	4.14
687.372	5.65
687.604	2.77
687.836	4.66
688.068	4.97
688.299	4.67
688.531	2.14
688.763	5.25
688.995	3.87
689.226	7.12
689.458	4.8
689.69	3.16
689.921	1.28
690.153	1.95
690.384	3.99
690.616	3.08
690.848	2.8
691.079	-0.58
691.311	-2.92
691.542	-5.37
691.774	-7.81
692.005	-3.69
692.237	-0.98
692.468	-3.34
692.699	-4.35
692.931	-3.92
693.162	-5.01
693.393	-6.15
693.625	-7.57
693.856	-5.3
694.087	-4.41
694.319	-3.37
694.55	-4.48
694.781	-5.85
695.012	-5.43
695.243	-8.14
695.475	-8.91
695.706	-9.45
695.937	-9.7
696.168	-9.87
696.399	-12.82
696.63	-13.9
696.861	-13.75
697.092	-8.48
697.323	-4.57
697.554	-3.61
697.785	-2.81
698.016	-2.2
698.247	-2.31
698.478	-2.13
698.709	-1.05
698.94	2.39
699.171	-0.27
699.401	-5.17
699.632	-3.3
699.863	-6.14
700.094	-7.77
700.325	-4.92
700.555	-4.37
700.786	-2.59
701.017	-3.74
701.247	-3.88
701.478	-3.2
701.709	-1.86
701.939	-2.59
702.17	-0.11
702.401	2.35
702.631	2.18
702.862	0.92
703.092	-2.19
703.323	0.72
703.553	3.66
703.784	5.75
704.014	5.08
704.244	-0.41
704.475	-1.64
704.705	-2.66
704.936	-2.48
705.166	-3.9
705.396	-3.42
705.627	-2.37
705.857	-2.66
706.087	-1.85
706.317	-2.72
706.548	-3.81
706.778	-4.63
707.008	-3.39
707.238	-2.5
707.468	-5.37
707.698	-6.19
707.928	-6.91
708.158	-6.94
708.389	-7.62
708.619	-9.22
708.849	-10.85
709.079	-8.52
709.309	-12.19
709.539	-13.82
709.768	-12.71
709.998	-10.44
710.228	-11.23
710.458	-13.53
710.688	-16.78
710.918	-17.59
711.148	-16.89
711.378	-16.17
711.607	-17.08
711.837	-17
712.067	-16.98
712.297	-16.53
712.526	-17.35
712.756	-15.73
712.986	-18.38
713.215	-21.33
713.445	-20.89
713.674	-19.34
713.904	-19.52
714.134	-16.4
714.363	-16.06
714.593	-16.18
714.822	-17.51
715.052	-18.45
715.281	-18.18
715.511	-17.2
715.74	-16.54
715.969	-16.82
716.199	-18.11
716.428	-17.2
716.657	-18.04
716.887	-16.01
717.116	-17.74
717.345	-14.6
717.575	-13.88
717.804	-13.23
718.033	-14.97
718.262	-15.8
718.492	-14.78
718.721	-13.68
718.95	-13.69
719.179	-15.31
719.408	-14.05
719.637	-15.69
719.866	-16.98
720.095	-14.25
720.324	-14.63
720.553	-17.98
720.782	-19.23
721.011	-19.43
721.24	-22.98
721.469	-24.28
721.698	-23.78
721.927	-23.02
722.156	-24.51
722.385	-25.03
722.613	-22.72
722.842	-22.14
723.071	-18.76
723.3	-17.7
723.529	-18.55
723.757	-17.66
723.986	-21.42
724.215	-22.16
724.443	-21.12
724.672	-18.93
724.901	-18.27
725.129	-15.12
725.358	-11.52
725.586	-13.17
725.815	-13.36
726.043	-14.12
726.272	-16.19
726.5	-16.63
726.729	-15.5
726.957	-19.17
727.186	-21.44
727.414	-20.36
727.642	-18.41
727.871	-16.46
728.099	-16.47
728.327	-15.52
728.556	-13.26
728.784	-13.15
729.012	-14.97
729.241	-12.17
729.469	-14.38
729.697	-18.33
729.925	-18.21
730.153	-22.06
730.381	-21.59
730.61	-21.02
730.838	-22.35
731.066	-20.09
731.294	-18.49
731.522	-21.78
731.75	-26.38
731.978	-26.5
732.206	-28.24
732.434	-29.52
732.662	-27.61
732.89	-30.04
733.118	-31.23
733.346	-29.68
733.573	-29.78
733.801	-29.74
734.029	-22.53
734.257	-21.77
734.485	-18.76
734.712	-17.38
734.94	-20.12
735.168	-15.8
735.396	-15.55
735.623	-18.12
735.851	-16.74
736.078	-14.39
736.306	-13.88
736.534	-12.8
736.761	-11.68
736.989	-14.32
737.216	-13.87
737.444	-16.71
737.671	-15.96
737.899	-11.97
738.126	-13.81
738.354	-14.08
738.581	-12.12
738.809	-10.84
739.036	-14.69
739.263	-12.71
739.491	-16.18
739.718	-16.32
739.945	-11.54
740.173	-8.05
740.4	-7.3
740.627	-8.27
740.854	-8.18
741.081	-11.31
741.309	-12.32
741.536	-17.03
741.763	-17.07
741.99	-13.86
742.217	-15.89
742.444	-16.64
742.671	-14.46
742.898	-14.13
743.125	-16.71
743.352	-19.42
743.579	-19.58
743.806	-20.25
744.033	-17.2
744.26	-15.33
744.487	-14
744.714	-14.72
744.941	-16.85
745.167	-13.38
745.394	-14.74
745.621	-15.93
745.848	-15.39
746.075	-10.81
746.301	-7.36
746.528	-2.03
746.755	-3.86
746.981	-3.92
747.208	-3.45
747.435	-1.01
747.661	0.39
747.888	1.73
748.114	-0.46
748.341	1.93
748.567	5.56
748.794	3.35
749.02	1.76
749.247	-0.03
749.473	-0.13
749.7	-1.04
749.926	-2.52
750.152	2.09
750.379	2.09
750.605	2.54
750.831	3.07
751.058	1.79
751.284	-0.08
751.51	2.22
751.737	3.48
751.963	3.48
752.189	3.9
752.415	3.94
752.641	3.92
752.867	4.02
753.094	2.07
753.32	-1.45
753.546	-2.81
753.772	-1.48
753.998	-3.99
754.224	-4.82
754.45	-6
754.676	-6.8
754.902	-8.14
755.128	-6.94
755.354	-8.15
755.579	-7.15
755.805	-4.92
756.031	-5.83
756.257	-6.35
756.483	-6.85
756.709	-8.26
756.934	-8
757.16	-11.21
757.386	-10.73
757.612	-12.51
757.837	-15.05
758.063	-13.05
758.289	-9.76
758.514	-11.21
758.74	-14.01
758.965	-15.96
759.191	-15.61
759.416	-15.09
759.642	-14.28
759.868	-13.34
760.093	-11.46
760.318	-12.8
760.544	-13.93
760.769	-14.52
760.995	-14.72
761.22	-14.65
761.445	-13.57
761.671	-10.69
761.896	-6.88
762.121	-6.56
762.347	-6.8
762.572	-10.09
762.797	-11.03
763.022	-10.9
763.248	-6.92
763.473	-6.59
763.698	-7.3
763.923	-6.57
764.148	-6.74
764.373	-7.17
764.598	-4.45
764.823	-2.05
765.048	-5.09
765.273	-9.62
765.498	-10.38
765.723	-9.09
765.948	-8.26
766.173	-9.24
766.398	-8.24
766.623	-10.28
766.848	-11.52
767.073	-13.19
767.298	-12.98
767.522	-14.03
767.747	-13.13
767.972	-13.42
768.197	-13.35
768.421	-15.59
768.646	-20.34
768.871	-24.94
769.095	-24.85
769.32	-22.98
769.545	-23.51
769.769	-22.14
769.994	-21.03
770.218	-23.98
770.443	-22.41
770.667	-21.07
770.892	-21.67
771.116	-22.78
771.341	-20.52
771.565	-21.45
771.79	-20.76
772.014	-20.63
772.238	-20.39
772.463	-18.29
772.687	-18.66
772.911	-18.55
773.136	-21.27
773.36	-20.81
773.584	-18.59
773.808	-19.8
774.033	-19.09
774.257	-19.8
774.481	-20.02
774.705	-20.02
774.929	-19.72
775.153	-19.45
775.377	-16.98
775.602	-16.82
775.826	-14.33
776.05	-13.19
776.274	-14.04
776.498	-13.15
776.722	-13.27
776.945	-12.24
777.169	-12.93
777.393	-14.04
777.617	-14.75
777.841	-13.36
778.065	-10.87
778.289	-11.2
778.512	-11.46
778.736	-12.6
778.96	-13.62
779.184	-10.84
779.407	-12.27
779.631	-12.03
779.855	-12.99
780.078	-11.3
780.302	-13.36
780.526	-16.85
780.749	-16.5
780.973	-15.68
781.196	-14.48
781.42	-15.04
781.643	-15.81
781.867	-14.53
782.09	-17.48
782.314	-19.23
782.537	-19.56
782.76	-19.77
782.984	-18.94
783.207	-20.14
783.431	-19.75
783.654	-22.59
783.877	-25.54
784.1	-25.95
784.324	-27.5
784.547	-28.24
784.77	-32.52
784.993	-34.79
785.216	-36.72
785.44	-37.08
785.663	-36.29
785.886	-32.79
786.109	-33.74
786.332	-33.32
786.555	-32.26
786.778	-30.6
787.001	-30.59
787.224	-28.08
787.447	-25.41
787.67	-23.41
787.893	-22.7
788.116	-22.39
788.339	-21.85
788.561	-23.4
788.784	-27.89
789.007	-28.89
789.23	-28.97
789.453	-28.08
789.675	-30.16
789.898	-31.85
790.121	-33.67
790.344	-34.4
790.566	-33.26
790.789	-32.43
791.012	-32.05
791.234	-28.93
791.457	-23.78
791.679	-22.68
791.902	-21.88
792.124	-20.41
792.347	-21.13
792.569	-22.08
792.792	-24.55
793.014	-21.71
793.237	-21.18
793.459	-21.72
793.681	-21.27
793.904	-21.55
794.126	-23.52
794.348	-23.4
794.571	-22.97
794.793	-24.88
795.015	-25.02
795.237	-24.5
795.46	-22.35
795.682	-20.78
795.904	-17.75
796.126	-18.82
796.348	-19.36
796.57	-16.35
796.792	-16.23
797.014	-11.76
797.237	-10.22
797.459	-6.95
797.681	-5.53
797.903	-5.76
798.124	-5.21
798.346	3.73
798.568	5.89
798.79	8.9
799.012	7.84
799.234	8.46
799.456	9.37
799.678	10.95
799.899	8.37
800.121	6.03
800.343	5.3
800.565	5.08
800.786	4.1
801.008	5.79
801.23	4.15
801.451	3.94
801.673	1.54
801.895	1.58
802.116	2.45
802.338	3.65
802.559	4.49
802.781	2.38
803.002	3.25
803.224	6.09
803.445	4.04
803.667	4.83
803.888	2.83
804.109	3.51
804.331	1.56
804.552	1.05
804.773	4.09
804.995	1.93
805.216	-10.36
805.437	-12.61
805.658	-15.58
805.88	-15.64
806.101	-15.53
806.322	-14.97
806.543	-16.41
806.764	-19.71
806.985	-17.01
807.207	-16.82
807.428	-16.1
807.649	-18.2
807.87	-20.18
808.091	-18.44
808.312	-19.01
808.533	-12.67
808.754	-11.36
808.975	-13.79
809.195	-13.2
809.416	-12.54
809.637	-11.98
809.858	-12.35
810.079	-15.35
810.3	-14.83
810.52	-14.55
810.741	-16.82
810.962	-19.47
811.183	-19.86
811.403	-19.05
811.624	-21.69
811.845	-20.88
812.065	-20.48
812.286	-18.9
812.506	-17.71
812.727	-17.66
812.948	-15.78
813.168	-14
813.389	-14.13
813.609	-12.35
813.83	-13
814.05	-12.84
814.27	-12.75
814.491	-9.02
814.711	-10.17
814.931	-13.38
815.152	-13.69
815.372	-16.24
815.592	-16.55
815.813	-16.71
816.033	-19.26
816.253	-19.51
816.473	-21.7
816.694	-20.84
816.914	-18.55
817.134	-18.24
817.354	-21.77
817.574	-19.52
817.794	-17.83
818.014	-17.34
818.234	-18.24
818.454	-19.71
818.674	-21.33
818.894	-24.24
819.114	-21.26
819.334	-20.63
819.554	-18.22
819.774	-16
819.994	-19.29
820.214	-19.42
820.433	-18.07
820.653	-18.93
820.873	-16.27
821.093	-16.45
821.312	-17.99
821.532	-16.18
821.752	-12.94
821.972	-13.43
822.191	-13.12
822.411	-15.41
822.63	-14.52
822.85	-11.76
823.07	-13.27
823.289	-12.28
823.509	-13.45
823.728	-11.76
823.948	-13.14
824.167	-12.82
824.387	-13.06
824.606	-12.46
824.825	-14.11
825.045	-14.09
825.264	-14.49
825.483	-12.64
825.703	-11.08
825.922	-15.5
826.141	-17.19
826.361	-19.18
826.58	-22.96
826.799	-24.33
827.018	-23.54
827.237	-24
827.456	-22.23
827.676	-23.88
827.895	-23.61
828.114	-21.71
828.333	-21.97
828.552	-22.95
828.771	-21.33
828.99	-22.01
829.209	-20.54
829.428	-18.45
829.647	-19.36
829.866	-19.26
830.084	-19.08
830.303	-19.65
830.522	-21.97
830.741	-21.78
830.96	-20.41
831.179	-20.52
831.397	-22.77
831.616	-23.62
831.835	-23.28
832.053	-22.41
832.272	-21.86
832.491	-19.08
832.709	-18.25
832.928	-18.08
833.147	-17.13
833.365	-15.51
833.584	-11.83
833.802	-9.1
834.021	-8.88
834.239	-8.55
834.458	-8.83
834.676	-12.83
834.894	-14.79
835.113	-14.95
835.331	-14.61
835.55	-16.62
835.768	-17.3
835.986	-16.84
836.204	-18.62
836.423	-18.01
836.641	-17.8
836.859	-18.54
837.077	-18.07
837.296	-17.82
837.514	-19.08
837.732	-18.96
837.95	-19.97
838.168	-16.81
838.386	-16.77
838.604	-13.74
838.822	-13.04
839.04	-14.78
839.258	-15.36
839.476	-13.17
839.694	-12.82
839.912	-13.74
840.13	-14.71
840.348	-13
840.566	-17.43
840.783	-15.39
841.001	-16.64
841.219	-16.64
841.437	-13.5
841.655	-13.2
841.872	-12.76
842.09	-12.93
842.308	-11.12
842.525	-10.05
842.743	-9.3
842.961	-10.56
843.178	-12.9
843.396	-9.68
843.613	-8.28
843.831	-6.96
844.048	-6.59
844.266	-5.97
844.483	-7.5
844.701	-9.6
844.918	-10.12
845.136	-10.41
845.353	-12.94
845.57	-11.65
845.788	-8.18
846.005	-9.83
846.222	-12.82
846.439	-11.54
846.657	-12.79
846.874	-13.38
847.091	-15.94
847.308	-12.1
847.526	-14.83
847.743	-15.43
847.96	-17.83
848.177	-18.73
848.394	-20
848.611	-20.55
848.828	-21.85
849.045	-23.43
849.262	-22.95
849.479	-23.2
849.696	-23.86
849.913	-25.93
850.13	-31.03
850.347	-28.34
850.564	-28.37
850.78	-31.01
850.997	-31.79
851.214	-32.19
851.431	-30.58
851.647	-33.99
851.864	-32.13
852.081	-30.37
852.298	-34.41
852.514	-35.9
852.731	-34.56
852.948	-31.22
853.164	-30.27
853.381	-29.69
853.597	-30.07
853.814	-32.74
854.03	-36.65
854.247	-33
854.463	-32.88
854.68	-32.41
854.896	-31.45
855.113	-30.57
855.329	-30.34
855.545	-27.55
855.762	-27.82
855.978	-31.37
856.194	-33.51
856.411	-28.98
856.627	-26.41
856.843	-24.98
857.059	-22.79
857.275	-25.31
857.492	-23.94
857.708	-19.96
857.924	-18.06
858.14	-15.88
858.356	-15.77
858.572	-16.03
858.788	-18.53
859.004	-16.23
859.22	-18.51
859.436	-18.61
859.652	-21.07
859.868	-23.48
860.084	-22.22
860.3	-21.22
860.516	-19.45
860.731	-19.03
860.947	-22.89
861.163	-21.08
861.379	-18.79
861.595	-17.24
861.81	-16.66
862.026	-15.97
862.242	-16.05
862.457	-16.01
862.673	-14.15
862.889	-14.54
863.104	-16.25
863.32	-15.49
863.535	-14.47
863.751	-19.08
863.966	-14.23
864.182	-11.79
864.397	-15.83
864.613	-17.86
864.828	-19.18
865.044	-17.27
865.259	-16.59
865.474	-16.52
865.69	-15.36
865.905	-14.65
866.12	-16.65
866.336	-16.52
866.551	-14.98
866.766	-16.89
866.981	-19.26
867.196	-20.75
867.412	-21
867.627	-20.07
867.842	-22.13
868.057	-23.02
868.272	-25.24
868.487	-25.96
868.702	-27.51
868.917	-28.5
869.132	-26.4
869.347	-26.95
869.562	-26.66
869.777	-26.21
869.992	-27.34
870.207	-26.81
870.422	-27.63
870.636	-30.8
870.851	-33.29
871.066	-33.15
871.281	-32.41
871.495	-33.15
871.71	-31.82
871.925	-34.04
872.14	-35.6
872.354	-37.24
872.569	-37.9
872.783	-36.57
872.998	-36.17
873.213	-35.64
873.427	-32.56
873.642	-30.02
873.856	-28.77
874.071	-27.75
874.285	-29.27
874.5	-29.71
874.714	-32.64
874.928	-33.09
875.143	-32.49
875.357	-32.28
875.571	-33.68
875.786	-33.74
876	-29.71
876.214	-29.42
876.429	-32.12
876.643	-31.26
876.857	-30.63
877.071	-30.06
877.285	-31.16
877.499	-33.38
877.714	-31.29
877.928	-29.78
878.142	-31.01
878.356	-33.32
878.57	-31.69
878.784	-29.56
878.998	-29.69
879.212	-26.89
879.426	-28.12
879.639	-26.44
879.853	-28.52
880.067	-29.67
880.281	-30.82
880.495	-29.31
880.709	-27.76
880.922	-26.18
881.136	-25.7
881.35	-22.18
881.564	-21.17
881.777	-24.17
881.991	-23.26
882.205	-20.17
882.418	-19.89
882.632	-22.98
882.845	-22.56
883.059	-21.74
883.273	-22.06
883.486	-23.86
883.7	-21.3
883.913	-20.78
884.126	-20.11
884.34	-22.29
884.553	-24.18
884.767	-21.23
884.98	-20.39
885.193	-22.25
885.407	-23.81
885.62	-22.24
885.833	-23.46
886.046	-21.77
886.26	-23.29
886.473	-24.17
886.686	-25.57
886.899	-24.52
887.112	-25.63
887.326	-27.66
887.539	-27.75
887.752	-25.12
887.965	-27.57
888.178	-27.87
888.391	-26.88
888.604	-26.62
888.817	-29.75
889.03	-29.69
889.243	-30.74
889.455	-34.59
889.668	-33.08
889.881	-31.03
890.094	-31.03
890.307	-32.99
890.52	-32.96
890.732	-30.82
890.945	-30.59
891.158	-30.44
891.37	-31.24
891.583	-31.18
891.796	-29.61
892.008	-29.76
892.221	-30.78
892.434	-33.08
892.646	-35.11
892.859	-36.05
893.071	-33.86
893.284	-30.74
893.496	-31.62
893.709	-31.42
893.921	-31.85
894.133	-31.31
894.346	-32.83
894.558	-33.25
894.771	-32.43
894.983	-29.98
895.195	-28.81
895.407	-27.13
895.62	-29.06
895.832	-27.62
896.044	-23.66
896.256	-25.73
896.468	-27.5
896.681	-25.74
896.893	-24.28
897.105	-23.18
897.317	-24.55
897.529	-23.15
897.741	-21.65
897.953	-20.79
898.165	-22.63
898.377	-24.37
898.589	-23.06
898.801	-24.18
899.013	-21.51
899.224	-17.27
899.436	-16.16
899.648	-16.3
899.86	-18.16
900.072	-15.38
900.283	-16.02
900.495	-12.92
900.707	-13.12
900.919	-16.52
901.13	-13.74
901.342	-16.24
901.554	-16.65
901.765	-16.91
901.977	-19.49
902.188	-20.71
902.4	-22.28
902.611	-23
902.823	-23.61
903.034	-25.55
903.246	-28.82
903.457	-29.42
903.669	-30.89
903.88	-30.08
904.091	-29.84
904.303	-29.09
904.514	-31.24
904.725	-29.25
904.936	-27.43
905.148	-27.12
905.359	-23.9
905.57	-25.92
905.781	-29.55
905.992	-28.87
906.204	-29.56
906.415	-29.95
906.626	-32.26
906.837	-28
907.048	-29.35
907.259	-30.07
907.47	-30.3
907.681	-32.72
907.892	-30.22
908.103	-31.17
908.314	-34.72
908.525	-31.4
908.735	-30.44
908.946	-31.11
909.157	-31.78
909.368	-28.56
909.579	-27.05
909.789	-27.48
910	-30.68
910.211	-28.81
910.421	-30.28
910.632	-29.54
910.843	-32.67
911.053	-27.4
911.264	-24.07
911.475	-24.02
911.685	-24.64
911.896	-25.76
912.106	-24.97
912.317	-25.99
912.527	-25.55
912.737	-25.5
912.948	-24.56
913.158	-24.82
913.369	-29.18
913.579	-28.48
913.789	-28.9
914	-25.2
914.21	-24.81
914.42	-23.29
914.63	-22.76
914.841	-21.05
915.051	-20.47
915.261	-19.81
915.471	-17.33
915.681	-17.5
915.891	-18.36
916.101	-18.78
916.311	-17.68
916.521	-15.59
916.731	-14.62
916.941	-11.18
917.151	-12.72
917.361	-9.74
917.571	-14.8
917.781	-17.2
917.991	-20.33
918.201	-21.34
918.411	-23.49
918.621	-23.11
918.83	-21.18
919.04	-23.28
919.25	-21.11
919.46	-20.09
919.669	-21.23
919.879	-20.88
920.089	-21.72
920.298	-22.36
920.508	-21.44
920.717	-20.68
920.927	-23.04
921.136	-23.24
921.346	-24.5
921.555	-28.01
921.765	-29.05
921.974	-30.6
922.184	-33.48
922.393	-34.5
922.603	-36.25
922.812	-33.92
923.021	-34.77
923.23	-37.2
923.44	-40.13
923.649	-40.83
923.858	-41.93
924.067	-41.68
924.277	-45.09
924.486	-43.09
924.695	-43.17
924.904	-41.21
925.113	-42.36
925.322	-41.71
925.531	-40.63
925.74	-43.57
925.949	-45.36
926.158	-43.74
926.367	-43.89
926.576	-43.14
926.785	-42.46
926.994	-44.79
927.203	-44.62
927.412	-46.61
927.621	-46.78
927.83	-44.09
928.038	-43.68
928.247	-43.07
928.456	-43.87
928.665	-40.39
928.873	-37.76
929.082	-34.99
929.291	-34.64
929.499	-32.41
929.708	-33.18
929.916	-31.03
930.125	-31.16
930.333	-31.71
930.542	-28.73
930.75	-25.46
930.959	-23.71
931.167	-22.78
931.376	-22.56
931.584	-21
931.793	-20.91
932.001	-20.55
932.209	-22.44
932.418	-24.15
932.626	-26.68
932.834	-26.31
933.042	-29.46
933.251	-29.23
933.459	-29.37
933.667	-28.66
933.875	-27.35
934.083	-27.01
934.291	-26.07
934.499	-24.38
934.707	-23.69
934.915	-23.05
935.123	-21.92
935.331	-23.93
935.539	-26.28
935.747	-28.34
935.955	-29.49
936.163	-28.66
936.371	-31.67
936.579	-30.51
936.787	-30.81
936.995	-33.29
937.202	-34.79
937.41	-35.1
937.618	-36.4
937.826	-36.85
938.033	-41.8
938.241	-43.59
938.449	-42.1
938.656	-38.17
938.864	-38.31
939.071	-36.74
939.279	-36.19
939.486	-33.99
939.694	-35.12
939.901	-35.47
940.109	-34.08
940.316	-33.46
940.524	-33.64
940.731	-36.45
940.939	-35.48
941.146	-36.85
941.353	-37.26
941.561	-38.05
941.768	-37.89
941.975	-35.77
942.182	-35.86
942.39	-36.29
942.597	-33.23
942.804	-31.07
943.011	-30.9
943.218	-29.1
943.425	-28.76
943.632	-29.55
943.839	-30.34
944.046	-29.83
944.253	-29.12
944.46	-27.57
944.667	-24.33
944.874	-24.73
945.081	-23.29
945.288	-20.25
945.495	-17.75
945.702	-17.11
945.909	-18.39
946.115	-17.03
946.322	-18.11
946.529	-21.02
946.736	-20.67
946.942	-19.94
947.149	-19.82
947.356	-23.03
947.562	-24.89
947.769	-24.9
947.976	-25.73
948.182	-24.35
948.389	-25.2
948.595	-24.82
948.802	-24.21
949.008	-27.47
949.215	-27.82
949.421	-27.9
949.628	-30.12
949.834	-29.57
950.04	-28.09
950.247	-24.53
950.453	-22.89
950.659	-25.32
950.865	-22.73
951.072	-28.26
951.278	-26.98
951.484	-29.84
951.69	-33.71
951.896	-35.62
952.103	-36.11
952.309	-34.38
952.515	-34.23
952.721	-32.21
952.927	-31.02
953.133	-32.7
953.339	-33.47
953.545	-32.52
953.751	-31.01
953.957	-27.86
954.163	-30.18
954.369	-28.82
954.574	-31.89
954.78	-32.37
954.986	-30.93
955.192	-30.16
955.398	-30.35
955.603	-32.68
955.809	-32.08
956.015	-29.37
956.22	-28.98
956.426	-29.62
956.632	-34.44
956.837	-35.83
957.043	-35.25
957.248	-34.82
957.454	-31.91
957.66	-33.95
957.865	-33.16
958.07	-31.55
958.276	-32.73
958.481	-33.85
958.687	-34.96
958.892	-35.01
959.097	-35.92
959.303	-35.97
959.508	-35.99
959.713	-34.55
959.919	-35.75
960.124	-35.32
960.329	-35.41
960.534	-30.36
960.739	-29.15
960.945	-25.5
961.15	-26.98
961.355	-28.96
961.56	-31.59
961.765	-32.44
961.97	-32.03
962.175	-30.38
962.38	-35.46
962.585	-35.24
962.79	-36.93
962.995	-36.41
963.2	-37.74
963.404	-36.98
963.609	-39.5
963.814	-41.09
964.019	-43.78
964.224	-45.77
964.428	-44.19
964.633	-42.63
964.838	-41.79
965.042	-41.38
965.247	-42.26
965.452	-42.5
965.656	-40.92
965.861	-40.69
966.066	-44.2
966.27	-42.68
966.475	-39.5
966.679	-43.07
966.884	-43.59
967.088	-46.47
967.292	-47.77
967.497	-45.34
967.701	-45.89
967.906	-43.39
968.11	-41.49
968.314	-37.13
968.518	-38.12
968.723	-34.35
968.927	-33.68
969.131	-32.1
969.335	-29.1
969.539	-28.14
969.744	-26.58
969.948	-23.69
970.152	-22.21
970.356	-20.22
970.56	-20.71
970.764	-22.14
970.968	-19.63
971.172	-18.78
971.376	-18.63
971.58	-17.5
971.784	-16.15
971.988	-17.92
972.192	-14.76
972.395	-14.04
972.599	-14.89
972.803	-16.86
973.007	-13.62
973.21	-13.54
973.414	-13.39
973.618	-14.72
973.822	-14.13
974.025	-13.96
974.229	-14.49
974.432	-16.72
974.636	-18.05
974.84	-17.26
975.043	-17.36
975.247	-18.46
975.45	-19.6
975.654	-19.26
975.857	-17.8
976.06	-18.64
976.264	-20.8
976.467	-19.38
976.671	-20.64
976.874	-18.07
977.077	-18.46
977.28	-20.38
977.484	-22.69
977.687	-23.15
977.89	-20.61
978.093	-21.2
978.297	-20.44
978.5	-22.73
978.703	-21.26
978.906	-20.47
979.109	-20.45
979.312	-20.53
979.515	-21.38
979.718	-21.94
979.921	-21.08
980.124	-24.33
980.327	-23.84
980.53	-23.58
980.733	-21.34
980.936	-19.33
981.138	-21.78
981.341	-21.23
981.544	-21.77
981.747	-22.1
981.949	-24.54
982.152	-24.38
982.355	-25.7
982.558	-22.29
982.76	-25.96
982.963	-25.36
983.165	-25.2
983.368	-24.39
983.571	-24.58
983.773	-22.15
983.976	-21.39
984.178	-22.56
984.381	-23.34
984.583	-25.73
984.785	-26.53
984.988	-23.89
985.19	-22.63
985.392	-24.57
985.595	-26.6
985.797	-26.15
985.999	-22.94
986.202	-22.65
986.404	-23.32
986.606	-21.3
986.808	-22.96
987.01	-21.11
987.212	-22.84
987.415	-23.49
987.617	-23.18
987.819	-23.5
988.021	-21.79
988.223	-23.34
988.425	-24.29
988.627	-22.99
988.829	-26.5
989.031	-23.32
989.232	-25.27
989.434	-24.96
989.636	-24.64
989.838	-25.88
990.04	-23.99
990.242	-25.58
990.443	-26.66
990.645	-24.17
990.847	-20.16
991.048	-18.86
991.25	-20.76
991.452	-21.32
991.653	-21.52
991.855	-20.73
992.057	-21.94
992.258	-22.01
992.46	-21.99
992.661	-19.27
992.863	-20.52
993.064	-18.78
993.265	-20.71
993.467	-22.28
993.668	-20.04
993.87	-20.23
994.071	-19.92
994.272	-18.96
994.473	-16.56
994.675	-15.87
994.876	-16.04
995.077	-16.05
995.278	-16.3
995.48	-14.69
995.681	-16.41
995.882	-15.91
996.083	-16.03
996.284	-21.11
996.485	-19.75
996.686	-22.18
996.887	-23.61
997.088	-27.38
997.289	-28.62
997.49	-29.18
997.691	-32
997.892	-32.2
998.092	-27.98
998.293	-28.52
998.494	-29.82
998.695	-30.02
998.896	-28.35
999.096	-27.99
999.297	-28.08
999.498	-30.53
999.698	-32.03
999.899	-34.99
1000.1	-37.3
1000.3	-36.86
1000.501	-37.96
1000.701	-38.28
1000.902	-38.24
1001.102	-38.03
1001.303	-37.26
1001.503	-38.94
1001.704	-38.22
1001.904	-38.86
1002.105	-39.23
1002.305	-37.21
1002.505	-37.77
1002.706	-39.1
1002.906	-37.89
1003.106	-37.88
1003.306	-36.51
1003.507	-34.23
1003.707	-34.88
1003.907	-31.24
1004.107	-29.37
1004.307	-31.75
1004.507	-29.36
1004.707	-29.56
1004.907	-29.8
1005.107	-31.52
1005.308	-31.05
1005.507	-33.1
1005.707	-28.75
1005.907	-28.72
1006.107	-25.43
1006.307	-22.85
1006.507	-23.7
1006.707	-22.76
1006.907	-22.37
1007.106	-23.37
1007.306	-25.27
1007.506	-24.74
1007.706	-24.4
1007.905	-25.63
1008.105	-24.48
1008.305	-25.63
1008.504	-26.15
1008.704	-20.58
1008.903	-19.34
1009.103	-17.59
1009.303	-19.68
1009.502	-18.9
1009.702	-20.69
1009.901	-20.6
1010.1	-23.14
1010.3	-22.32
1010.499	-23.4
1010.699	-25.75
1010.898	-27.13
1011.097	-27.33
1011.296	-26.3
1011.496	-27.46
1011.695	-26.57
1011.894	-29.11
1012.093	-24.88
1012.293	-24.92
1012.492	-25.72
1012.691	-26.79
1012.89	-27.26
1013.089	-30.21
1013.288	-28.43
1013.487	-26.62
1013.686	-25.34
1013.885	-26.3
1014.084	-24.7
1014.283	-25.85
1014.482	-26.73
1014.681	-27.12
1014.88	-30.32
1015.078	-30.06
1015.277	-33.86
1015.476	-33.91
1015.675	-35.14
1015.873	-34.49
1016.072	-36.08
1016.271	-33.27
1016.47	-36.84
1016.668	-36.62
1016.867	-37.18
1017.065	-38.39
1017.264	-39.09
1017.463	-38.79
1017.661	-39.67
1017.86	-39.61
1018.058	-37.62
1018.256	-40.99
1018.455	-43.56
1018.653	-43.42
1018.852	-42.16
1019.05	-44.28
1019.248	-44.33
1019.447	-45.96
1019.645	-46.85
1019.843	-49.2
1020.041	-47.73
1020.24	-49.15
1020.438	-45.41
1020.636	-44.17
1020.834	-46.11
1021.032	-44.18
1021.23	-45.01
1021.428	-41.91
1021.626	-38.79
1021.824	-37.21
1022.022	-37.88
1022.22	-35.26
1022.418	-34.85
1022.616	-34
1022.814	-33.07
1023.012	-32.03
1023.21	-28.07
1023.408	-29.18
1023.606	-30.31
1023.803	-24.81
1024.001	-24.89
1024.199	-28.44
1024.397	-27.61
1024.594	-27.28
1024.792	-27.99
1024.99	-25.72
1025.187	-24.74
1025.385	-21.95
1025.582	-21.32
1025.78	-20.58
1025.977	-20.54
1026.175	-20.71
1026.372	-19.53
1026.57	-22.66
1026.767	-21.1
1026.965	-20.14
1027.162	-20.22
1027.359	-20.77
1027.557	-21.18
1027.754	-24.2
1027.951	-26.16
1028.148	-25.01
1028.346	-27.21
1028.543	-30.05
1028.74	-31.16
1028.937	-33.85
1029.134	-34.06
1029.331	-36.81
1029.528	-35.48
1029.725	-36.22
1029.923	-39.94
1030.12	-36.48
1030.317	-34.67
1030.513	-33.98
1030.71	-32.68
1030.907	-31.01
1031.104	-32.4
1031.301	-33.61
1031.498	-33.62
1031.695	-34.12
1031.892	-33.61
1032.088	-32.36
1032.285	-34.14
1032.482	-36.91
1032.678	-37.99
1032.875	-39.42
1033.072	-37.84
1033.268	-38.72
1033.465	-39.1
1033.662	-40.47
1033.858	-39.03
1034.055	-39.5
1034.251	-37.36
1034.448	-38.05
1034.644	-37.01
1034.84	-34.08
1035.037	-31
1035.233	-31.49
1035.43	-29.8
1035.626	-30.72
1035.822	-30.44
1036.019	-30.59
1036.215	-34.19
1036.411	-34.36
1036.607	-34.37
1036.803	-36.72
1037	-37.65
1037.196	-39.53
1037.392	-39.59
1037.588	-41.3
1037.784	-39.89
1037.98	-41.88
1038.176	-43.24
1038.372	-43.37
1038.568	-39.57
1038.764	-37.81
1038.96	-36.21
1039.156	-39.87
1039.352	-41.2
1039.547	-40.01
1039.743	-38.84
1039.939	-36.99
1040.135	-36.42
1040.331	-37.96
1040.526	-35.02
1040.722	-36.42
1040.918	-38.2
1041.113	-42.46
1041.309	-44.02
1041.505	-46.4
1041.7	-44.18
1041.896	-43.97
1042.091	-44.79
1042.287	-44.42
1042.482	-44.42
1042.678	-45.56
1042.873	-44.16
1043.069	-45.33
1043.264	-44.62
1043.459	-43.11
1043.655	-41.93
1043.85	-43.69
1044.045	-42.4
1044.24	-41.64
1044.436	-39.01
1044.631	-41.93
1044.826	-43.26
1045.021	-46.1
1045.216	-42.37
