Data from led_4000k_2_FLMT021711__15__17-34-22-350.txt Node

Date: Tue Nov 05 17:34:22 CET 2024
User: Etudiants TP
Spectrometer: FLMT02171
Trigger mode: 0
Integration Time (sec): 1.000000E-1
Scans to average: 5
Electric dark correction enabled: true
Nonlinearity correction enabled: true
Boxcar width: 15
XAxis mode: Wavelengths
Number of Pixels in Spectrum: 3648
>>>>>Begin Spectral Data<<<<<
194.658	-67.83
194.923	-64.42
195.188	-55.68
195.453	-55.75
195.717	-49.19
195.982	-46.88
196.247	-45.5
196.512	-47.16
196.777	-44.63
197.042	-42.43
197.307	-43.15
197.572	-37.17
197.837	-37.7
198.101	-35.64
198.366	-32.39
198.631	-30.33
198.896	-24.35
199.161	-18.25
199.425	-10.96
199.69	-0.2
199.955	0.39
200.22	-1.9
200.484	-2.04
200.749	-1.7
201.014	0.42
201.278	-0.07
201.543	1.53
201.807	-0.29
202.072	1.01
202.337	1.59
202.601	2.16
202.866	-0.51
203.13	-0.58
203.395	-3.55
203.659	-3.61
203.924	-5.54
204.189	-4.99
204.453	-3.03
204.717	-0.2
204.982	1.48
205.246	2.91
205.511	5.96
205.775	4.18
206.04	10.87
206.304	12.14
206.568	12.3
206.833	12.09
207.097	13.19
207.361	15.94
207.626	19.62
207.89	20.11
208.154	21.97
208.419	22.95
208.683	23.09
208.947	26.4
209.211	24.73
209.476	25.08
209.74	24.72
210.004	25.13
210.268	26.68
210.532	28.39
210.796	28.65
211.061	30.47
211.325	31.31
211.589	29.94
211.853	31.74
212.117	30.96
212.381	31.33
212.645	31.49
212.909	30.43
213.173	25.37
213.437	27.31
213.701	27.28
213.965	27.89
214.229	23.14
214.493	22.65
214.757	21.6
215.021	21.15
215.285	25.22
215.549	26.18
215.813	23.55
216.077	22.68
216.34	23.96
216.604	23.31
216.868	23.74
217.132	24.1
217.396	24.1
217.659	23.37
217.923	19.06
218.187	19.09
218.451	17.29
218.714	15.4
218.978	17.14
219.242	18.5
219.505	20.21
219.769	21.56
220.033	21.76
220.296	24.13
220.56	23.81
220.824	20.8
221.087	22.79
221.351	25.13
221.614	22.63
221.878	23.14
222.142	21.43
222.405	20.33
222.669	22.79
222.932	18.7
223.196	17.7
223.459	14.39
223.722	15.76
223.986	15.29
224.249	14.05
224.513	13.56
224.776	14.36
225.04	13.18
225.303	11.67
225.566	12.05
225.83	15.11
226.093	18.69
226.356	17.59
226.62	15.26
226.883	16.82
227.146	15.99
227.409	16.36
227.673	13.84
227.936	12.71
228.199	12.32
228.462	9.33
228.725	8.91
228.989	8.86
229.252	8.1
229.515	12.96
229.778	11.14
230.041	11.2
230.304	8.61
230.567	9.79
230.83	6.43
231.093	10.46
231.356	9.17
231.619	15.38
231.882	14.34
232.145	16.05
232.408	15.65
232.671	15.77
232.934	14.76
233.197	14.43
233.46	14.21
233.723	14.88
233.986	12.05
234.249	10.39
234.512	11.9
234.775	16.98
235.037	14.88
235.3	15.2
235.563	14.28
235.826	15.48
236.089	17.89
236.351	17.02
236.614	20.21
236.877	21.24
237.14	24.34
237.402	24.25
237.665	17.32
237.928	16.79
238.19	14.12
238.453	17.91
238.716	16.19
238.978	17.35
239.241	14.82
239.503	17.72
239.766	13.26
240.029	11.71
240.291	14.35
240.554	14.29
240.816	12.59
241.079	13.33
241.341	13.54
241.604	11.43
241.866	8.15
242.129	9.8
242.391	11.98
242.653	11.67
242.916	10.73
243.178	11.68
243.441	12.67
243.703	11.1
243.965	8.82
244.228	9.57
244.49	10.46
244.752	11.73
245.015	11.84
245.277	12.62
245.539	12.1
245.801	14.27
246.064	13.95
246.326	12.99
246.588	11.43
246.85	13.82
247.112	13.64
247.374	16.57
247.637	19.23
247.899	18.31
248.161	18.75
248.423	13.42
248.685	13.82
248.947	14.35
249.209	14.5
249.471	15.41
249.733	17.6
249.995	16.96
250.257	15.49
250.519	14.72
250.781	15.87
251.043	13.23
251.305	14.44
251.567	16.68
251.829	17.67
252.091	17.78
252.353	13.23
252.615	12.89
252.876	10.18
253.138	7.9
253.4	5.1
253.662	5.35
253.924	6.29
254.185	8.27
254.447	9.29
254.709	10.43
254.971	12.02
255.232	14.09
255.494	12.19
255.756	10.45
256.017	11.26
256.279	11.12
256.541	12.47
256.802	11.64
257.064	11.5
257.326	10.74
257.587	11.53
257.849	12.83
258.11	15.75
258.372	17
258.633	16.88
258.895	17.48
259.156	16.43
259.418	14.6
259.679	8.14
259.941	7.06
260.202	8.6
260.464	11.85
260.725	11.33
260.987	10.47
261.248	10.14
261.509	11.16
261.771	9.8
262.032	12.01
262.293	12.53
262.555	13.5
262.816	10.54
263.077	8.66
263.338	5.03
263.6	6.33
263.861	3.86
264.122	1.59
264.383	4.03
264.645	4.89
264.906	4.09
265.167	4.85
265.428	3.57
265.689	3.73
265.95	1.01
266.211	2.08
266.473	0.55
266.734	-2.35
266.995	-6.31
267.256	-4.05
267.517	-1.68
267.778	3.15
268.039	3.23
268.3	1.84
268.561	-1.23
268.822	1.73
269.083	0.25
269.344	-1.06
269.604	-2.8
269.865	-1.67
270.126	-5
270.387	-3.84
270.648	-2.74
270.909	-2.27
271.17	-3.02
271.43	-4.47
271.691	-7.44
271.952	-7.38
272.213	-5.02
272.473	-7.36
272.734	-6.39
272.995	-4.5
273.256	-2.91
273.516	1.03
273.777	-2.07
274.038	0.54
274.298	-1.95
274.559	-1.26
274.82	4.32
275.08	7.7
275.341	8.75
275.601	9.1
275.862	6.01
276.122	6.81
276.383	7.49
276.643	9.56
276.904	8.85
277.164	12.76
277.425	13.92
277.685	19.47
277.946	19.99
278.206	21.85
278.467	22.26
278.727	21.37
278.987	20.81
279.248	19.17
279.508	20.78
279.768	22.7
280.029	24.28
280.289	21.82
280.549	20.35
280.81	19.14
281.07	17.61
281.33	18.8
281.59	15.9
281.851	19.92
282.111	18.13
282.371	17.46
282.631	19.12
282.891	16.66
283.151	14.04
283.412	13.12
283.672	11.4
283.932	11.5
284.192	12.72
284.452	10.59
284.712	9.4
284.972	7.42
285.232	2.96
285.492	4.95
285.752	0.56
286.012	5.58
286.272	6.59
286.532	3.28
286.792	3.73
287.052	5.77
287.312	6.85
287.571	5.81
287.831	8.15
288.091	6.08
288.351	6.68
288.611	11.75
288.871	12.08
289.13	11.91
289.39	8.39
289.65	9.22
289.91	5.8
290.17	8.45
290.429	11.11
290.689	8.15
290.949	4.73
291.208	6.24
291.468	8.21
291.728	9.78
291.987	11.69
292.247	10.08
292.506	13.61
292.766	15.82
293.026	13.83
293.285	15.78
293.545	17.61
293.804	18.36
294.064	15.35
294.323	13.3
294.583	14.78
294.842	14.86
295.102	15.6
295.361	15.45
295.621	15.48
295.88	16.16
296.139	15.26
296.399	15.93
296.658	10.79
296.917	9.99
297.177	7.44
297.436	8.95
297.695	7.4
297.955	10.07
298.214	8.3
298.473	9.18
298.732	12.61
298.992	16.29
299.251	15.91
299.51	11.67
299.769	11.05
300.028	11.4
300.287	11.64
300.547	11.58
300.806	8.49
301.065	12.78
301.324	15.09
301.583	13.5
301.842	10.14
302.101	7.49
302.36	6.82
302.619	7.18
302.878	7.04
303.137	4.74
303.396	6.85
303.655	8.74
303.914	4.26
304.173	4.43
304.432	3.99
304.691	6.87
304.95	5.35
305.208	11.11
305.467	11.45
305.726	11.78
305.985	12.89
306.244	15.37
306.503	14.83
306.761	13.35
307.02	10.73
307.279	11.97
307.537	12.13
307.796	10.36
308.055	6.97
308.314	8.94
308.572	7.21
308.831	9.14
309.09	9.17
309.348	9.97
309.607	7.95
309.865	13.03
310.124	13.69
310.382	16.14
310.641	15.48
310.9	13.79
311.158	15.6
311.417	15.64
311.675	16.48
311.933	16.42
312.192	19.14
312.45	18.88
312.709	17.55
312.967	17.66
313.226	16.36
313.484	14.23
313.742	13.08
314.001	10.53
314.259	7.96
314.517	8.47
314.776	9.72
315.034	12.48
315.292	9.55
315.55	8.66
315.809	6.99
316.067	8.73
316.325	7.25
316.583	8.6
316.841	7.24
317.1	5.28
317.358	1.77
317.616	2.06
317.874	-0.15
318.132	-1.33
318.39	-2.44
318.648	-2.47
318.906	-3.02
319.164	-4.21
319.422	-6.1
319.68	-6.75
319.938	-4.89
320.196	-5.68
320.454	-4.46
320.712	-4.85
320.97	-4.61
321.228	-6.4
321.486	-4.34
321.744	-3.13
322.002	-0.45
322.26	-1.99
322.517	-2.5
322.775	-5.89
323.033	-8.12
323.291	-4.2
323.549	-2.19
323.806	-0.45
324.064	-0.65
324.322	-0.48
324.58	-1.84
324.837	0.74
325.095	-0.55
325.353	0.4
325.61	2.06
325.868	0.96
326.126	4.31
326.383	2.18
326.641	0.53
326.898	2.78
327.156	3.22
327.413	4.1
327.671	3.27
327.928	5.41
328.186	5.07
328.443	4.66
328.701	9.05
328.958	9.99
329.216	10.86
329.473	9.39
329.731	9.34
329.988	8.47
330.245	10.97
330.503	12.11
330.76	13.15
331.017	15.3
331.275	11.83
331.532	13.47
331.789	12.75
332.047	11.93
332.304	9.18
332.561	8.87
332.818	7.39
333.076	9.16
333.333	10.58
333.59	10.84
333.847	12.13
334.104	10.35
334.361	11.91
334.618	12.14
334.876	10.86
335.133	9.78
335.39	8.77
335.647	9.65
335.904	5.34
336.161	4.76
336.418	3.92
336.675	0.08
336.932	2.21
337.189	0.93
337.446	1.58
337.703	1.66
337.96	-2.02
338.216	-2.03
338.473	-3.91
338.73	-3.85
338.987	-2.47
339.244	-0.33
339.501	-4.31
339.757	-3.55
340.014	-1.75
340.271	-0.23
340.528	1.88
340.785	5.95
341.041	5.99
341.298	2.6
341.555	1.23
341.811	1.22
342.068	-1.26
342.325	-1.81
342.581	1.36
342.838	2
343.094	1.74
343.351	1.48
343.608	-0.44
343.864	2.32
344.121	2.18
344.377	2.15
344.634	2.18
344.89	0.08
345.147	0.41
345.403	-0.64
345.66	-0.4
345.916	2.65
346.172	0.49
346.429	-1.54
346.685	-3.41
346.942	-5.06
347.198	-7.86
347.454	-4.94
347.711	-5.5
347.967	-7.84
348.223	-6.54
348.48	-6.81
348.736	-4.88
348.992	-5.59
349.248	-2.2
349.504	-2.4
349.761	-2.99
350.017	-2.12
350.273	-2.63
350.529	-4.39
350.785	-4.11
351.041	-4.73
351.297	-4
351.554	-6.04
351.81	-8.99
352.066	-9.72
352.322	-9.24
352.578	-10.56
352.834	-10.66
353.09	-11.77
353.346	-11.21
353.602	-12.47
353.858	-13.8
354.114	-14.86
354.369	-11.6
354.625	-8.02
354.881	-9.46
355.137	-6.73
355.393	-7.8
355.649	-6.99
355.905	-6.77
356.16	-6.83
356.416	-7.09
356.672	-13.22
356.928	-12.15
357.183	-12.35
357.439	-11.56
357.695	-13.18
357.951	-9.39
358.206	-9.45
358.462	-10.25
358.718	-12.71
358.973	-11.33
359.229	-10.5
359.484	-8.3
359.74	-3.74
359.996	-1.78
360.251	1.56
360.507	1.87
360.762	0.99
361.018	4.16
361.273	2.09
361.529	2.82
361.784	1.21
362.04	4.28
362.295	2.25
362.55	2.02
362.806	4.46
363.061	5.03
363.316	5.25
363.572	5.88
363.827	8.45
364.082	5.18
364.338	5.04
364.593	4.87
364.848	4.5
365.104	2.67
365.359	4.47
365.614	6.65
365.869	4.61
366.124	6.29
366.38	4.82
366.635	6.87
366.89	8.99
367.145	9.19
367.4	10.89
367.655	9.06
367.91	7.81
368.165	4.47
368.42	1.72
368.675	3.2
368.93	3.7
369.185	2.08
369.44	2.48
369.695	6.16
369.95	4.07
370.205	3.8
370.46	2.43
370.715	2.73
370.97	2.97
371.225	4.36
371.48	6.39
371.734	5.09
371.989	7.11
372.244	6.77
372.499	8.43
372.754	7.8
373.008	6.11
373.263	1.6
373.518	3.65
373.773	1.57
374.027	-0.42
374.282	2.66
374.537	4.14
374.791	4.46
375.046	3.69
375.301	3.4
375.555	2.55
375.81	4.54
376.064	4.76
376.319	9.79
376.573	7.83
376.828	4.65
377.082	9.27
377.337	7.47
377.591	4.52
377.846	6.26
378.1	7.98
378.355	9.19
378.609	7.68
378.863	4.19
379.118	5.11
379.372	3.19
379.627	2.38
379.881	0.05
380.135	-0.52
380.389	-1.17
380.644	-0.26
380.898	-0.32
381.152	2.03
381.407	0.84
381.661	2.81
381.915	3.64
382.169	3.29
382.423	1
382.677	-1.76
382.932	-1.78
383.186	-0.88
383.44	0.33
383.694	2.11
383.948	0.61
384.202	-2.03
384.456	1.59
384.71	2.73
384.964	1.33
385.218	3.93
385.472	5.18
385.726	4.3
385.98	3.79
386.234	2.89
386.488	-0.08
386.742	2.17
386.996	-0.84
387.249	-0.96
387.503	1.11
387.757	3.94
388.011	4.77
388.265	6.17
388.518	7.33
388.772	9.99
389.026	11.38
389.28	9.13
389.533	7.38
389.787	9.91
390.041	8.65
390.295	8.81
390.548	8.68
390.802	11.34
391.055	10.05
391.309	9.76
391.563	7.55
391.816	9.05
392.07	8.39
392.323	9.17
392.577	10.05
392.83	10.56
393.084	16.31
393.337	18.13
393.591	18.63
393.844	19.97
394.098	24.74
394.351	29.02
394.604	29.96
394.858	32.02
395.111	32.92
395.364	30.25
395.618	30.31
395.871	28.36
396.124	26.65
396.378	25.39
396.631	25.67
396.884	22.25
397.137	22.17
397.391	24.41
397.644	21.52
397.897	22.44
398.15	24.18
398.403	26.5
398.657	25.26
398.91	23.93
399.163	23.92
399.416	23.55
399.669	21.77
399.922	20.58
400.175	16.5
400.428	16.26
400.681	15.65
400.934	9.69
401.187	9.24
401.44	9.44
401.693	6.82
401.946	1.87
402.199	-3.54
402.452	-4.81
402.704	-8.65
402.957	-10.32
403.21	-7.77
403.463	-8.85
403.716	-6.61
403.969	-4.61
404.221	-5.2
404.474	-4.03
404.727	0.78
404.98	3.59
405.232	3.74
405.485	6.01
405.738	7.53
405.99	7.7
406.243	7.62
406.496	9.85
406.748	10.61
407.001	10.17
407.253	10.12
407.506	11.49
407.759	13.76
408.011	12.84
408.264	12.66
408.516	14.95
408.769	13.03
409.021	15.12
409.274	15.05
409.526	18.14
409.778	18.37
410.031	21.74
410.283	22.42
410.536	28.53
410.788	27.93
411.04	27.37
411.293	29.84
411.545	30.17
411.797	28.65
412.049	27.31
412.302	27.86
412.554	27.61
412.806	25.02
413.058	22.88
413.311	21.47
413.563	20.01
413.815	18.99
414.067	17.25
414.319	16.15
414.571	17.2
414.823	14.22
415.075	14
415.328	14.68
415.58	16.85
415.832	19.39
416.084	19.62
416.336	16.9
416.588	20.89
416.84	17.98
417.091	21.13
417.343	17.3
417.595	19.31
417.847	21.19
418.099	22.4
418.351	20.36
418.603	23.02
418.855	23.47
419.106	23.03
419.358	23.75
419.61	24.68
419.862	28.09
420.114	26.65
420.365	27
420.617	27.72
420.869	26.82
421.12	27.22
421.372	27.49
421.624	26.5
421.875	27.17
422.127	23.39
422.379	23.35
422.63	26.71
422.882	25.76
423.133	26.04
423.385	26.01
423.636	25.9
423.888	28.49
424.139	30.63
424.391	28.47
424.642	26.85
424.894	24.35
425.145	25.96
425.396	22.22
425.648	23.87
425.899	21.21
426.151	22.33
426.402	22.03
426.653	22.52
426.905	21.17
427.156	17.67
427.407	16.85
427.658	15.02
427.91	12.58
428.161	10.74
428.412	12.93
428.663	14.01
428.914	14.29
429.166	15.41
429.417	17.61
429.668	16.68
429.919	14.95
430.17	13.54
430.421	13.13
430.672	16.21
430.923	16.27
431.174	15.18
431.425	15.17
431.676	13.71
431.927	10.68
432.178	11.97
432.429	12.06
432.68	11.56
432.931	13.16
433.182	16.94
433.433	12.64
433.683	15.53
433.934	14.22
434.185	12.38
434.436	12.12
434.687	12.79
434.937	15.84
435.188	15.12
435.439	14.02
435.69	15.53
435.94	15.22
436.191	16.7
436.442	16.55
436.692	16.09
436.943	14.12
437.194	11.65
437.444	14.34
437.695	18.01
437.945	19.59
438.196	20.06
438.447	19.75
438.697	20.13
438.948	20.03
439.198	17.97
439.449	14.06
439.699	15.69
439.949	15.56
440.2	16.57
440.45	18.18
440.701	17.33
440.951	16
441.201	19.24
441.452	17.66
441.702	17.62
441.952	20.13
442.203	19.76
442.453	19.08
442.703	19.52
442.953	21.87
443.204	24.33
443.454	22.44
443.704	23.75
443.954	20.57
444.204	20.81
444.455	23.22
444.705	24.39
444.955	25.72
445.205	24.75
445.455	23.39
445.705	24.17
445.955	24.01
446.205	22.71
446.455	24.03
446.705	25.84
446.955	26.56
447.205	29.94
447.455	33.74
447.705	32.27
447.955	31.72
448.205	32.61
448.454	33.08
448.704	36.11
448.954	34.94
449.204	35.62
449.454	36.8
449.704	34.74
449.953	34.42
450.203	36.83
450.453	34.45
450.703	35.74
450.952	35.1
451.202	37.08
451.452	35.65
451.701	39.59
451.951	44.97
452.201	44.59
452.45	45.49
452.7	47.04
452.949	47.71
453.199	48.46
453.448	50.2
453.698	51.03
453.947	51.12
454.197	49.2
454.446	47.77
454.696	52.94
454.945	52.48
455.195	48.69
455.444	49.68
455.693	54
455.943	52.8
456.192	53.67
456.442	52.58
456.691	52.33
456.94	52.16
457.189	50.42
457.439	53.2
457.688	56.2
457.937	55.98
458.186	57.08
458.436	56.26
458.685	57.4
458.934	56.71
459.183	57.29
459.432	57.44
459.681	55.4
459.93	52.7
460.179	52.08
460.429	49.96
460.678	52.46
460.927	54.92
461.176	52.83
461.425	51.97
461.674	54.14
461.923	54.77
462.172	53.59
462.42	51.54
462.669	53.47
462.918	53.99
463.167	53.79
463.416	49.98
463.665	50.37
463.914	50.21
464.162	49.1
464.411	50.57
464.66	52.2
464.909	51.13
465.158	49.68
465.406	49.35
465.655	51.11
465.904	53.47
466.152	54.2
466.401	54.33
466.65	56.13
466.898	53.79
467.147	50.44
467.395	50.63
467.644	54.5
467.893	53.89
468.141	53.76
468.39	51.3
468.638	48.61
468.887	46.71
469.135	46.42
469.384	44.76
469.632	44.76
469.88	44.89
470.129	46.24
470.377	41.69
470.626	45.26
470.874	46.87
471.122	49.5
471.371	47.42
471.619	46.76
471.867	49.6
472.115	48.79
472.364	46.65
472.612	50.29
472.86	48.93
473.108	49.28
473.356	49.5
473.605	47.76
473.853	43.73
474.101	42.13
474.349	40.3
474.597	43.31
474.845	41.49
475.093	39.74
475.341	35.44
475.589	34.7
475.837	36.2
476.085	36.6
476.333	34.61
476.581	36.16
476.829	35.45
477.077	38.51
477.325	37.99
477.573	38.86
477.821	36.02
478.069	37.85
478.317	36.25
478.564	37.34
478.812	34.26
479.06	33.7
479.308	32.34
479.555	31.14
479.803	30.48
480.051	31.24
480.299	29.51
480.546	29.78
480.794	26.07
481.042	25.09
481.289	23.35
481.537	25.01
481.784	24.36
482.032	27.97
482.28	27.82
482.527	27.57
482.775	27.74
483.022	29.58
483.27	31.27
483.517	34.38
483.765	33.73
484.012	34.75
484.259	33.45
484.507	35.85
484.754	35.26
485.002	35.23
485.249	34.4
485.496	36.84
485.744	37.74
485.991	37.44
486.238	35.01
486.486	38.19
486.733	40.3
486.98	43.28
487.227	41.31
487.474	42.66
487.722	45.93
487.969	44.13
488.216	44.05
488.463	44.05
488.71	42.06
488.957	42.57
489.204	42.23
489.451	43.78
489.699	41.39
489.946	38.18
490.193	38.61
490.44	38.49
490.687	39.04
490.934	37.56
491.18	33.23
491.427	33.51
491.674	36.14
491.921	36.36
492.168	35.82
492.415	32.84
492.662	32.96
492.909	34.89
493.155	33.65
493.402	31.05
493.649	27.81
493.896	29.56
494.142	24.7
494.389	23.65
494.636	21.62
494.883	19.68
495.129	18.81
495.376	16.27
495.623	18.18
495.869	20.06
496.116	21.59
496.362	22.66
496.609	26.02
496.855	31.53
497.102	30.9
497.348	31.12
497.595	33.5
497.841	37.65
498.088	36.46
498.334	36.19
498.581	34.61
498.827	34.78
499.074	36.09
499.32	36.41
499.566	39.55
499.813	39.56
500.059	38.22
500.305	39.23
500.552	37.71
500.798	36.82
501.044	41.41
501.29	41.36
501.537	38.26
501.783	40.41
502.029	43.16
502.275	40.67
502.521	40.25
502.767	40.36
503.013	43.3
503.26	40.48
503.506	37.2
503.752	37.67
503.998	35.98
504.244	35.52
504.49	32.82
504.736	34.03
504.982	33.15
505.228	33.8
505.474	32.71
505.72	33.53
505.966	32.78
506.211	36.56
506.457	36.48
506.703	33.31
506.949	32.4
507.195	30.86
507.441	27.73
507.686	32.27
507.932	32.25
508.178	35.07
508.424	32.92
508.669	31.12
508.915	32.38
509.161	34.6
509.406	37.42
509.652	36.33
509.898	39.33
510.143	40.8
510.389	40.59
510.634	36.7
510.88	39.91
511.125	42.62
511.371	43.68
511.616	45.24
511.862	42.39
512.107	39.3
512.353	41.25
512.598	42.17
512.844	40.57
513.089	37.77
513.335	38.45
513.58	37.7
513.825	36.74
514.071	36.74
514.316	37.51
514.561	38.02
514.806	36.54
515.052	39.4
515.297	36.89
515.542	38.8
515.787	38.47
516.033	41.81
516.278	41.61
516.523	39.72
516.768	39.13
517.013	35.48
517.258	36.21
517.503	36.78
517.748	37.26
517.993	36.61
518.238	35.73
518.483	34.3
518.728	32.18
518.973	29.5
519.218	29.28
519.463	30.79
519.708	28.78
519.953	25.28
520.198	24.65
520.443	26.16
520.688	30.49
520.933	30.11
521.177	30.63
521.422	29.13
521.667	32.35
521.912	32.41
522.157	29.41
522.401	32.99
522.646	32.94
522.891	32.79
523.135	31.95
523.38	31.82
523.625	30.23
523.869	32.16
524.114	34.6
524.358	33.72
524.603	34.05
524.848	30.77
525.092	28.3
525.337	28.8
525.581	29.65
525.826	32.98
526.07	33.56
526.315	35.53
526.559	36.4
526.803	34.77
527.048	37.94
527.292	40.21
527.537	41.25
527.781	41.03
528.025	38.56
528.269	39.18
528.514	39.19
528.758	37.51
529.002	38.26
529.247	40.25
529.491	39.54
529.735	43.79
529.979	43.37
530.223	43.83
530.467	41.07
530.712	38.91
530.956	37.81
531.2	38.71
531.444	36.54
531.688	37.12
531.932	36.78
532.176	38.58
532.42	39.63
532.664	40.89
532.908	40.3
533.152	38.74
533.396	37.62
533.64	36.77
533.884	36.1
534.128	34.9
534.371	35.57
534.615	36.02
534.859	34.94
535.103	34.4
535.347	35.56
535.59	38.23
535.834	33.97
536.078	35.65
536.322	38.68
536.565	41.73
536.809	39.13
537.053	40.53
537.296	38.65
537.54	38.06
537.784	37.23
538.027	39.46
538.271	38.46
538.514	37.44
538.758	37.3
539.001	34.3
539.245	34.59
539.488	35.5
539.732	36.34
539.975	36.91
540.219	39.61
540.462	39.25
540.706	41.36
540.949	41.41
541.192	43.29
541.436	47.24
541.679	52.75
541.922	53.61
542.166	49.49
542.409	50.01
542.652	50.63
542.895	50.12
543.139	50.23
543.382	54.89
543.625	53.93
543.868	52.95
544.111	50.45
544.354	48.76
544.598	47.85
544.841	49.13
545.084	48.84
545.327	48.87
545.57	51.25
545.813	53.19
546.056	53.4
546.299	54.41
546.542	58.11
546.785	60
547.028	61.36
547.271	60.21
547.514	59.67
547.756	56.41
547.999	57.23
548.242	58.57
548.485	55.09
548.728	54.58
548.971	50.36
549.213	49.45
549.456	49.2
549.699	49.12
549.942	50.79
550.184	49.81
550.427	50.19
550.67	50.01
550.912	46.19
551.155	47.54
551.398	47.15
551.64	47.41
551.883	48.11
552.125	47.37
552.368	46.81
552.61	43.91
552.853	45.26
553.095	43.01
553.338	42.98
553.58	42.35
553.823	40.95
554.065	43.66
554.308	39.77
554.55	37.59
554.792	34.97
555.035	33.63
555.277	32.64
555.519	32.76
555.762	30.12
556.004	31.34
556.246	27.87
556.488	29.79
556.731	26.1
556.973	26.95
557.215	25.79
557.457	26.78
557.699	30.75
557.941	28.93
558.183	27.93
558.426	28.79
558.668	25.03
558.91	26.05
559.152	24.25
559.394	23.77
559.636	26.66
559.878	28.13
560.12	27.46
560.362	28.05
560.604	28.43
560.845	27.01
561.087	26.87
561.329	28.98
561.571	26.32
561.813	27.17
562.055	26.57
562.297	28.58
562.538	30.01
562.78	33.53
563.022	30.98
563.264	33.11
563.505	34.48
563.747	35.48
563.989	33.44
564.23	33.73
564.472	32.68
564.714	35.64
564.955	35.87
565.197	30.15
565.438	31.96
565.68	35.33
565.921	34.49
566.163	36.84
566.404	35.33
566.646	38.6
566.887	41.02
567.129	41.89
567.37	39.77
567.612	41.5
567.853	39.57
568.094	39.84
568.336	41.65
568.577	43.24
568.818	43.79
569.06	41.79
569.301	40.45
569.542	40.03
569.783	41.57
570.025	41.73
570.266	41.68
570.507	43.99
570.748	42.98
570.989	42.6
571.23	45.16
571.472	44.97
571.713	44.05
571.954	44.73
572.195	43.9
572.436	45.11
572.677	48.38
572.918	48.86
573.159	46.12
573.4	43.98
573.641	42.39
573.882	43.16
574.123	41.5
574.364	37.04
574.604	35.34
574.845	33.05
575.086	33.49
575.327	33.97
575.568	33.15
575.809	32.38
576.049	30.31
576.29	27.21
576.531	32.42
576.771	36.62
577.012	38.81
577.253	38.88
577.494	38.51
577.734	38.93
577.975	40.25
578.215	40.08
578.456	39.04
578.697	39.32
578.937	40.63
579.178	40.04
579.418	39.79
579.659	39.15
579.899	34.22
580.14	34.14
580.38	34.32
580.62	35.35
580.861	39.62
581.101	40.6
581.342	41.24
581.582	37.52
581.822	39.79
582.063	39.95
582.303	41.93
582.543	41.78
582.783	44.7
583.024	48.34
583.264	50.72
583.504	50.22
583.744	52.01
583.984	49.15
584.224	48.39
584.465	47.46
584.705	47.99
584.945	49.87
585.185	48.67
585.425	49.49
585.665	49.18
585.905	49.67
586.145	47.86
586.385	46.58
586.625	49.61
586.865	48.61
587.105	48.79
587.345	50.9
587.585	51.3
587.824	49.87
588.064	49.05
588.304	46.87
588.544	47.25
588.784	45.33
589.024	48.6
589.263	48.14
589.503	47.17
589.743	49.34
589.982	48.97
590.222	47.05
590.462	43.43
590.701	41.64
590.941	43.98
591.181	43.38
591.42	42.32
591.66	45.01
591.899	48.66
592.139	46.39
592.378	45.42
592.618	44.58
592.857	43.38
593.097	44.56
593.336	44.02
593.576	44.98
593.815	46.3
594.055	45.76
594.294	47.63
594.533	47.16
594.773	48.11
595.012	48.83
595.251	49.64
595.491	54.01
595.73	56.69
595.969	56.6
596.208	59.13
596.447	62.47
596.687	63.05
596.926	63.32
597.165	60.69
597.404	63.77
597.643	62.25
597.882	62.17
598.121	63.21
598.36	63.99
598.599	64.61
598.838	65.47
599.077	61.7
599.316	61.74
599.555	62.98
599.794	63.84
600.033	66.26
600.272	67.73
600.511	65.47
600.75	67.02
600.989	69.15
601.228	70.48
601.466	71.41
601.705	70.06
601.944	71.16
602.183	73.36
602.422	71.89
602.66	71
602.899	68.8
603.138	68.95
603.376	69.43
603.615	69.41
603.854	69.2
604.092	70.9
604.331	72.49
604.569	73.3
604.808	72.33
605.047	75.23
605.285	74.42
605.524	73.96
605.762	72.85
606	74.57
606.239	75.63
606.477	76.32
606.716	72.62
606.954	72.27
607.193	69.91
607.431	67.12
607.669	65.53
607.908	65.53
608.146	67.8
608.384	65.67
608.622	62.92
608.861	62.59
609.099	61.82
609.337	60.52
609.575	58.63
609.813	60.15
610.052	62.18
610.29	57.31
610.528	54.93
610.766	54.05
611.004	53.92
611.242	51.04
611.48	49.69
611.718	46.8
611.956	48.04
612.194	47.38
612.432	47.12
612.67	48.37
612.908	50.37
613.146	49.01
613.384	48.15
613.621	47.54
613.859	48
614.097	46.82
614.335	47.8
614.573	49.05
614.811	50.33
615.048	48.67
615.286	50.21
615.524	48.63
615.761	46.04
615.999	46.67
616.237	45.88
616.474	49.2
616.712	49.59
616.95	48.97
617.187	48.69
617.425	48.83
617.662	50.15
617.9	49.28
618.137	47.57
618.375	46.05
618.612	44.29
618.85	46.76
619.087	49.59
619.325	49.15
619.562	47.18
619.799	45.1
620.037	43.29
620.274	41.12
620.511	42.89
620.749	40.17
620.986	38.5
621.223	35.67
621.461	36.24
621.698	35.72
621.935	34.42
622.172	32.49
622.409	36.23
622.647	34.81
622.884	32.83
623.121	35.96
623.358	34.55
623.595	34.02
623.832	33.62
624.069	32.37
624.306	32.16
624.543	32.9
624.78	32.18
625.017	33.5
625.254	36.55
625.491	39.03
625.728	41.35
625.965	42.17
626.202	39.8
626.438	38.38
626.675	36.78
626.912	40.11
627.149	39.42
627.386	40.74
627.622	40.3
627.859	40.13
628.096	40.84
628.333	40.66
628.569	41.53
628.806	44.29
629.043	45.17
629.279	46.3
629.516	49.01
629.752	44.37
629.989	46.8
630.225	47.05
630.462	46.22
630.699	47.19
630.935	46.42
631.171	43.56
631.408	43.73
631.644	42.42
631.881	39.31
632.117	37.86
632.354	38.24
632.59	36.09
632.826	34.68
633.063	33.72
633.299	34.71
633.535	32.22
633.771	32.73
634.008	35.91
634.244	32.76
634.48	33.28
634.716	34.63
634.953	33
635.189	33.1
635.425	34.64
635.661	37.87
635.897	36.25
636.133	34.9
636.369	33.68
636.605	30.64
636.841	29.82
637.077	31.77
637.313	29.54
637.549	28.17
637.785	27.49
638.021	27.22
638.257	26.34
638.493	29.46
638.729	29.09
638.965	32.97
639.2	35.52
639.436	34.55
639.672	34.08
639.908	31.56
640.144	36.4
640.379	38.61
640.615	37.35
640.851	41.03
641.086	43.06
641.322	40.53
641.558	42.59
641.793	42.25
642.029	39.75
642.264	39.95
642.5	39.96
642.736	36.54
642.971	37.06
643.207	35.94
643.442	34.19
643.678	34.13
643.913	35.7
644.148	34.83
644.384	38.86
644.619	39.07
644.855	41.34
645.09	42.97
645.325	43.74
645.561	44.76
645.796	42.21
646.031	45.39
646.266	42.32
646.502	40.8
646.737	43.78
646.972	45.57
647.207	47.55
647.442	44.18
647.678	41.29
647.913	43.61
648.148	43.65
648.383	40.58
648.618	40.66
648.853	41.7
649.088	44.17
649.323	46.99
649.558	47.92
649.793	48.6
650.028	50.28
650.263	45.77
650.498	49.62
650.733	51.1
650.968	49.9
651.202	52.42
651.437	51.55
651.672	45.78
651.907	45.21
652.142	47.04
652.376	48.21
652.611	49.19
652.846	49.83
653.081	49.38
653.315	47.49
653.55	48.53
653.785	48.54
654.019	50.58
654.254	47.48
654.488	47.82
654.723	44.46
654.958	42.14
655.192	40.18
655.427	37.38
655.661	37.85
655.896	40.68
656.13	40.63
656.364	38.24
656.599	35.66
656.833	38.68
657.068	39.94
657.302	39.19
657.536	37.78
657.771	38.82
658.005	37.97
658.239	39.43
658.474	36.42
658.708	37.36
658.942	36.6
659.176	34.74
659.41	29.16
659.645	26.9
659.879	26.06
660.113	24.59
660.347	24.64
660.581	23.07
660.815	23.22
661.049	21.99
661.283	17.81
661.517	16.27
661.751	14.6
661.985	14.54
662.219	16
662.453	15.93
662.687	17.82
662.921	16.16
663.155	14.38
663.389	9.18
663.622	7.28
663.856	8.76
664.09	5.5
664.324	4.75
664.558	6.13
664.791	5.52
665.025	4.33
665.259	4.34
665.492	3.54
665.726	6.45
665.96	6.5
666.193	5.46
666.427	7.24
666.661	8.79
666.894	8
667.128	7.2
667.361	9.57
667.595	8.53
667.828	7.95
668.062	6.35
668.295	7.34
668.529	8.95
668.762	10.02
668.995	9.03
669.229	12.43
669.462	13.64
669.695	12.94
669.929	10.93
670.162	11.67
670.395	10.81
670.629	12.94
670.862	15.47
671.095	11.85
671.328	12.13
671.561	7.8
671.795	8.38
672.028	11.32
672.261	10.38
672.494	12.57
672.727	10.88
672.96	12.02
673.193	10.36
673.426	14.66
673.659	16.5
673.892	16.68
674.125	15.55
674.358	15.82
674.591	13.57
674.824	13.05
675.057	13.42
675.29	12.46
675.523	13.86
675.755	12.36
675.988	13.32
676.221	17.52
676.454	16.55
676.687	17.18
676.919	17.12
677.152	16.87
677.385	15.66
677.617	15.85
677.85	16.34
678.083	15.2
678.315	18.69
678.548	17.78
678.78	18.18
679.013	17.44
679.246	17.07
679.478	19.47
679.711	16.63
679.943	19.11
680.175	15.61
680.408	19.92
680.64	17.17
680.873	16.38
681.105	17.49
681.338	21.43
681.57	20.45
681.802	22.37
682.034	22.72
682.267	26.35
682.499	27.42
682.731	24.06
682.964	22.37
683.196	19.68
683.428	17.25
683.66	15.91
683.892	19.15
684.124	21.54
684.356	25.26
684.589	25.68
684.821	24.25
685.053	24.88
685.285	25.06
685.517	26.59
685.749	25.91
685.981	27.27
686.213	24.85
686.445	25.77
686.676	23.3
686.908	24.62
687.14	23.51
687.372	24.62
687.604	21.47
687.836	23.35
688.068	22.67
688.299	22.39
688.531	20.19
688.763	25.42
688.995	22.19
689.226	25.92
689.458	21.97
689.69	19.86
689.921	17.86
690.153	18.78
690.384	21.06
690.616	19.73
690.848	18.62
691.079	14.08
691.311	10.77
691.542	7.85
691.774	6.87
692.005	10.58
692.237	12.82
692.468	12.89
692.699	10.69
692.931	11.13
693.162	10.18
693.393	11.01
693.625	8.44
693.856	8.35
694.087	7.98
694.319	7.41
694.55	7.48
694.781	5.8
695.012	5.66
695.243	3.85
695.475	2.42
695.706	2.42
695.937	1.05
696.168	1.48
696.399	-1.15
696.63	-0.6
696.861	0.38
697.092	6.98
697.323	10.35
697.554	11.51
697.785	12.45
698.016	16.04
698.247	14.76
698.478	17.18
698.709	18.99
698.94	21.23
699.171	19.48
699.401	17.16
699.632	16.88
699.863	14.93
700.094	16.53
700.325	18.47
700.555	20.92
700.786	24.2
701.017	24.09
701.247	23.6
701.478	25.25
701.709	25.53
701.939	24.98
702.17	26.11
702.401	29.46
702.631	31.22
702.862	29.49
703.092	24.76
703.323	27.57
703.553	28.12
703.784	28.95
704.014	29.05
704.244	24.28
704.475	22.24
704.705	21.82
704.936	22.72
705.166	19.95
705.396	21.81
705.627	21.63
705.857	20.7
706.087	20.73
706.317	18.35
706.548	14.78
706.778	14.8
707.008	15.73
707.238	14.72
707.468	12.89
707.698	10.12
707.928	8.89
708.158	8.67
708.389	8.64
708.619	8.4
708.849	5.9
709.079	6.69
709.309	3.89
709.539	0.76
709.768	0.92
709.998	3.03
710.228	4.17
710.458	2.59
710.688	0.86
710.918	0.55
711.148	0.41
711.378	0.96
711.607	-0.64
711.837	-0.49
712.067	-1.92
712.297	-0.81
712.526	-1.64
712.756	-1.14
712.986	-3.55
713.215	-4.77
713.445	-3.81
713.674	-1.75
713.904	-1.63
714.134	1.35
714.363	0.66
714.593	0.61
714.822	0.83
715.052	0.83
715.281	0.99
715.511	-1.59
715.74	-3.22
715.969	-2.69
716.199	-2.74
716.428	-1.93
716.657	-1.88
716.887	-0.2
717.116	-1.88
717.345	-0.67
717.575	-0.94
717.804	-1.7
718.033	-1.21
718.262	-1.33
718.492	-0.47
718.721	0.43
718.95	0.99
719.179	-0.57
719.408	0.19
719.637	-2.49
719.866	-5.48
720.095	-2.64
720.324	-4.98
720.553	-8.42
720.782	-10.68
721.011	-11.58
721.24	-13.85
721.469	-15.15
721.698	-15.28
721.927	-15
722.156	-16.15
722.385	-16.62
722.613	-12.37
722.842	-10.81
723.071	-7.65
723.3	-5.87
723.529	-5.67
723.757	-3.7
723.986	-7.71
724.215	-9.79
724.443	-8.13
724.672	-5.37
724.901	-3.03
725.129	-2.94
725.358	0.07
725.586	-3.28
725.815	-2.9
726.043	-4.45
726.272	-4.79
726.5	-5.58
726.729	-3.9
726.957	-6.47
727.186	-8.78
727.414	-6.35
727.642	-3.37
727.871	0.29
728.099	0.45
728.327	0.01
728.556	3.41
728.784	4.04
729.012	1.96
729.241	2.57
729.469	1.99
729.697	-0.78
729.925	0.12
730.153	-1.99
730.381	-1.47
730.61	-2.73
730.838	-7.42
731.066	-5.89
731.294	-4.12
731.522	-7.26
731.75	-11.66
731.978	-13.84
732.206	-14.6
732.434	-18.06
732.662	-15.4
732.89	-17.43
733.118	-18.4
733.346	-16.85
733.573	-16.07
733.801	-16.13
734.029	-7.94
734.257	-6.88
734.485	-5.06
734.712	-4.17
734.94	-7.53
735.168	-4.27
735.396	-3.3
735.623	-4.93
735.851	-3.75
736.078	-1.4
736.306	0.15
736.534	0.47
736.761	1.43
736.989	-2.33
737.216	-3.13
737.444	-6.04
737.671	-4.24
737.899	3.1
738.126	1.7
738.354	2.37
738.581	1.86
738.809	2.82
739.036	2.63
739.263	2.48
739.491	1.48
739.718	2.04
739.945	7.09
740.173	9.56
740.4	8.35
740.627	6.4
740.854	6.59
741.081	3.8
741.309	1.8
741.536	-1.28
741.763	-2.48
741.99	0.45
742.217	-0.19
742.444	-1.38
742.671	-0.28
742.898	-0.52
743.125	-3.38
743.352	-6.67
743.579	-7.64
743.806	-8.61
744.033	-5.02
744.26	-3.99
744.487	-4.23
744.714	-4.58
744.941	-6.91
745.167	-3.54
745.394	-5.25
745.621	-4.28
745.848	-3.87
746.075	-1.69
746.301	2.46
746.528	6.62
746.755	3.35
746.981	1.75
747.208	2.44
747.435	4.28
747.661	5.22
747.888	6.08
748.114	4.25
748.341	5.88
748.567	8.21
748.794	6.9
749.02	5.58
749.247	3.07
749.473	2.31
749.7	1.97
749.926	1.58
750.152	5.71
750.379	6.39
750.605	7.47
750.831	7.48
751.058	3.82
751.284	1.94
751.51	5.09
751.737	6.16
751.963	4.11
752.189	2.92
752.415	2.53
752.641	2.27
752.867	2.08
753.094	-0.22
753.32	-2.83
753.546	-4.83
753.772	-1.67
753.998	-2.98
754.224	-4.09
754.45	-5.14
754.676	-6.7
754.902	-6.57
755.128	-7.44
755.354	-7.9
755.579	-7.13
755.805	-4.72
756.031	-6.77
756.257	-7.86
756.483	-8.21
756.709	-10.35
756.934	-12.67
757.16	-14.53
757.386	-13.31
757.612	-15.22
757.837	-16.87
758.063	-13.22
758.289	-9.58
758.514	-10.92
758.74	-15.13
758.965	-16.56
759.191	-15.19
759.416	-13.94
759.642	-13.13
759.868	-11.57
760.093	-9.81
760.318	-11.3
760.544	-11.14
760.769	-13.05
760.995	-12.97
761.22	-12.93
761.445	-10.65
761.671	-7.21
761.896	-5.84
762.121	-5.15
762.347	-3.79
762.572	-6.99
762.797	-7.09
763.022	-7.42
763.248	-3
763.473	-2.77
763.698	-4.12
763.923	-2.61
764.148	-2.5
764.373	-3.57
764.598	-1.83
764.823	0.92
765.048	-2.11
765.273	-5.98
765.498	-7.64
765.723	-6.01
765.948	-5.24
766.173	-6.29
766.398	-4.88
766.623	-6.86
766.848	-8.7
767.073	-9.71
767.298	-10.01
767.522	-10.13
767.747	-8.69
767.972	-8.99
768.197	-9.09
768.421	-10.35
768.646	-14.04
768.871	-17.2
769.095	-17.05
769.32	-17.92
769.545	-17.37
769.769	-16.83
769.994	-14.17
770.218	-16.29
770.443	-13.64
770.667	-11.17
770.892	-10.89
771.116	-12.16
771.341	-10.92
771.565	-12.74
771.79	-12.5
772.014	-12.96
772.238	-14.63
772.463	-12.64
772.687	-12.23
772.911	-12.11
773.136	-15.84
773.36	-16.21
773.584	-14.57
773.808	-14.83
774.033	-15.31
774.257	-14.62
774.481	-15.31
774.705	-15.2
774.929	-15.77
775.153	-14.73
775.377	-13.85
775.602	-14.44
775.826	-11.71
776.05	-9.71
776.274	-10.59
776.498	-9.84
776.722	-10.42
776.945	-9.98
777.169	-11.3
777.393	-13.31
777.617	-14.67
777.841	-13.82
778.065	-12.13
778.289	-13.13
778.512	-11.73
778.736	-11.45
778.96	-11.61
779.184	-8.94
779.407	-9.94
779.631	-9.75
779.855	-11.66
780.078	-8.47
780.302	-9.3
780.526	-11.66
780.749	-11.59
780.973	-8.36
781.196	-8.03
781.42	-9.32
781.643	-8.73
781.867	-7.35
782.09	-10.65
782.314	-11.23
782.537	-10.9
782.76	-12.69
782.984	-12.11
783.207	-13.05
783.431	-13.79
783.654	-15.13
783.877	-17.14
784.1	-18.14
784.324	-18.51
784.547	-19.22
784.77	-23.39
784.993	-25.24
785.216	-25.33
785.44	-25.06
785.663	-26.55
785.886	-23.2
786.109	-22.17
786.332	-21.97
786.555	-19.77
786.778	-16.33
787.001	-15.99
787.224	-15.17
787.447	-13.95
787.67	-12.9
787.893	-14.1
788.116	-14.03
788.339	-13.63
788.561	-14.78
788.784	-17.8
789.007	-18.89
789.23	-20.53
789.453	-20.23
789.675	-21.13
789.898	-23.17
790.121	-23.79
790.344	-23.32
790.566	-23.16
790.789	-22.71
791.012	-21.55
791.234	-19.03
791.457	-15.04
791.679	-12.08
791.902	-11.13
792.124	-11.79
792.347	-13.64
792.569	-14.44
792.792	-17.8
793.014	-15.99
793.237	-14.71
793.459	-16.61
793.681	-17.64
793.904	-19.22
794.126	-19.85
794.348	-20.09
794.571	-19.51
794.793	-21.66
795.015	-21.34
795.237	-21.51
795.46	-21.49
795.682	-20.72
795.904	-16.86
796.126	-18.07
796.348	-18.65
796.57	-15.57
796.792	-14
797.014	-10.2
797.237	-7.78
797.459	-5.45
797.681	-3.95
797.903	-6.13
798.124	-6.12
798.346	5.89
798.568	6.61
798.79	11.01
799.012	11.96
799.234	14.83
799.456	17.18
799.678	19.88
799.899	17.03
800.121	13.87
800.343	13.25
800.565	14.74
800.786	15.5
801.008	16.91
801.23	18.15
801.451	18.78
801.673	17.35
801.895	17.35
802.116	20.52
802.338	21.87
802.559	21.27
802.781	18.99
803.002	21.61
803.224	23.24
803.445	19.94
803.667	20.27
803.888	18.47
804.109	18.38
804.331	16.9
804.552	16.39
804.773	19.92
804.995	17.44
805.216	2.48
805.437	0.84
805.658	-3.45
805.88	-5.18
806.101	-6.5
806.322	-7.3
806.543	-9.31
806.764	-11.52
806.985	-9.71
807.207	-8.26
807.428	-8.26
807.649	-11.51
807.87	-13.46
808.091	-13.87
808.312	-13.34
808.533	-7.19
808.754	-6.77
808.975	-9.65
809.195	-7.36
809.416	-7
809.637	-8.38
809.858	-9.05
810.079	-9.83
810.3	-6.72
810.52	-8.1
810.741	-9.97
810.962	-13.42
811.183	-13.44
811.403	-12.86
811.624	-15.07
811.845	-13.68
812.065	-11.92
812.286	-11.93
812.506	-11.7
812.727	-10.54
812.948	-9.37
813.168	-7.97
813.389	-8.84
813.609	-6.56
813.83	-7.17
814.05	-8.75
814.27	-8.5
814.491	-4.2
814.711	-5.24
814.931	-7.41
815.152	-8.45
815.372	-11.33
815.592	-10.89
815.813	-11.52
816.033	-14.03
816.253	-12.85
816.473	-12.47
816.694	-12.03
816.914	-10.49
817.134	-10.35
817.354	-11.79
817.574	-10.62
817.794	-10.37
818.014	-11.67
818.234	-12.63
818.454	-13.3
818.674	-16.61
818.894	-18.89
819.114	-15.95
819.334	-14.69
819.554	-12.91
819.774	-10
819.994	-12.89
820.214	-12.92
820.433	-12.63
820.653	-11.7
820.873	-9.71
821.093	-9.66
821.312	-12.32
821.532	-9.93
821.752	-8.41
821.972	-9.46
822.191	-9
822.411	-10.97
822.63	-10
822.85	-8.41
823.07	-10.38
823.289	-10.45
823.509	-11.66
823.728	-10.11
823.948	-13.56
824.167	-14.73
824.387	-14.92
824.606	-12.59
824.825	-13.08
825.045	-13.53
825.264	-13.52
825.483	-10.23
825.703	-8.64
825.922	-10.94
826.141	-12.81
826.361	-12.96
826.58	-18.98
826.799	-20.27
827.018	-20.11
827.237	-20.61
827.456	-19.79
827.676	-19.96
827.895	-20.59
828.114	-17.1
828.333	-17.24
828.552	-17.14
828.771	-16.56
828.99	-17.74
829.209	-18.01
829.428	-16.67
829.647	-17.41
829.866	-16.14
830.084	-15.2
830.303	-16.1
830.522	-17.4
830.741	-15.29
830.96	-14.09
831.179	-13.35
831.397	-15.34
831.616	-14.51
831.835	-13.81
832.053	-12.77
832.272	-13.42
832.491	-12.56
832.709	-12.81
832.928	-12.61
833.147	-13.78
833.365	-11.12
833.584	-7.3
833.802	-3.67
834.021	-2.82
834.239	-1.97
834.458	-2.11
834.676	-4.99
834.894	-7.61
835.113	-8.19
835.331	-8.42
835.55	-8.36
835.768	-7.83
835.986	-5.73
836.204	-7.51
836.423	-7.65
836.641	-8.92
836.859	-9.94
837.077	-9.84
837.296	-9.41
837.514	-10.64
837.732	-11.02
837.95	-13.09
838.168	-10.15
838.386	-11.11
838.604	-9.43
838.822	-8.68
839.04	-9.86
839.258	-10.41
839.476	-10.37
839.694	-10.08
839.912	-11.39
840.13	-11.31
840.348	-9.49
840.566	-12.84
840.783	-12.24
841.001	-13.78
841.219	-13.71
841.437	-12.16
841.655	-11.07
841.872	-10.56
842.09	-11.09
842.308	-11.52
842.525	-10.68
842.743	-10.71
842.961	-10.94
843.178	-14.78
843.396	-11.48
843.613	-10.5
843.831	-8.04
844.048	-8.54
844.266	-8.09
844.483	-7.91
844.701	-7.87
844.918	-8.97
845.136	-8.84
845.353	-10.16
845.57	-10.12
845.788	-6.66
846.005	-9.21
846.222	-8.56
846.439	-7.14
846.657	-6.63
846.874	-6.21
847.091	-8.65
847.308	-5.64
847.526	-6.43
847.743	-7.39
847.96	-8.63
848.177	-9.17
848.394	-11
848.611	-12.35
848.828	-13.57
849.045	-14.18
849.262	-14.51
849.479	-14.84
849.696	-15.88
849.913	-16.02
850.13	-19.91
850.347	-17.39
850.564	-18.24
850.78	-19.17
850.997	-19.73
851.214	-18.95
851.431	-17.05
851.647	-19.43
851.864	-18
852.081	-17.48
852.298	-20.54
852.514	-22.9
852.731	-20.45
852.948	-19.99
853.164	-18.98
853.381	-18.87
853.597	-19.74
853.814	-22.02
854.03	-26.36
854.247	-24.19
854.463	-23.39
854.68	-23.73
854.896	-23.21
855.113	-22.01
855.329	-20.72
855.545	-17.04
855.762	-16.7
855.978	-19.73
856.194	-21.26
856.411	-17.36
856.627	-13.68
856.843	-12.79
857.059	-9.94
857.275	-11.33
857.492	-11.45
857.708	-10.1
857.924	-8.91
858.14	-8.12
858.356	-7.54
858.572	-7.8
858.788	-9.41
859.004	-6.84
859.22	-8.09
859.436	-6.94
859.652	-6.91
859.868	-9.9
860.084	-9.42
860.3	-9.8
860.516	-9.44
860.731	-8.4
860.947	-12.26
861.163	-10.41
861.379	-9.39
861.595	-7.97
861.81	-6.1
862.026	-6.26
862.242	-6.54
862.457	-7.44
862.673	-4.51
862.889	-4.99
863.104	-6.64
863.32	-7.58
863.535	-7.03
863.751	-12.15
863.966	-8.7
864.182	-7.17
864.397	-7.67
864.613	-9.93
864.828	-11.14
865.044	-11.26
865.259	-10.54
865.474	-11.21
865.69	-9.9
865.905	-9.17
866.12	-11.86
866.336	-13.79
866.551	-12.61
866.766	-11.89
866.981	-13.73
867.196	-13.18
867.412	-13.05
867.627	-12.32
867.842	-14.32
868.057	-14.02
868.272	-14.41
868.487	-16.27
868.702	-17.56
868.917	-18.68
869.132	-16.08
869.347	-16.9
869.562	-17.07
869.777	-16.32
869.992	-17.47
870.207	-16.62
870.422	-16.38
870.636	-18.59
870.851	-19.61
871.066	-21.55
871.281	-21.72
871.495	-21.79
871.71	-18.69
871.925	-21.56
872.14	-20.23
872.354	-22.24
872.569	-22.02
872.783	-20.16
872.998	-19.32
873.213	-20.1
873.427	-18.17
873.642	-15.08
873.856	-14.14
874.071	-14.2
874.285	-14.37
874.5	-16.36
874.714	-19.02
874.928	-20.68
875.143	-21.72
875.357	-21.68
875.571	-24.32
875.786	-24.2
876	-20.8
876.214	-19.94
876.429	-22.05
876.643	-20.32
876.857	-19.36
877.071	-18.92
877.285	-20.95
877.499	-23.63
877.714	-21.75
877.928	-19.19
878.142	-21.6
878.356	-23.15
878.57	-22.04
878.784	-21.63
878.998	-23.61
879.212	-22.87
879.426	-25.13
879.639	-23.4
879.853	-22.94
880.067	-24.3
880.281	-26.26
880.495	-25.18
880.709	-23.1
880.922	-22.35
881.136	-20.6
881.35	-17.47
881.564	-17.57
881.777	-18.31
881.991	-18.38
882.205	-13.26
882.418	-14.89
882.632	-18.36
882.845	-17.69
883.059	-17.72
883.273	-18.84
883.486	-20.59
883.7	-19.37
883.913	-18.59
884.126	-17.95
884.34	-20.95
884.553	-23.52
884.767	-19.31
884.98	-20.43
885.193	-20.58
885.407	-21.43
885.62	-18.19
885.833	-17.15
886.046	-15.99
886.26	-17.98
886.473	-19.31
886.686	-20.64
886.899	-19.78
887.112	-22.13
887.326	-24.86
887.539	-23.69
887.752	-22.35
887.965	-25.48
888.178	-22.37
888.391	-21.98
888.604	-21.85
888.817	-23.68
889.03	-21.09
889.243	-21.73
889.455	-24.48
889.668	-22.81
889.881	-20.65
890.094	-22.01
890.307	-23.32
890.52	-21.97
890.732	-20.61
890.945	-19.48
891.158	-19.28
891.37	-20.53
891.583	-20.48
891.796	-18.82
892.008	-20.29
892.221	-21.36
892.434	-25.38
892.646	-25.3
892.859	-26.66
893.071	-24.69
893.284	-22.29
893.496	-23.18
893.709	-21.51
893.921	-20.65
894.133	-21.61
894.346	-21.84
894.558	-20.46
894.771	-22.35
894.983	-20.79
895.195	-19.63
895.407	-18.83
895.62	-22.52
895.832	-22.08
896.044	-18.99
896.256	-20.06
896.468	-21.57
896.681	-18.9
896.893	-18.59
897.105	-18.41
897.317	-19.73
897.529	-16.16
897.741	-14.48
897.953	-13.08
898.165	-14.62
898.377	-17.07
898.589	-15.67
898.801	-16.81
899.013	-13.75
899.224	-10.84
899.436	-7.42
899.648	-8.28
899.86	-10.86
900.072	-6.91
900.283	-6.91
900.495	-4.52
900.707	-4.13
900.919	-7.29
901.13	-6.44
901.342	-7.56
901.554	-7.59
901.765	-7.4
901.977	-11.72
902.188	-11.42
902.4	-12.32
902.611	-13.88
902.823	-15.32
903.034	-17.27
903.246	-18.98
903.457	-19.94
903.669	-21.82
903.88	-20.83
904.091	-22.52
904.303	-23.06
904.514	-24.67
904.725	-22.57
904.936	-21.42
905.148	-20.86
905.359	-18.38
905.57	-18.3
905.781	-20.21
905.992	-20.97
906.204	-20.6
906.415	-19.8
906.626	-22.22
906.837	-19.94
907.048	-20.94
907.259	-21.19
907.47	-21.98
907.681	-23.17
907.892	-19.59
908.103	-20.79
908.314	-22.86
908.525	-18.8
908.735	-17.21
908.946	-17.29
909.157	-18.63
909.368	-16.02
909.579	-13.78
909.789	-15.56
910	-17.13
910.211	-15.58
910.421	-15.97
910.632	-15.81
910.843	-18.65
911.053	-14.85
911.264	-11.93
911.475	-12.82
911.685	-12.27
911.896	-12.77
912.106	-12.23
912.317	-14.39
912.527	-12.21
912.737	-12.22
912.948	-12.12
913.158	-13.33
913.369	-16.29
913.579	-14.88
913.789	-14.24
914	-9.49
914.21	-7.9
914.42	-9.24
914.63	-9.48
914.841	-7.37
915.051	-6.61
915.261	-7.44
915.471	-5.6
915.681	-3.43
915.891	-3.35
916.101	-5.24
916.311	-3.82
916.521	-3.06
916.731	-1.16
916.941	0.92
917.151	-0.4
917.361	3.91
917.571	-2.19
917.781	-4.84
917.991	-6.86
918.201	-7.07
918.411	-10.16
918.621	-11.42
918.83	-10.83
919.04	-12.99
919.25	-11.27
919.46	-9.17
919.669	-10.96
919.879	-10.96
920.089	-12.54
920.298	-14.37
920.508	-14.1
920.717	-14.14
920.927	-15.35
921.136	-14.69
921.346	-16.15
921.555	-19.24
921.765	-18.45
921.974	-20.51
922.184	-24.08
922.393	-24.56
922.603	-24.29
922.812	-22.54
923.021	-21.85
923.23	-24.09
923.44	-26.42
923.649	-25.75
923.858	-27.39
924.067	-25.98
924.277	-27.29
924.486	-24.1
924.695	-26.39
924.904	-23.23
925.113	-23.33
925.322	-22.38
925.531	-22.72
925.74	-24.5
925.949	-24.88
926.158	-21.8
926.367	-21.35
926.576	-20.94
926.785	-21.61
926.994	-23.72
927.203	-23.09
927.412	-24.57
927.621	-25.18
927.83	-23.78
928.038	-23.99
928.247	-23.57
928.456	-21.75
928.665	-20
928.873	-18.85
929.082	-17.89
929.291	-17.08
929.499	-15.2
929.708	-15.71
929.916	-14.6
930.125	-15.47
930.333	-16.12
930.542	-14.12
930.75	-11.38
930.959	-10.63
931.167	-9.25
931.376	-10.48
931.584	-8.56
931.793	-7.69
932.001	-7.83
932.209	-10.31
932.418	-13.68
932.626	-16.44
932.834	-18.95
933.042	-21.64
933.251	-20.06
933.459	-20.21
933.667	-21.49
933.875	-20.39
934.083	-18.7
934.291	-18.37
934.499	-15.71
934.707	-17.42
934.915	-18.1
935.123	-16.08
935.331	-17.49
935.539	-19.25
935.747	-21.01
935.955	-23.14
936.163	-22.76
936.371	-23.04
936.579	-19.43
936.787	-18.88
936.995	-20.55
937.202	-22.45
937.41	-23.13
937.618	-23.84
937.826	-23.67
938.033	-28.68
938.241	-30.54
938.449	-27.69
938.656	-24.42
938.864	-22.94
939.071	-21.84
939.279	-18.9
939.486	-15.59
939.694	-17.39
939.901	-18.22
940.109	-17.86
940.316	-17.41
940.524	-18.16
940.731	-18.68
940.939	-18.52
941.146	-18.58
941.353	-18.54
941.561	-18.97
941.768	-19.99
941.975	-18.03
942.182	-19.42
942.39	-18.32
942.597	-15.72
942.804	-15.94
943.011	-18.26
943.218	-18.44
943.425	-19.32
943.632	-20.02
943.839	-19.69
944.046	-19.29
944.253	-19.57
944.46	-18
944.667	-13.48
944.874	-15.63
945.081	-14.97
945.288	-14.78
945.495	-12.92
945.702	-11.56
945.909	-13.57
946.115	-11.08
946.322	-11.42
946.529	-13.38
946.736	-13.21
946.942	-12.6
947.149	-14.49
947.356	-17
947.562	-18.81
947.769	-18.97
947.976	-19.37
948.182	-18.1
948.389	-18.98
948.595	-16.97
948.802	-15.89
949.008	-17.11
949.215	-16.1
949.421	-16.59
949.628	-16.9
949.834	-14.62
950.04	-14.33
950.247	-11.5
950.453	-11.24
950.659	-12.75
950.865	-10.93
951.072	-16.14
951.278	-14.47
951.484	-15.95
951.69	-19.77
951.896	-21.25
952.103	-22.72
952.309	-21.72
952.515	-21.88
952.721	-20.52
952.927	-18.92
953.133	-21.11
953.339	-22.09
953.545	-22.4
953.751	-21.79
953.957	-18.29
954.163	-20.76
954.369	-19.79
954.574	-20.4
954.78	-21.08
954.986	-20.14
955.192	-19.57
955.398	-20.31
955.603	-22.3
955.809	-21.72
956.015	-21.94
956.22	-21.46
956.426	-20.14
956.632	-24.57
956.837	-23.74
957.043	-21.47
957.248	-20.37
957.454	-19.4
957.66	-22.09
957.865	-22.47
958.07	-19.5
958.276	-21.63
958.481	-23.06
958.687	-24.23
958.892	-24.61
959.097	-24.64
959.303	-25.38
959.508	-24.21
959.713	-23.35
959.919	-22.13
960.124	-21.47
960.329	-21.2
960.534	-17.84
960.739	-17.33
960.945	-16.91
961.15	-16.31
961.355	-18.39
961.56	-22.67
961.765	-24.8
961.97	-25.19
962.175	-22.4
962.38	-24.63
962.585	-24.71
962.79	-27.79
962.995	-28.45
963.2	-29.47
963.404	-30.25
963.609	-33.67
963.814	-35.09
964.019	-36.36
964.224	-37.22
964.428	-36.23
964.633	-33.54
964.838	-31.26
965.042	-30.63
965.247	-32.26
965.452	-32.57
965.656	-29.51
965.861	-28.95
966.066	-31.15
966.27	-28.81
966.475	-25.46
966.679	-29.66
966.884	-29.31
967.088	-32.1
967.292	-32.88
967.497	-31.37
967.701	-32.31
967.906	-29.95
968.11	-26.28
968.314	-22.08
968.518	-25.33
968.723	-21.7
968.927	-21.83
969.131	-19.77
969.335	-15.39
969.539	-15.4
969.744	-13.16
969.948	-9.37
970.152	-7.29
970.356	-5.59
970.56	-5.49
970.764	-6.65
970.968	-4.25
971.172	-5.79
971.376	-5.37
971.58	-3.55
971.784	-1.9
971.988	-4.94
972.192	-3.44
972.395	-3.55
972.599	-6.4
972.803	-8.69
973.007	-5.97
973.21	-6.01
973.414	-5.66
973.618	-5.55
973.822	-6.75
974.025	-6.07
974.229	-6.09
974.432	-9.29
974.636	-11.66
974.84	-9.3
975.043	-9.91
975.247	-10.09
975.45	-10.84
975.654	-10.35
975.857	-8.68
976.06	-10.52
976.264	-13.45
976.467	-12.15
976.671	-13.25
976.874	-12.12
977.077	-12.64
977.28	-13.85
977.484	-15.57
977.687	-16.6
977.89	-15.72
978.093	-16.74
978.297	-16.04
978.5	-16.14
978.703	-14.42
978.906	-14.79
979.109	-14.3
979.312	-14.15
979.515	-14.56
979.718	-14.77
979.921	-15.48
980.124	-17.11
980.327	-17.45
980.53	-17.02
980.733	-15.21
980.936	-12.81
981.138	-15.79
981.341	-14.58
981.544	-14.69
981.747	-14.52
981.949	-17.43
982.152	-17.13
982.355	-18.1
982.558	-14.14
982.76	-18.31
982.963	-17.69
983.165	-17.27
983.368	-17.22
983.571	-17.81
983.773	-14.79
983.976	-13.99
984.178	-14.34
984.381	-15.36
984.583	-17.34
984.785	-18.29
984.988	-16.22
985.19	-13.13
985.392	-16.14
985.595	-18.13
985.797	-18.41
985.999	-15.08
986.202	-11.72
986.404	-12.17
986.606	-8.7
986.808	-10.15
987.01	-9.51
987.212	-10.17
987.415	-10.93
987.617	-12.01
987.819	-12.18
988.021	-11.13
988.223	-12.94
988.425	-14.03
988.627	-13.08
988.829	-17.58
989.031	-13.59
989.232	-14.37
989.434	-13.38
989.636	-13.11
989.838	-12.99
990.04	-13.14
990.242	-13.93
990.443	-15.92
990.645	-12.92
990.847	-9.52
991.048	-8.87
991.25	-10.75
991.452	-12.78
991.653	-12.96
991.855	-13.62
992.057	-14.4
992.258	-15.21
992.46	-16.56
992.661	-14.48
992.863	-16.92
993.064	-16.03
993.265	-15.82
993.467	-18.63
993.668	-16.45
993.87	-15.92
994.071	-15.88
994.272	-15.64
994.473	-14.34
994.675	-14.32
994.876	-14.62
995.077	-15.11
995.278	-15.87
995.48	-15.22
995.681	-16.67
995.882	-14.77
996.083	-14.46
996.284	-17.92
996.485	-18.33
996.686	-18.65
996.887	-21.4
997.088	-24.82
997.289	-27.59
997.49	-27.29
997.691	-26.78
997.892	-25.09
998.092	-19.35
998.293	-18.66
998.494	-18.84
998.695	-19.35
998.896	-18.26
999.096	-18.02
999.297	-18.54
999.498	-21.5
999.698	-23.56
999.899	-25.32
1000.1	-27.48
1000.3	-27.74
1000.501	-27.82
1000.701	-26.94
1000.902	-26.04
1001.102	-25.2
1001.303	-22.19
1001.503	-24.54
1001.704	-23.73
1001.904	-24.17
1002.105	-25.03
1002.305	-26.43
1002.505	-25.83
1002.706	-26.43
1002.906	-25.74
1003.106	-24.86
1003.306	-24.32
1003.507	-22.58
1003.707	-23.54
1003.907	-21.78
1004.107	-21.47
1004.307	-24.88
1004.507	-23.43
1004.707	-23.71
1004.907	-24.74
1005.107	-25.82
1005.308	-25.01
1005.507	-25.39
1005.707	-22.44
1005.907	-21.12
1006.107	-18.99
1006.307	-17.04
1006.507	-18.63
1006.707	-18.97
1006.907	-17.51
1007.106	-19.39
1007.306	-19.98
1007.506	-19.56
1007.706	-19.03
1007.905	-21.63
1008.105	-21.59
1008.305	-21.22
1008.504	-19.93
1008.704	-14.77
1008.903	-13.53
1009.103	-12.23
1009.303	-15.33
1009.502	-14.93
1009.702	-16.04
1009.901	-15.72
1010.1	-19.21
1010.3	-18.06
1010.499	-19.04
1010.699	-20.8
1010.898	-23.18
1011.097	-23.75
1011.296	-23.57
1011.496	-25.1
1011.695	-25.72
1011.894	-26.97
1012.093	-23.5
1012.293	-25.1
1012.492	-26.34
1012.691	-25.99
1012.89	-25.89
1013.089	-29.02
1013.288	-27.62
1013.487	-25.6
1013.686	-25.94
1013.885	-27.34
1014.084	-24.72
1014.283	-25.55
1014.482	-27.33
1014.681	-27.56
1014.88	-32.64
1015.078	-31.48
1015.277	-33.54
1015.476	-33.22
1015.675	-32.61
1015.873	-31.15
1016.072	-33.24
1016.271	-29.48
1016.47	-33.25
1016.668	-31.08
1016.867	-31.44
1017.065	-31.55
1017.264	-32.26
1017.463	-31.96
1017.661	-31.99
1017.86	-31.09
1018.058	-30.69
1018.256	-32.44
1018.455	-32.33
1018.653	-31.54
1018.852	-29.75
1019.05	-32.05
1019.248	-33.43
1019.447	-35.65
1019.645	-37.15
1019.843	-40.33
1020.041	-37.94
1020.24	-39.97
1020.438	-35.15
1020.636	-35.01
1020.834	-38.02
1021.032	-35.65
1021.23	-36.83
1021.428	-34.91
1021.626	-31.8
1021.824	-32.22
1022.022	-34.13
1022.22	-30.35
1022.418	-30.25
1022.616	-29.73
1022.814	-29.98
1023.012	-30.08
1023.21	-27.67
1023.408	-26.61
1023.606	-27.51
1023.803	-22.31
1024.001	-21.77
1024.199	-25.12
1024.397	-25.11
1024.594	-25.14
1024.792	-27.36
1024.99	-27.62
1025.187	-27.69
1025.385	-24.27
1025.582	-23.34
1025.78	-24.64
1025.977	-22.02
1026.175	-22.78
1026.372	-21.49
1026.57	-25.26
1026.767	-23.55
1026.965	-22
1027.162	-20.3
1027.359	-20.39
1027.557	-20.23
1027.754	-22.81
1027.951	-23.53
1028.148	-21.61
1028.346	-25.19
1028.543	-27.24
1028.74	-27.36
1028.937	-30.21
1029.134	-31.53
1029.331	-33.52
1029.528	-33.45
1029.725	-32.96
1029.923	-37.07
1030.12	-33.53
1030.317	-30.29
1030.513	-28.31
1030.71	-26.89
1030.907	-24.6
1031.104	-25.08
1031.301	-24.46
1031.498	-23.92
1031.695	-23.06
1031.892	-22.99
1032.088	-23.69
1032.285	-25.01
1032.482	-26.42
1032.678	-28.72
1032.875	-30.26
1033.072	-29.56
1033.268	-30.57
1033.465	-30.56
1033.662	-32.2
1033.858	-31.63
1034.055	-30.92
1034.251	-29.56
1034.448	-29.38
1034.644	-29.54
1034.84	-26.88
1035.037	-25.09
1035.233	-23.61
1035.43	-20.99
1035.626	-21.09
1035.822	-21.38
1036.019	-21.27
1036.215	-25.82
1036.411	-26.61
1036.607	-28.9
1036.803	-32.24
1037	-31
1037.196	-32.17
1037.392	-32.74
1037.588	-34.73
1037.784	-33.81
1037.98	-33.09
1038.176	-32.95
1038.372	-32.34
1038.568	-30.45
1038.764	-28.04
1038.96	-26.49
1039.156	-26.87
1039.352	-28.36
1039.547	-26.26
1039.743	-25.93
1039.939	-24.62
1040.135	-26.12
1040.331	-25.62
1040.526	-21.68
1040.722	-22.67
1040.918	-25.16
1041.113	-28.06
1041.309	-28.68
1041.505	-31.77
1041.7	-29.74
1041.896	-30.67
1042.091	-32.39
1042.287	-32.63
1042.482	-32.23
1042.678	-32.27
1042.873	-30.23
1043.069	-32.38
1043.264	-31.79
1043.459	-30.35
1043.655	-29.62
1043.85	-31.55
1044.045	-31.46
1044.24	-31.37
1044.436	-29.76
1044.631	-30.86
1044.826	-31.73
1045.021	-33.61
1045.216	-34.14
