Data from led_4000k_2_FLMT021711__16__17-34-33-828.txt Node

Date: Tue Nov 05 17:34:33 CET 2024
User: Etudiants TP
Spectrometer: FLMT02171
Trigger mode: 0
Integration Time (sec): 1,000000E-1
Scans to average: 5
Electric dark correction enabled: true
Nonlinearity correction enabled: true
Boxcar width: 15
XAxis mode: Wavelengths
Number of Pixels in Spectrum: 3648
>>>>>Begin Spectral Data<<<<<
194,658	-61,86
194,923	-58,42
195,188	-50,86
195,453	-48,36
195,717	-42,57
195,982	-42,2
196,247	-38,65
196,512	-40,53
196,777	-40,22
197,042	-38,31
197,307	-37,14
197,572	-31,91
197,837	-31,39
198,101	-28,57
198,366	-25,56
198,631	-23,96
198,896	-16,98
199,161	-9,55
199,425	-2,62
199,69	7,34
199,955	6,57
200,22	3,47
200,484	3,21
200,749	2,97
201,014	4,68
201,278	5,69
201,543	6,68
201,807	5,89
202,072	7,72
202,337	8,67
202,601	9,81
202,866	7,22
203,13	7,81
203,395	4,94
203,659	4,86
203,924	2,92
204,189	4,23
204,453	5,13
204,717	6,94
204,982	8,69
205,246	11,53
205,511	11,81
205,775	9,67
206,04	14,33
206,304	14,59
206,568	15,02
206,833	15,34
207,097	16,02
207,361	17,29
207,626	22,2
207,89	22,13
208,154	21,72
208,419	24,39
208,683	24,74
208,947	27,07
209,211	26,68
209,476	27,3
209,74	28,28
210,004	29,33
210,268	29,25
210,532	30,86
210,796	31,32
211,061	32,08
211,325	33,23
211,589	31,63
211,853	31,88
212,117	33,01
212,381	32,96
212,645	32,28
212,909	33,24
213,173	30,36
213,437	29,21
213,701	31,14
213,965	32,77
214,229	28,8
214,493	27,48
214,757	27,6
215,021	26,19
215,285	29,9
215,549	30,96
215,813	27,17
216,077	26,92
216,34	29,02
216,604	27,94
216,868	28,1
217,132	28,93
217,396	27,73
217,659	26,58
217,923	22,08
218,187	21,69
218,451	21,34
218,714	18,62
218,978	18,94
219,242	22,3
219,505	21,82
219,769	24,29
220,033	23,93
220,296	24,11
220,56	25,27
220,824	21,88
221,087	21,69
221,351	22,15
221,614	20,05
221,878	19,41
222,142	17,31
222,405	17,59
222,669	21,61
222,932	17,14
223,196	16,51
223,459	13,92
223,722	14,99
223,986	13,65
224,249	13,38
224,513	14,82
224,776	15,02
225,04	15,17
225,303	14,74
225,566	15,51
225,83	17,76
226,093	22,12
226,356	20,88
226,62	19,58
226,883	22,98
227,146	22,81
227,409	20,32
227,673	19,44
227,936	19,01
228,199	19,32
228,462	17,35
228,725	15,85
228,989	17,54
229,252	18,75
229,515	24,54
229,778	24,21
230,041	23,69
230,304	22,68
230,567	23,46
230,83	19,99
231,093	23,75
231,356	24,35
231,619	29,08
231,882	28,85
232,145	31,55
232,408	30,21
232,671	27,61
232,934	27,05
233,197	25,38
233,46	23,09
233,723	23,45
233,986	22,04
234,249	19,05
234,512	20,86
234,775	24,45
235,037	22,43
235,3	23,02
235,563	24
235,826	24,46
236,089	25,83
236,351	25,34
236,614	27,99
236,877	29,31
237,14	31,77
237,402	31,62
237,665	25,5
237,928	25,06
238,19	23,32
238,453	25,46
238,716	24,14
238,978	23,67
239,241	21,57
239,503	22,72
239,766	16,95
240,029	14,56
240,291	17,47
240,554	18,17
240,816	18,05
241,079	17,22
241,341	17,2
241,604	17,05
241,866	13,78
242,129	13,88
242,391	16,85
242,653	16,67
242,916	16,13
243,178	16,13
243,441	16,11
243,703	16,2
243,965	13,86
244,228	14,44
244,49	14,37
244,752	14,48
245,015	15,94
245,277	16,85
245,539	15,84
245,801	17
246,064	16,91
246,326	16,54
246,588	17,13
246,85	18,31
247,112	19,9
247,374	22,6
247,637	25,86
247,899	26,54
248,161	27,72
248,423	23,11
248,685	23,69
248,947	24,3
249,209	24,75
249,471	25,68
249,733	27,69
249,995	27,19
250,257	26,86
250,519	25,45
250,781	27,57
251,043	25,16
251,305	25,97
251,567	27,5
251,829	26,27
252,091	26,54
252,353	22,4
252,615	23,51
252,876	22,32
253,138	19,49
253,4	16,53
253,662	17,15
253,924	20,65
254,185	21,98
254,447	21,99
254,709	21,61
254,971	22,6
255,232	24,13
255,494	21,9
255,756	20
256,017	20,82
256,279	19,78
256,541	19,56
256,802	18,38
257,064	20,35
257,326	19,71
257,587	21,01
257,849	20,22
258,11	23,38
258,372	24,38
258,633	24,14
258,895	23,27
259,156	21,61
259,418	20,3
259,679	15,59
259,941	13,48
260,202	16,33
260,464	19,68
260,725	17,33
260,987	15,4
261,248	14,08
261,509	14,22
261,771	12,56
262,032	12,34
262,293	12,31
262,555	12,78
262,816	11,3
263,077	10,68
263,338	7
263,6	7,7
263,861	6,4
264,122	5,79
264,383	8,11
264,645	8,02
264,906	7,71
265,167	5,63
265,428	5,32
265,689	5,38
265,95	4,43
266,211	6,05
266,473	4,97
266,734	2,17
266,995	-1,06
267,256	0,41
267,517	3,81
267,778	7,29
268,039	9,57
268,3	7,83
268,561	3,96
268,822	8,41
269,083	7,04
269,344	5,86
269,604	4,93
269,865	7,14
270,126	4,47
270,387	4,95
270,648	6,27
270,909	4,29
271,17	2,49
271,43	0,52
271,691	-2,62
271,952	-3,55
272,213	-1,43
272,473	-3,14
272,734	-0,66
272,995	1,25
273,256	2,76
273,516	5,49
273,777	3,5
274,038	5,37
274,298	2,78
274,559	3,15
274,82	9,41
275,08	12,42
275,341	13,64
275,601	11,63
275,862	9,72
276,122	10,67
276,383	12,3
276,643	15,12
276,904	12,46
277,164	17,41
277,425	19,09
277,685	23,27
277,946	21,76
278,206	22,8
278,467	23,94
278,727	23,57
278,987	23,57
279,248	22,47
279,508	25,33
279,768	28,06
280,029	28,78
280,289	24,87
280,549	22,98
280,81	21,61
281,07	20,51
281,33	21,31
281,59	17,98
281,851	19,61
282,111	17,88
282,371	17,46
282,631	17,39
282,891	14,23
283,151	11,12
283,412	8,97
283,672	7,52
283,932	8,97
284,192	9,3
284,452	7,09
284,712	4,43
284,972	3,53
285,232	0,19
285,492	2,48
285,752	0,43
286,012	7,52
286,272	8,57
286,532	6,94
286,792	7
287,052	10,42
287,312	11,55
287,571	10,27
287,831	9,93
288,091	7,56
288,351	8,54
288,611	14,18
288,871	14,71
289,13	13,97
289,39	9,88
289,65	12,42
289,91	10,47
290,17	12,64
290,429	15,55
290,689	13,78
290,949	11,14
291,208	14,33
291,468	17,86
291,728	21,1
291,987	22,08
292,247	21,43
292,506	23,21
292,766	25,72
293,026	25,17
293,285	25,71
293,545	27,86
293,804	27,28
294,064	22,81
294,323	20,17
294,583	19,98
294,842	19,36
295,102	18,62
295,361	18,83
295,621	19,35
295,88	20,46
296,139	20,91
296,399	22,23
296,658	16,06
296,917	15,51
297,177	12,39
297,436	14,75
297,695	12,08
297,955	14,49
298,214	13,89
298,473	14,31
298,732	17,36
298,992	20,38
299,251	18,98
299,51	16,04
299,769	16,25
300,028	14,96
300,287	14,74
300,547	15,96
300,806	14,28
301,065	16,95
301,324	18,98
301,583	14,59
301,842	11,94
302,101	10,96
302,36	11,93
302,619	12,92
302,878	15,42
303,137	13,27
303,396	15,44
303,655	16,61
303,914	13,67
304,173	14,26
304,432	12,24
304,691	16,48
304,95	14,71
305,208	21,03
305,467	21,73
305,726	23,85
305,985	25,2
306,244	27,66
306,503	27,45
306,761	25,32
307,02	23,12
307,279	24,26
307,537	25,41
307,796	20,24
308,055	19,11
308,314	20,16
308,572	16,26
308,831	18,83
309,09	19,64
309,348	19,91
309,607	20,88
309,865	23,99
310,124	22,37
310,382	24,35
310,641	25,18
310,9	22,37
311,158	23,71
311,417	22,37
311,675	20,88
311,933	21,93
312,192	23,19
312,45	23,48
312,709	22,56
312,967	22,67
313,226	21,08
313,484	19,24
313,742	16,67
314,001	13,05
314,259	8,82
314,517	8,84
314,776	12,04
315,034	13,8
315,292	10,86
315,55	7,11
315,809	8,13
316,067	9,12
316,325	7,07
316,583	9,6
316,841	7,97
317,1	5,84
317,358	2,38
317,616	0,28
317,874	-0,86
318,132	-0,72
318,39	0,05
318,648	-0,91
318,906	-0,37
319,164	-1,33
319,422	-2,37
319,68	-2,52
319,938	-2,27
320,196	-3,15
320,454	-1,46
320,712	-2,44
320,97	-1,81
321,228	-3,71
321,486	-0,27
321,744	1,27
322,002	4,13
322,26	4,62
322,517	5,5
322,775	1,14
323,033	-0,05
323,291	1,96
323,549	5,69
323,806	7,45
324,064	7,04
324,322	9,33
324,58	8,02
324,837	9,64
325,095	8,61
325,353	11,55
325,61	14,67
325,868	14,28
326,126	16,99
326,383	13,65
326,641	11,59
326,898	12,08
327,156	14,19
327,413	15,71
327,671	16,22
327,928	18,1
328,186	19,32
328,443	18,45
328,701	22,88
328,958	23,57
329,216	24,31
329,473	21,53
329,731	22,29
329,988	21,4
330,245	22,75
330,503	22,13
330,76	23,39
331,017	26,87
331,275	25,5
331,532	24,94
331,789	21,73
332,047	21,82
332,304	18,05
332,561	18,01
332,818	16,6
333,076	18,16
333,333	18,28
333,59	17,31
333,847	19,11
334,104	16,97
334,361	17,87
334,618	17,68
334,876	17,36
335,133	16,07
335,39	14,01
335,647	16,19
335,904	13,63
336,161	10,64
336,418	10,76
336,675	6,67
336,932	7,5
337,189	6,37
337,446	8,93
337,703	8
337,96	5,25
338,216	6,11
338,473	3,51
338,73	3,77
338,987	3,14
339,244	6,21
339,501	4,47
339,757	7,02
340,014	8,5
340,271	9,37
340,528	9,88
340,785	13,4
341,041	13,66
341,298	11,37
341,555	11,07
341,811	9,27
342,068	6,99
342,325	6,18
342,581	10,34
342,838	10,37
343,094	9,6
343,351	10,47
343,608	6,94
343,864	7,94
344,121	10,25
344,377	9,93
344,634	8,85
344,89	7,61
345,147	8,35
345,403	5,51
345,66	6,2
345,916	8,35
346,172	5,48
346,429	5,08
346,685	3,81
346,942	3,21
347,198	-0,77
347,454	-0,57
347,711	-0,65
347,967	-4,63
348,223	-4,24
348,48	-4,18
348,736	-1,29
348,992	-2,51
349,248	-0,04
349,504	1,02
349,761	1,77
350,017	2,9
350,273	2,86
350,529	1,05
350,785	1
351,041	0,46
351,297	0,95
351,554	0,42
351,81	-0,96
352,066	-2,04
352,322	-2,48
352,578	-1,27
352,834	-1,18
353,09	-1,05
353,346	-1,18
353,602	-3,42
353,858	-4,56
354,114	-4,93
354,369	-2,97
354,625	0,12
354,881	-2,15
355,137	0,98
355,393	1,92
355,649	2,66
355,905	4,32
356,16	5,82
356,416	6,32
356,672	-0,53
356,928	-0,11
357,183	-0,43
357,439	-0,85
357,695	-3,22
357,951	1,47
358,206	1,43
358,462	0,13
358,718	-0,92
358,973	1,02
359,229	1,6
359,484	2,57
359,74	6,47
359,996	6,89
360,251	10,01
360,507	9,8
360,762	10,15
361,018	11,94
361,273	10,69
361,529	11,95
361,784	11,47
362,04	13,14
362,295	11,65
362,55	10,4
362,806	13,26
363,061	13,05
363,316	13,85
363,572	14,15
363,827	16,3
364,082	12,89
364,338	10,91
364,593	11,56
364,848	13,59
365,104	10,94
365,359	13,89
365,614	15,67
365,869	11,49
366,124	12,54
366,38	11,99
366,635	13,55
366,89	13,45
367,145	13,42
367,4	16,3
367,655	16,75
367,91	17,19
368,165	15,2
368,42	11,92
368,675	11,51
368,93	12,59
369,185	10,77
369,44	11,03
369,695	13,92
369,95	13,05
370,205	12,61
370,46	12,32
370,715	12,16
370,97	12,56
371,225	11,85
371,48	13,69
371,734	12,92
371,989	13,69
372,244	15,69
372,499	16,6
372,754	14,85
373,008	12,47
373,263	7,65
373,518	10,78
373,773	10,19
374,027	7,47
374,282	9,94
374,537	11,18
374,791	13,06
375,046	10,94
375,301	9,75
375,555	5,75
375,81	7,28
376,064	7,96
376,319	12,02
376,573	11,87
376,828	7,49
377,082	12,49
377,337	9,43
377,591	6,31
377,846	6,68
378,1	9,86
378,355	10,38
378,609	8,77
378,863	5,72
379,118	7,5
379,372	4,87
379,627	3,42
379,881	3,35
380,135	2,49
380,389	3,58
380,644	3,81
380,898	5,84
381,152	8,03
381,407	6,65
381,661	8,92
381,915	11,38
382,169	11,26
382,423	9,36
382,677	5,71
382,932	7,46
383,186	9,21
383,44	12,25
383,694	13,78
383,948	12,52
384,202	10,24
384,456	12,4
384,71	13,99
384,964	12,18
385,218	15,1
385,472	15,44
385,726	15,8
385,98	15,83
386,234	15,5
386,488	12,63
386,742	14,43
386,996	11,57
387,249	13,14
387,503	15,39
387,757	16,87
388,011	18,12
388,265	17,8
388,518	19,04
388,772	20,81
389,026	21,45
389,28	18,9
389,533	16,82
389,787	19,64
390,041	18,17
390,295	17,96
390,548	18,46
390,802	21,11
391,055	19,13
391,309	17,09
391,563	14,15
391,816	14,93
392,07	14,46
392,323	16,65
392,577	18,16
392,83	19,69
393,084	24
393,337	28,04
393,591	28,98
393,844	28,37
394,098	31,92
394,351	36,51
394,604	38,78
394,858	40,73
395,111	41,07
395,364	38,51
395,618	41,19
395,871	38,43
396,124	36,62
396,378	34,44
396,631	34,64
396,884	31,98
397,137	31,44
397,391	33,88
397,644	30,29
397,897	30,03
398,15	30,11
398,403	31,21
398,657	29,35
398,91	28,2
399,163	28,73
399,416	29,61
399,669	28,18
399,922	28,67
400,175	25,61
400,428	25,1
400,681	24,87
400,934	21,04
401,187	19,26
401,44	19,43
401,693	18,39
401,946	13,8
402,199	8,82
402,452	6,17
402,704	3,01
402,957	1,81
403,21	4,05
403,463	1,9
403,716	3,66
403,969	5,61
404,221	4,45
404,474	4,78
404,727	7,82
404,98	10,04
405,232	8,08
405,485	10,05
405,738	12,63
405,99	13,1
406,243	13,94
406,496	14,98
406,748	14,82
407,001	13,07
407,253	12,62
407,506	13,7
407,759	14,16
408,011	11,19
408,264	10,08
408,516	9,44
408,769	8,9
409,021	10,51
409,274	11,89
409,526	13,15
409,778	13,07
410,031	17,2
410,283	16,67
410,536	22,28
410,788	20,62
411,04	19,07
411,293	21,05
411,545	22,21
411,797	21,88
412,049	22,45
412,302	24,09
412,554	24,81
412,806	23,18
413,058	22,31
413,311	22,67
413,563	21,1
413,815	22,2
414,067	19,9
414,319	19,8
414,571	21,57
414,823	20,1
415,075	18,79
415,328	20,1
415,58	21,92
415,832	24,08
416,084	26,09
416,336	23,97
416,588	26,79
416,84	24,59
417,091	25,41
417,343	22,8
417,595	26,01
417,847	26,66
418,099	29,76
418,351	29,55
418,603	32,41
418,855	34,45
419,106	32,89
419,358	32,99
419,61	32,8
419,862	34,79
420,114	31,81
420,365	31,04
420,617	33,08
420,869	33,23
421,12	32,12
421,372	33,13
421,624	33,08
421,875	33,44
422,127	30,58
422,379	31,11
422,63	35,06
422,882	34,71
423,133	33,3
423,385	32,55
423,636	33,84
423,888	35,74
424,139	38,97
424,391	35,95
424,642	34,15
424,894	31,18
425,145	30,75
425,396	27,39
425,648	28,57
425,899	27,2
426,151	27,34
426,402	26,64
426,653	26,04
426,905	24,75
427,156	20,62
427,407	20,87
427,658	21,1
427,91	20,57
428,161	18,6
428,412	19,47
428,663	19,65
428,914	21,16
429,166	21,11
429,417	21,04
429,668	21,83
429,919	19,2
430,17	17,32
430,421	17,59
430,672	21,25
430,923	21,64
431,174	20,84
431,425	19,28
431,676	17,21
431,927	13,99
432,178	16,11
432,429	18,53
432,68	18,72
432,931	22,27
433,182	25,49
433,433	23,26
433,683	22,65
433,934	20,76
434,185	19,05
434,436	17,57
434,687	20,31
434,937	23,76
435,188	21,95
435,439	20,69
435,69	22,21
435,94	21,58
436,191	21,34
436,442	22,19
436,692	19,28
436,943	17,51
437,194	15,49
437,444	17,41
437,695	22,21
437,945	22,09
438,196	20
438,447	17,95
438,697	17,93
438,948	18,38
439,198	16,25
439,449	13,2
439,699	15,5
439,949	15,49
440,2	13,22
440,45	13,82
440,701	12,71
440,951	10,93
441,201	11,71
441,452	12,31
441,702	11,5
441,952	12,7
442,203	13,29
442,453	10,42
442,703	10,26
442,953	11,96
443,204	12,1
443,454	9,25
443,704	11,34
443,954	9,14
444,204	9,03
444,455	11,52
444,705	13,22
444,955	13,22
445,205	12,25
445,455	9,83
445,705	11,73
445,955	12,37
446,205	12,01
446,455	12,47
446,705	12,41
446,955	13,92
447,205	16,3
447,455	17,98
447,705	16,53
447,955	17,09
448,205	18,71
448,454	17,5
448,704	19,65
448,954	19,6
449,204	19,32
449,454	20,22
449,704	19,21
449,953	18,3
450,203	22,22
450,453	20,39
450,703	21,53
450,952	22,08
451,202	24,88
451,452	24,22
451,701	27,32
451,951	31
452,201	30,54
452,45	29,48
452,7	32,14
452,949	32,03
453,199	31,83
453,448	33,45
453,698	35,47
453,947	34,3
454,197	33,52
454,446	33,37
454,696	37,65
454,945	37,46
455,195	35,13
455,444	35,79
455,693	39,73
455,943	37,82
456,192	39,38
456,442	39,28
456,691	38,05
456,94	38,02
457,189	38,53
457,439	41,67
457,688	45,15
457,937	42,46
458,186	44,17
458,436	44,12
458,685	45,14
458,934	44,86
459,183	45,27
459,432	46,15
459,681	46,86
459,93	46,29
460,179	47,52
460,429	46,02
460,678	48,46
460,927	52,43
461,176	51,95
461,425	49,88
461,674	53,12
461,923	53,05
462,172	52,21
462,42	49,92
462,669	51,43
462,918	51,36
463,167	51,66
463,416	48,27
463,665	50,08
463,914	50,62
464,162	49,29
464,411	51,19
464,66	52,89
464,909	49,4
465,158	48,29
465,406	48,3
465,655	51,32
465,904	53,05
466,152	53,92
466,401	53,34
466,65	55,29
466,898	53,67
467,147	50,36
467,395	48,7
467,644	51,18
467,893	49,4
468,141	48,55
468,39	45,56
468,638	42,9
468,887	40,19
469,135	40,28
469,384	40,39
469,632	40,71
469,88	40,94
470,129	43,05
470,377	39,29
470,626	42,16
470,874	43,13
471,122	44,92
471,371	42,91
471,619	41,04
471,867	43,57
472,115	43,23
472,364	41,49
472,612	45,36
472,86	44,6
473,108	43,76
473,356	43,36
473,605	41,86
473,853	38,17
474,101	37,33
474,349	35,31
474,597	37,68
474,845	37,67
475,093	36,28
475,341	33,44
475,589	34,56
475,837	36,65
476,085	38,9
476,333	37,99
476,581	39,45
476,829	39,61
477,077	42,13
477,325	42,53
477,573	44,53
477,821	41,65
478,069	44,42
478,317	43,93
478,564	45,19
478,812	43,24
479,06	41,86
479,308	41,13
479,555	41,83
479,803	41,01
480,051	42,12
480,299	41,88
480,546	41,96
480,794	39,38
481,042	39,91
481,289	40,71
481,537	42,75
481,784	42,6
482,032	45,94
482,28	46,82
482,527	45,55
482,775	45,94
483,022	48,47
483,27	49,59
483,517	52,48
483,765	52,32
484,012	52,97
484,259	52,02
484,507	54,83
484,754	56,08
485,002	56,62
485,249	55,27
485,496	58,64
485,744	58,33
485,991	57,46
486,238	57,24
486,486	61,16
486,733	62,8
486,98	66,58
487,227	64,28
487,474	65,64
487,722	70,27
487,969	68,61
488,216	68,35
488,463	70,33
488,71	69,02
488,957	68,02
489,204	70,09
489,451	71,96
489,699	71,89
489,946	69,01
490,193	69,89
490,44	71,05
490,687	70,18
490,934	69,45
491,18	65,43
491,427	66,35
491,674	69,93
491,921	71,7
492,168	71,96
492,415	68,74
492,662	70,66
492,909	74,15
493,155	74,74
493,402	72,78
493,649	72,88
493,896	74,37
494,142	70,44
494,389	70,45
494,636	69,83
494,883	69,07
495,129	68,3
495,376	64,95
495,623	67,92
495,869	70,36
496,116	71,34
496,362	73,07
496,609	77,74
496,855	81,89
497,102	81,76
497,348	82,41
497,595	84,94
497,841	89,38
498,088	88,56
498,334	91,18
498,581	90,4
498,827	92,57
499,074	94,07
499,32	95,06
499,566	99,27
499,813	99,82
500,059	100,23
500,305	99,97
500,552	100,38
500,798	100,1
501,044	105,41
501,29	105,24
501,537	102,68
501,783	107,54
502,029	111,76
502,275	109,79
502,521	109,54
502,767	111,9
503,013	117,24
503,26	115,47
503,506	114,39
503,752	117,64
503,998	115,9
504,244	116,97
504,49	114,76
504,736	116,72
504,982	116,42
505,228	119,46
505,474	121,34
505,72	123,35
505,966	121,33
506,211	125,23
506,457	127,53
506,703	126,81
506,949	126,45
507,195	124,62
507,441	123,18
507,686	126,5
507,932	127,93
508,178	129,01
508,424	127,48
508,669	127,31
508,915	129,15
509,161	132,93
509,406	134,5
509,652	136,14
509,898	140,31
510,143	141,69
510,389	141,94
510,634	138,17
510,88	142,54
511,125	145,34
511,371	146,52
511,616	149,91
511,862	147,22
512,107	145,73
512,353	149,04
512,598	149,89
512,844	148,71
513,089	147,88
513,335	150,06
513,58	152,16
513,825	154,23
514,071	153,31
514,316	154,33
514,561	155,8
514,806	156,81
515,052	160,05
515,297	160,34
515,542	162,01
515,787	163,64
516,033	167,22
516,278	168,73
516,523	168,65
516,768	169,04
517,013	166,49
517,258	165,65
517,503	167,19
517,748	170,75
517,993	171,41
518,238	172,02
518,483	172,16
518,728	172,4
518,973	171,03
519,218	172,13
519,463	174,6
519,708	175,65
519,953	175,33
520,198	176,79
520,443	179,09
520,688	182,6
520,933	182,17
521,177	182,03
521,422	180,17
521,667	183,92
521,912	183,85
522,157	181,56
522,401	185,58
522,646	184,73
522,891	184,99
523,135	187,07
523,38	188,18
523,625	187,44
523,869	190,1
524,114	192,25
524,358	191,21
524,603	192,57
524,848	191,95
525,092	190,38
525,337	192,03
525,581	194,55
525,826	198,3
526,07	200,06
526,315	202,57
526,559	203,06
526,803	202,52
527,048	205,84
527,292	207,18
527,537	206,64
527,781	207,01
528,025	205,59
528,269	207,32
528,514	208,47
528,758	209,21
529,002	209,96
529,247	213,53
529,491	213,09
529,735	217,55
529,979	215,27
530,223	217,55
530,467	215,1
530,712	213,43
530,956	212,7
531,2	214,37
531,444	211,61
531,688	213,26
531,932	213,6
532,176	214,32
532,42	216,1
532,664	217,73
532,908	216,72
533,152	215,46
533,396	213,19
533,64	210,16
533,884	206,62
534,128	205,95
534,371	207,39
534,615	208,45
534,859	207,16
535,103	206,87
535,347	206,76
535,59	209,64
535,834	205,18
536,078	205,51
536,322	206,58
536,565	210
536,809	206,89
537,053	209,27
537,296	208,06
537,54	208,52
537,784	208,9
538,027	211,79
538,271	210,39
538,514	209,73
538,758	210,58
539,001	209,68
539,245	210,17
539,488	211,63
539,732	213,57
539,975	213,78
540,219	215,98
540,462	216,08
540,706	217,62
540,949	219,34
541,192	221,76
541,436	228,99
541,679	234,51
541,922	235,11
542,166	231,67
542,409	232,82
542,652	232,23
542,895	233,72
543,139	233,87
543,382	239,39
543,625	240,35
543,868	239,86
544,111	238,28
544,354	237,48
544,598	237,87
544,841	237,72
545,084	237,75
545,327	236,12
545,57	236,67
545,813	239,04
546,056	238,73
546,299	237,84
546,542	239,97
546,785	241,92
547,028	242,31
547,271	243,23
547,514	243,32
547,756	240,39
547,999	240,43
548,242	240,88
548,485	238,99
548,728	238,9
548,971	233,14
549,213	232,65
549,456	231,63
549,699	231,33
549,942	231,68
550,184	231,95
550,427	230,65
550,67	231,56
550,912	226,16
551,155	226,57
551,398	227,12
551,64	225,89
551,883	226,17
552,125	224,05
552,368	225,49
552,61	222,57
552,853	225,65
553,095	223,82
553,338	223,12
553,58	223,57
553,823	222,97
554,065	225,83
554,308	222,09
554,55	220,06
554,792	215,48
555,035	213,33
555,277	213,11
555,519	212,97
555,762	210,32
556,004	209,53
556,246	206,69
556,488	208,36
556,731	205,48
556,973	206,43
557,215	206,4
557,457	207,58
557,699	210,31
557,941	208,62
558,183	206,99
558,426	209,33
558,668	205,6
558,91	205,71
559,152	207,13
559,394	206,1
559,636	207,31
559,878	207,49
560,12	206,65
560,362	206,77
560,604	207,55
560,845	206,83
561,087	206,8
561,329	208,44
561,571	204,68
561,813	205,02
562,055	203,88
562,297	206,28
562,538	208,13
562,78	211,26
563,022	210,04
563,264	212,79
563,505	215,09
563,747	215,04
563,989	213,18
564,23	212,89
564,472	212,3
564,714	214,29
564,955	214,94
565,197	211,94
565,438	214,35
565,68	216,56
565,921	215,53
566,163	218,27
566,404	217,55
566,646	220,13
566,887	222,47
567,129	224,67
567,37	224,12
567,612	226,87
567,853	224,47
568,094	226,27
568,336	227,2
568,577	228,2
568,818	229,01
569,06	227,83
569,301	225,66
569,542	228,39
569,783	229,77
570,025	229,53
570,266	228,52
570,507	228,98
570,748	227,71
570,989	227,47
571,23	231,35
571,472	231,5
571,713	231,03
571,954	232,14
572,195	230,91
572,436	232,39
572,677	234,81
572,918	236,25
573,159	234,76
573,4	233,36
573,641	232,31
573,882	231,91
574,123	227,99
574,364	223,7
574,604	224,38
574,845	221,28
575,086	221,67
575,327	221,73
575,568	219,76
575,809	218,66
576,049	215,57
576,29	212,96
576,531	218,28
576,771	221,62
577,012	223,7
577,253	223,26
577,494	221,51
577,734	223,17
577,975	224,22
578,215	222,64
578,456	220,4
578,697	218,74
578,937	220,87
579,178	219,2
579,418	216,61
579,659	215,53
579,899	210,83
580,14	209,43
580,38	207,77
580,62	206,65
580,861	209,55
581,101	209,62
581,342	210,02
581,582	206,31
581,822	207,57
582,063	204,33
582,303	206,32
582,543	205,84
582,783	207,04
583,024	208,92
583,264	211,53
583,504	212,22
583,744	213,21
583,984	209,8
584,224	209,98
584,465	207,17
584,705	206,22
584,945	207,35
585,185	205,2
585,425	206,65
585,665	206,81
585,905	206,73
586,145	206,06
586,385	204,07
586,625	207,08
586,865	205,23
587,105	202,95
587,345	204,51
587,585	205,33
587,824	203,93
588,064	203,81
588,304	201,19
588,544	201,36
588,784	199,05
589,024	202,19
589,263	201,68
589,503	200,16
589,743	201,1
589,982	199,75
590,222	199,32
590,462	196,05
590,701	192,36
590,941	192,94
591,181	191,05
591,42	189,79
591,66	190,65
591,899	193,16
592,139	192,99
592,378	191,71
592,618	189,99
592,857	187,73
593,097	189,14
593,336	188
593,576	187,47
593,815	187,84
594,055	186,87
594,294	188,6
594,533	188,82
594,773	187,33
595,012	187,91
595,251	188,22
595,491	190,14
595,73	191,5
595,969	190,28
596,208	191,35
596,447	193,9
596,687	194,47
596,926	195,44
597,165	192,72
597,404	194,05
597,643	191,49
597,882	190,13
598,121	191,22
598,36	192,23
598,599	194,38
598,838	194,28
599,077	190,55
599,316	190,52
599,555	188,83
599,794	189,28
600,033	192,05
600,272	193,2
600,511	190,31
600,75	191,11
600,989	192,5
601,228	192,16
601,466	190,97
601,705	190,92
601,944	193,26
602,183	196,14
602,422	193,66
602,66	192,68
602,899	191,49
603,138	191,12
603,376	191,58
603,615	192,58
603,854	190,87
604,092	189,87
604,331	190,65
604,569	190,77
604,808	189,35
605,047	191,14
605,285	191,31
605,524	191,33
605,762	187,46
606	187,8
606,239	189,33
606,477	189,92
606,716	184,95
606,954	184,62
607,193	182,37
607,431	177,42
607,669	175,5
607,908	174,1
608,146	175,21
608,384	173,36
608,622	172,56
608,861	172
609,099	170,4
609,337	167,14
609,575	163,43
609,813	165,2
610,052	163,89
610,29	158,16
610,528	155,74
610,766	153,51
611,004	152,91
611,242	151,31
611,48	150,32
611,718	146,11
611,956	145,32
612,194	144,14
612,432	141,97
612,67	141,02
612,908	141,72
613,146	140,56
613,384	137,99
613,621	134,46
613,859	134,73
614,097	132,22
614,335	132,22
614,573	133,53
614,811	133,81
615,048	131,55
615,286	132,84
615,524	132,55
615,761	129,03
615,999	127,09
616,237	125,52
616,474	126,92
616,712	127,21
616,95	125,91
617,187	123,44
617,425	124,82
617,662	125,82
617,9	123,69
618,137	121,19
618,375	118,72
618,612	115,74
618,85	117,79
619,087	121,03
619,325	120,03
619,562	117,46
619,799	115,87
620,037	114,68
620,274	112,27
620,511	113,93
620,749	112,12
620,986	112,5
621,223	107,88
621,461	108,84
621,698	109,6
621,935	108,36
622,172	106,67
622,409	108,46
622,647	107,48
622,884	104,4
623,121	106,99
623,358	106,09
623,595	105,19
623,832	105,49
624,069	105,03
624,306	105,51
624,543	106,17
624,78	106,47
625,017	106,12
625,254	107,97
625,491	110,89
625,728	112,22
625,965	111,67
626,202	110,32
626,438	108,51
626,675	108,51
626,912	110,36
627,149	111,65
627,386	111,6
627,622	111,46
627,859	110,16
628,096	108,24
628,333	106,43
628,569	108,96
628,806	110,09
629,043	107,85
629,279	107,8
629,516	110,37
629,752	106,94
629,989	106,34
630,225	104,27
630,462	104,25
630,699	104,01
630,935	103,78
631,171	100,38
631,408	100,23
631,644	98,98
631,881	96,71
632,117	92,64
632,354	93,44
632,59	92,58
632,826	91,53
633,063	89,29
633,299	90,6
633,535	88,34
633,771	86,81
634,008	87,2
634,244	86,38
634,48	83,91
634,716	84,28
634,953	81,94
635,189	82,33
635,425	84,54
635,661	86,48
635,897	84,32
636,133	83,45
636,369	81,64
636,605	78,17
636,841	76,02
637,077	77,43
637,313	78,25
637,549	79,05
637,785	77,44
638,021	77,65
638,257	76,04
638,493	78,1
638,729	75,7
638,965	78,01
639,2	78,43
639,436	77,95
639,672	77,6
639,908	75,54
640,144	79,1
640,379	81,71
640,615	79,7
640,851	81,13
641,086	83,01
641,322	81,3
641,558	81,36
641,793	81,9
642,029	79,02
642,264	78,57
642,5	78,05
642,736	74,96
642,971	75,78
643,207	74,08
643,442	72,53
643,678	73,08
643,913	75,15
644,148	74,94
644,384	77,19
644,619	75,77
644,855	77,15
645,09	77,37
645,325	76,33
645,561	77,33
645,796	73,81
646,031	76,5
646,266	73,08
646,502	72,03
646,737	74,2
646,972	73,85
647,207	74,07
647,442	70,28
647,678	67,6
647,913	69,63
648,148	69,84
648,383	68,2
648,618	67,63
648,853	69,23
649,088	71,26
649,323	74,62
649,558	74,87
649,793	75,68
650,028	76,25
650,263	71,69
650,498	74,22
650,733	73,48
650,968	71,75
651,202	71,67
651,437	69,25
651,672	64,35
651,907	64,31
652,142	63,67
652,376	64,68
652,611	65,84
652,846	66,74
653,081	67,73
653,315	66,41
653,55	67,56
653,785	67,34
654,019	69,1
654,254	66,26
654,488	66,48
654,723	63,22
654,958	61,9
655,192	60,34
655,427	56,7
655,661	57,16
655,896	60,34
656,13	60,4
656,364	57,1
656,599	55,1
656,833	58,08
657,068	58,77
657,302	58,97
657,536	58,09
657,771	60,25
658,005	60,79
658,239	63,9
658,474	61,82
658,708	62,83
658,942	64,41
659,176	61,84
659,41	58,35
659,645	56,66
659,879	55,71
660,113	52,82
660,347	51,15
660,581	49,49
660,815	48,67
661,049	46,93
661,283	42,61
661,517	42,23
661,751	42,27
661,985	42,16
662,219	43,73
662,453	41,32
662,687	43,08
662,921	39,79
663,155	38,18
663,389	32,2
663,622	29,92
663,856	30,96
664,09	27,02
664,324	25,12
664,558	24,38
664,791	23,32
665,025	20,24
665,259	19,66
665,492	17,17
665,726	20,24
665,96	20,23
666,193	18,59
666,427	20,32
666,661	20,97
666,894	18,38
667,128	17,55
667,361	20,17
667,595	18,62
667,828	18,09
668,062	17,71
668,295	18,3
668,529	19,63
668,762	20,6
668,995	17,72
669,229	21,42
669,462	20,65
669,695	21,27
669,929	18,39
670,162	19,5
670,395	17,98
670,629	18,92
670,862	21,49
671,095	18,77
671,328	20,19
671,561	18,45
671,795	19,5
672,028	21,56
672,261	23,53
672,494	25
672,727	23,63
672,96	23,17
673,193	21,62
673,426	24,11
673,659	24,21
673,892	24,61
674,125	25,31
674,358	25
674,591	23,23
674,824	24,16
675,057	24,36
675,29	22,89
675,523	24,19
675,755	22,65
675,988	24,2
676,221	27,66
676,454	25,97
676,687	26,55
676,919	27,73
677,152	28,79
677,385	27,45
677,617	28,86
677,85	30,08
678,083	29,58
678,315	32,39
678,548	28,88
678,78	28,06
679,013	26,87
679,246	28,11
679,478	27,81
679,711	25,54
679,943	28,74
680,175	26,48
680,408	30,73
680,64	26,93
680,873	27,32
681,105	27,82
681,338	31,23
681,57	29,9
681,802	30,45
682,034	30,07
682,267	32,13
682,499	33,96
682,731	31,11
682,964	30,33
683,196	26,37
683,428	23,75
683,66	22,58
683,892	24,79
684,124	26,98
684,356	30,06
684,589	31,21
684,821	28,53
685,053	28,6
685,285	28,05
685,517	28,67
685,749	30,59
685,981	31,38
686,213	33,7
686,445	32,45
686,676	29,88
686,908	31,74
687,14	29,56
687,372	29,71
687,604	26,89
687,836	28,78
688,068	28,34
688,299	27,23
688,531	24,74
688,763	29,66
688,995	28,33
689,226	31,81
689,458	30,06
689,69	28,46
689,921	29,31
690,153	30,3
690,384	33,16
690,616	33,03
690,848	33,5
691,079	30,19
691,311	26,43
691,542	23,28
691,774	20,73
692,005	24,45
692,237	27,55
692,468	27,3
692,699	26,34
692,931	26,93
693,162	24,88
693,393	23,47
693,625	22,71
693,856	23,57
694,087	23,24
694,319	25,02
694,55	24,86
694,781	24,87
695,012	25,49
695,243	23,79
695,475	23,67
695,706	23,8
695,937	22,72
696,168	21,87
696,399	19,86
696,63	19,21
696,861	19,39
697,092	23,28
697,323	25,5
697,554	25,54
697,785	25,83
698,016	26,51
698,247	26,22
698,478	28,71
698,709	30,75
698,94	33,95
699,171	32,89
699,401	28,96
699,632	28,81
699,863	24,83
700,094	23,58
700,325	27,39
700,555	27,09
700,786	28,64
701,017	28,12
701,247	28,21
701,478	28,51
701,709	28,81
701,939	26,8
702,17	28,04
702,401	31,18
702,631	32,76
702,862	30,63
703,092	28,51
703,323	32,12
703,553	32,98
703,784	33,41
704,014	33,8
704,244	27,09
704,475	26,64
704,705	26,93
704,936	26,5
705,166	25,6
705,396	27,12
705,627	26,8
705,857	26,94
706,087	27,56
706,317	24,19
706,548	21,87
706,778	22,72
707,008	24,17
707,238	25,53
707,468	23,26
707,698	22,36
707,928	20,17
708,158	20,46
708,389	18,45
708,619	16,28
708,849	14,46
709,079	16
709,309	13,41
709,539	10,09
709,768	10,14
709,998	13,36
710,228	11,8
710,458	9,73
710,688	5,86
710,918	5,81
711,148	4,68
711,378	6,94
711,607	5,97
711,837	6,24
712,067	6,86
712,297	6,74
712,526	5,78
712,756	6,63
712,986	2,44
713,215	0,7
713,445	2,02
713,674	3,79
713,904	2,86
714,134	5,74
714,363	4,35
714,593	3,89
714,822	2,79
715,052	2,76
715,281	3,36
715,511	2,65
715,74	2,24
715,969	3,27
716,199	2,05
716,428	2,8
716,657	3,1
716,887	4,39
717,116	0,69
717,345	2,6
717,575	2,85
717,804	5,12
718,033	4,13
718,262	3,74
718,492	4,53
718,721	4,47
718,95	3,93
719,179	1,92
719,408	1,64
719,637	-1,28
719,866	-3,75
720,095	-1,71
720,324	-3,67
720,553	-6,54
720,782	-7,62
721,011	-7,07
721,24	-9,62
721,469	-9,28
721,698	-9,15
721,927	-7,26
722,156	-8,19
722,385	-10,52
722,613	-7,32
722,842	-6,21
723,071	-3,85
723,3	-1,37
723,529	-1,93
723,757	-1,14
723,986	-4,37
724,215	-4,42
724,443	-1,79
724,672	-0,5
724,901	0,25
725,129	1,36
725,358	4,39
725,586	1,4
725,815	1,31
726,043	-1,22
726,272	-1,34
726,5	-0,13
726,729	2,18
726,957	-0,55
727,186	-2,05
727,414	0,21
727,642	1,87
727,871	4,19
728,099	4,11
728,327	5,02
728,556	5,76
728,784	5,79
729,012	3,83
729,241	7,43
729,469	7,89
729,697	4,98
729,925	5,62
730,153	4,05
730,381	1,94
730,61	0,98
730,838	-1,64
731,066	-0,42
731,294	-0,08
731,522	-4,29
731,75	-8,3
731,978	-8,6
732,206	-9,29
732,434	-11,51
732,662	-9,37
732,89	-12,32
733,118	-11,48
733,346	-11,06
733,573	-11,63
733,801	-12,43
734,029	-4,75
734,257	-2,56
734,485	0,65
734,712	2,65
734,94	0,63
735,168	2,36
735,396	1,01
735,623	-0,18
735,851	1,76
736,078	3,82
736,306	3,55
736,534	2,7
736,761	4,83
736,989	1,38
737,216	0,18
737,444	-0,74
737,671	0,69
737,899	6,06
738,126	5,29
738,354	6,04
738,581	6,71
738,809	9,21
739,036	6,78
739,263	7,36
739,491	5,13
739,718	4,75
739,945	10,23
740,173	12,7
740,4	12,4
740,627	10,6
740,854	11,27
741,081	7,42
741,309	6,05
741,536	1,87
741,763	0,55
741,99	1,74
742,217	2,5
742,444	2,14
742,671	3,7
742,898	2,51
743,125	-0,66
743,352	-4,29
743,579	-4,65
743,806	-6,3
744,033	-2,84
744,26	-1,31
744,487	-1,35
744,714	-0,76
744,941	-1,78
745,167	2,49
745,394	0,84
745,621	1,44
745,848	2,09
746,075	5,13
746,301	8,18
746,528	13,08
746,755	11,75
746,981	10,38
747,208	11,07
747,435	13,6
747,661	14
747,888	14,33
748,114	11,68
748,341	13,06
748,567	14,43
748,794	12,15
749,02	11,97
749,247	9,83
749,473	10
749,7	9,81
749,926	9,7
750,152	14,07
750,379	16,17
750,605	17,17
750,831	17,73
751,058	16,28
751,284	14,15
751,51	17,41
751,737	19,35
751,963	17,7
752,189	15,52
752,415	16,98
752,641	16,51
752,867	14,58
753,094	12,86
753,32	11,07
753,546	10,62
753,772	12,7
753,998	12,4
754,224	12,34
754,45	10,83
754,676	11,14
754,902	10,55
755,128	12,82
755,354	12,59
755,579	13,47
755,805	16,25
756,031	15
756,257	14,15
756,483	13,3
756,709	11,52
756,934	11,49
757,16	9,06
757,386	9,45
757,612	7,95
757,837	6,39
758,063	8,7
758,289	12,7
758,514	10,74
758,74	5,65
758,965	3,3
759,191	3,58
759,416	4,42
759,642	4,99
759,868	5,29
760,093	7,29
760,318	6,12
760,544	4,91
760,769	3,51
760,995	3,05
761,22	1,47
761,445	3,42
761,671	5,27
761,896	7,87
762,121	7,86
762,347	7,63
762,572	5,23
762,797	4,43
763,022	4,46
763,248	7,86
763,473	9,39
763,698	8,68
763,923	9,13
764,148	8,46
764,373	6,43
764,598	8,61
764,823	10,62
765,048	7,66
765,273	3,61
765,498	2,91
765,723	4,39
765,948	6,39
766,173	6,12
766,398	5,72
766,623	3,57
766,848	4,23
767,073	2,16
767,298	1,86
767,522	0,58
767,747	1,86
767,972	0
768,197	0,73
768,421	-0,89
768,646	-5,21
768,871	-8,58
769,095	-8,17
769,32	-7
769,545	-7,39
769,769	-6,69
769,994	-4,81
770,218	-7,51
770,443	-6,74
770,667	-6,18
770,892	-6,19
771,116	-7,37
771,341	-4,35
771,565	-5,11
771,79	-3,93
772,014	-4,3
772,238	-4,67
772,463	-2,87
772,687	-2,54
772,911	-3,63
773,136	-6,64
773,36	-5,67
773,584	-3,13
773,808	-6,23
774,033	-6,4
774,257	-6,62
774,481	-6,76
774,705	-7,21
774,929	-6,52
775,153	-5,84
775,377	-4
775,602	-2,32
775,826	-0,48
776,05	0,55
776,274	-0,25
776,498	-0,13
776,722	-0,64
776,945	-1,07
777,169	-1,89
777,393	-2,6
777,617	-2,49
777,841	-1,29
778,065	0,49
778,289	-1,07
778,512	-1,97
778,736	-2,05
778,96	-1,97
779,184	0,81
779,407	-0,83
779,631	-1,13
779,855	-1,67
780,078	0,74
780,302	-1,98
780,526	-5,26
780,749	-3,11
780,973	-0,31
781,196	0,69
781,42	0
781,643	0,13
781,867	1,77
782,09	-2,1
782,314	-3,36
782,537	-3,75
782,76	-4,51
782,984	-3,71
783,207	-5,53
783,431	-5,53
783,654	-6,29
783,877	-7,77
784,1	-9,03
784,324	-10,29
784,547	-11,46
784,77	-15,92
784,993	-17,2
785,216	-17,99
785,44	-17,67
785,663	-20,71
785,886	-18,03
786,109	-18,99
786,332	-18,03
786,555	-17,62
786,778	-14,75
787,001	-14,96
787,224	-12,56
787,447	-11,38
787,67	-9,46
787,893	-10,91
788,116	-10,84
788,339	-9,42
788,561	-10,65
788,784	-15,27
789,007	-16,05
789,23	-18,08
789,453	-18,49
789,675	-19,82
789,898	-22,48
790,121	-23,6
790,344	-23,74
790,566	-23,14
790,789	-22,35
791,012	-19,49
791,234	-16,65
791,457	-11,85
791,679	-11,14
791,902	-10,25
792,124	-10,52
792,347	-11,4
792,569	-10,98
792,792	-14,38
793,014	-12,09
793,237	-10,6
793,459	-9,12
793,681	-10,09
793,904	-10,09
794,126	-12,06
794,348	-11,65
794,571	-11,93
794,793	-12,05
795,015	-10,52
795,237	-11,97
795,46	-9,75
795,682	-7,95
795,904	-3,59
796,126	-4,08
796,348	-3,53
796,57	-0,87
796,792	-0,72
797,014	2,77
797,237	5,07
797,459	7,93
797,681	8,86
797,903	6,48
798,124	6,4
798,346	18,05
798,568	20,69
798,79	24,45
799,012	25,95
799,234	27,7
799,456	29,89
799,678	32,69
799,899	29,7
800,121	25,92
800,343	24,83
800,565	24,89
800,786	24,7
801,008	26,51
801,23	25,47
801,451	25,85
801,673	23,5
801,895	21,85
802,116	24,01
802,338	24,54
802,559	25,82
802,781	22,48
803,002	24,77
803,224	25,59
803,445	23,95
803,667	25,71
803,888	23,9
804,109	24,19
804,331	22,29
804,552	22,35
804,773	24,83
804,995	21,79
805,216	6,46
805,437	4,45
805,658	1,22
805,88	-0,03
806,101	1,18
806,322	0,78
806,543	-0,18
806,764	-1,12
806,985	1,91
807,207	2,32
807,428	1,14
807,649	-2,72
807,87	-5,08
808,091	-3,37
808,312	-2,55
808,533	2,93
808,754	4,61
808,975	2,31
809,195	2,96
809,416	3,22
809,637	2,88
809,858	1,26
810,079	-0,08
810,3	1,5
810,52	0,41
810,741	-1,12
810,962	-3,4
811,183	-4,21
811,403	-4,31
811,624	-6,37
811,845	-3,58
812,065	-1,59
812,286	-0,86
812,506	-1,65
812,727	-0,76
812,948	-1,31
813,168	-0,4
813,389	-1,33
813,609	-0,3
813,83	-1,99
814,05	-3,34
814,27	-1,92
814,491	4,01
814,711	4,32
814,931	0,69
815,152	-0,32
815,372	-3,33
815,592	-4,64
815,813	-4,4
816,033	-5,49
816,253	-4,76
816,473	-4,49
816,694	-2,79
816,914	-0,26
817,134	-0,8
817,354	-1,79
817,574	-0,41
817,794	-0,12
818,014	-0,64
818,234	-1,7
818,454	-2,31
818,674	-5,07
818,894	-8,09
819,114	-5,96
819,334	-6,31
819,554	-3,84
819,774	-0,98
819,994	-3,23
820,214	-4,98
820,433	-4,24
820,653	-3,92
820,873	-1,21
821,093	-1,5
821,312	-5,29
821,532	-2,53
821,752	0,36
821,972	-1,44
822,191	0,85
822,411	-0,08
822,63	0,43
822,85	0,8
823,07	-2,2
823,289	-1,35
823,509	-3,04
823,728	-1,86
823,948	-3,86
824,167	-5,26
824,387	-6,84
824,606	-4,96
824,825	-6,43
825,045	-6,23
825,264	-5,99
825,483	-3,71
825,703	-1,31
825,922	-3,13
826,141	-2,55
826,361	-4,53
826,58	-8,7
826,799	-9,77
827,018	-7,61
827,237	-7,84
827,456	-6,93
827,676	-6,47
827,895	-5,78
828,114	-4,46
828,333	-5,32
828,552	-5,36
828,771	-3,45
828,99	-7,07
829,209	-7,39
829,428	-5,03
829,647	-5,58
829,866	-4,84
830,084	-5,47
830,303	-5,37
830,522	-6,32
830,741	-6,3
830,96	-4,94
831,179	-3
831,397	-5,13
831,616	-4
831,835	-4,46
832,053	-3,5
832,272	-3,36
832,491	-2,79
832,709	-4,71
832,928	-4,2
833,147	-4,18
833,365	-3,07
833,584	-1,16
833,802	0,81
834,021	0,78
834,239	2,55
834,458	-0,84
834,676	-4,25
834,894	-4,34
835,113	-4,57
835,331	-5,2
835,55	-7,14
835,768	-5,72
835,986	-4,01
836,204	-7,06
836,423	-5,2
836,641	-5,99
836,859	-7,02
837,077	-6,92
837,296	-7,95
837,514	-8,31
837,732	-10,14
837,95	-12,25
838,168	-9,27
838,386	-10,76
838,604	-6,91
838,822	-6,14
839,04	-8,43
839,258	-8,75
839,476	-6,02
839,694	-5,36
839,912	-6,55
840,13	-6,77
840,348	-3,58
840,566	-7,66
840,783	-5,49
841,001	-7,52
841,219	-4,8
841,437	-3,06
841,655	-2,22
841,872	-3,29
842,09	-3,05
842,308	-1,57
842,525	-1,75
842,743	-0,48
842,961	-0,96
843,178	-3,26
843,396	0,72
843,613	2,21
843,831	4,44
844,048	4,16
844,266	4,56
844,483	5,59
844,701	5,79
844,918	5,36
845,136	5,53
845,353	2,94
845,57	3,05
845,788	6,24
846,005	5,28
846,222	4,21
846,439	4,55
846,657	5,05
846,874	5,22
847,091	2,41
847,308	4,62
847,526	2,92
847,743	2,19
847,96	-0,34
848,177	-0,34
848,394	-2,49
848,611	-2,72
848,828	-3,15
849,045	-3,43
849,262	-3,8
849,479	-4,75
849,696	-5,49
849,913	-7,06
850,13	-11,31
850,347	-7,51
850,564	-8,73
850,78	-9,36
850,997	-9,84
851,214	-8,78
851,431	-7,49
851,647	-10,42
851,864	-9,19
852,081	-7,78
852,298	-10,88
852,514	-10,6
852,731	-8,94
852,948	-6,89
853,164	-6,44
853,381	-6,45
853,597	-8,01
853,814	-9,68
854,03	-12,64
854,247	-10,91
854,463	-9,8
854,68	-9,8
854,896	-8,22
855,113	-6,11
855,329	-5,39
855,545	-3,58
855,762	-5,97
855,978	-7,99
856,194	-9,92
856,411	-6,5
856,627	-4,91
856,843	-3,2
857,059	-1,11
857,275	-3,77
857,492	-2,45
857,708	1,1
857,924	1,72
858,14	3,83
858,356	2,88
858,572	2,87
858,788	1,45
859,004	3,42
859,22	1,15
859,436	0,08
859,652	-1,77
859,868	-2,39
860,084	-3,19
860,3	-2,25
860,516	-2,82
860,731	-1,23
860,947	-4,11
861,163	-2,74
861,379	-1,8
861,595	-1,33
861,81	0
862,026	1,1
862,242	1,15
862,457	3,32
862,673	4,68
862,889	4,92
863,104	4,31
863,32	4,35
863,535	4,88
863,751	-0,43
863,966	3,49
864,182	4,75
864,397	2,53
864,613	1,23
864,828	-0,79
865,044	0,79
865,259	3,51
865,474	2,75
865,69	3,79
865,905	4,02
866,12	1,61
866,336	1,15
866,551	2,1
866,766	1,33
866,981	0,58
867,196	2,28
867,412	3,49
867,627	4,68
867,842	2,19
868,057	1,9
868,272	0,69
868,487	-1,98
868,702	-4,86
868,917	-5,22
869,132	-5,06
869,347	-3,78
869,562	-3,66
869,777	-3,58
869,992	-4,63
870,207	-6,68
870,422	-7,87
870,636	-10,15
870,851	-11,79
871,066	-12,79
871,281	-13,11
871,495	-14,54
871,71	-12,17
871,925	-16,39
872,14	-16,83
872,354	-19,33
872,569	-20,7
872,783	-17,84
872,998	-17,05
873,213	-18,14
873,427	-14,49
873,642	-13,93
873,856	-14,57
874,071	-16,35
874,285	-18,6
874,5	-17,44
874,714	-19,03
874,928	-19,71
875,143	-19,71
875,357	-18,74
875,571	-19,96
875,786	-19,94
876	-18,04
876,214	-17,85
876,429	-19,71
876,643	-18,75
876,857	-16,93
877,071	-14,97
877,285	-15,26
877,499	-18,46
877,714	-16,41
877,928	-14,88
878,142	-16,21
878,356	-19,19
878,57	-18,53
878,784	-16,96
878,998	-16,67
879,212	-13,55
879,426	-15,79
879,639	-13,69
879,853	-15,16
880,067	-16,96
880,281	-17,7
880,495	-15,68
880,709	-11,87
880,922	-11,1
881,136	-10,54
881,35	-8,41
881,564	-9,06
881,777	-10,73
881,991	-10,13
882,205	-8,15
882,418	-8,3
882,632	-11,2
882,845	-11,11
883,059	-10,92
883,273	-11,28
883,486	-11,23
883,7	-10,1
883,913	-9,95
884,126	-8,36
884,34	-11,51
884,553	-13,12
884,767	-9,35
884,98	-7,94
885,193	-8,66
885,407	-9,73
885,62	-7,99
885,833	-8,69
886,046	-7,41
886,26	-9,5
886,473	-9,62
886,686	-10,61
886,899	-8,33
887,112	-10,29
887,326	-13,49
887,539	-12,32
887,752	-12,45
887,965	-14,56
888,178	-12,72
888,391	-11,22
888,604	-10,92
888,817	-12,21
889,03	-11,1
889,243	-11,28
889,455	-13,39
889,668	-12,03
889,881	-8,74
890,094	-10,51
890,307	-12,23
890,52	-10,46
890,732	-10,16
890,945	-10,76
891,158	-9,92
891,37	-10,46
891,583	-9,98
891,796	-8,09
892,008	-9,44
892,221	-10,74
892,434	-14,88
892,646	-14,57
892,859	-15,72
893,071	-13,8
893,284	-11,58
893,496	-13,23
893,709	-12,94
893,921	-12,06
894,133	-12,12
894,346	-12,73
894,558	-12,99
894,771	-12,71
894,983	-11,09
895,195	-10,14
895,407	-8,62
895,62	-11,76
895,832	-11,25
896,044	-8,51
896,256	-10,15
896,468	-12,97
896,681	-11,28
896,893	-11,47
897,105	-13,14
897,317	-12,52
897,529	-10,48
897,741	-10,6
897,953	-8,51
898,165	-9,96
898,377	-12,36
898,589	-11,62
898,801	-12,02
899,013	-8,14
899,224	-7,13
899,436	-4,17
899,648	-4,94
899,86	-5,67
900,072	-3,78
900,283	-2,45
900,495	-1,29
900,707	-0,27
900,919	-2,27
901,13	-0,21
901,342	-2,59
901,554	-3,9
901,765	-3,96
901,977	-6,99
902,188	-6,69
902,4	-6,7
902,611	-8,96
902,823	-10,02
903,034	-12,21
903,246	-14,07
903,457	-13,83
903,669	-14,19
903,88	-15,01
904,091	-15
904,303	-13,5
904,514	-15,61
904,725	-14,24
904,936	-11,21
905,148	-9,49
905,359	-7,11
905,57	-7,92
905,781	-8,87
905,992	-9,55
906,204	-9,72
906,415	-10,1
906,626	-11,36
906,837	-8,77
907,048	-9,17
907,259	-11,31
907,47	-13,16
907,681	-15,68
907,892	-14,1
908,103	-14,79
908,314	-17,08
908,525	-14,74
908,735	-13,98
908,946	-15,41
909,157	-14,85
909,368	-13,1
909,579	-11,58
909,789	-12,38
910	-13,61
910,211	-11,76
910,421	-10,84
910,632	-9,21
910,843	-11,93
911,053	-8,47
911,264	-6,32
911,475	-8,55
911,685	-9,91
911,896	-10,65
912,106	-9,61
912,317	-11,55
912,527	-10,84
912,737	-11,27
912,948	-10,51
913,158	-10,3
913,369	-13,85
913,579	-12,53
913,789	-10,37
914	-5,27
914,21	-4,36
914,42	-3,25
914,63	-2,73
914,841	-2,04
915,051	-0,4
915,261	0,12
915,471	3,21
915,681	2,44
915,891	3,24
916,101	2,59
916,311	3,17
916,521	4,88
916,731	5,27
916,941	6,64
917,151	4,18
917,361	6,99
917,571	2,73
917,781	0,85
917,991	-0,56
918,201	0,18
918,411	-1,48
918,621	-2,75
918,83	-1,9
919,04	-2,98
919,25	-0,57
919,46	0,77
919,669	-2,15
919,879	-2,38
920,089	-5,27
920,298	-7,91
920,508	-8,3
920,717	-5,93
920,927	-7,39
921,136	-6,61
921,346	-7,94
921,555	-10,54
921,765	-10,14
921,974	-13,01
922,184	-15,86
922,393	-16,05
922,603	-16,34
922,812	-12,87
923,021	-15,55
923,23	-16,92
923,44	-19,59
923,649	-19,08
923,858	-19,63
924,067	-19,69
924,277	-20,77
924,486	-18,62
924,695	-18,22
924,904	-17,3
925,113	-15,89
925,322	-15
925,531	-16,36
925,74	-19,49
925,949	-20,97
926,158	-18,19
926,367	-19,27
926,576	-16,97
926,785	-17,48
926,994	-18,23
927,203	-18,5
927,412	-18,7
927,621	-19,44
927,83	-16,28
928,038	-16,96
928,247	-17,63
928,456	-16,64
928,665	-13,4
928,873	-12,05
929,082	-9,59
929,291	-10,62
929,499	-8,9
929,708	-10,08
929,916	-9,77
930,125	-9,84
930,333	-12,07
930,542	-8,91
930,75	-7,23
930,959	-6,67
931,167	-7,95
931,376	-7,59
931,584	-7,84
931,793	-6,89
932,001	-6,51
932,209	-7,42
932,418	-9,78
932,626	-10,17
932,834	-10,54
933,042	-13,86
933,251	-12,81
933,459	-13,63
933,667	-15,04
933,875	-15,26
934,083	-13,39
934,291	-13,83
934,499	-12,67
934,707	-12,29
934,915	-11,91
935,123	-10,26
935,331	-12,22
935,539	-15,13
935,747	-16,91
935,955	-16,27
936,163	-15,74
936,371	-15,95
936,579	-15,17
936,787	-14,61
936,995	-17,53
937,202	-19,97
937,41	-18,48
937,618	-18,65
937,826	-18,45
938,033	-22,37
938,241	-25,53
938,449	-23,52
938,656	-20,94
938,864	-19,85
939,071	-20,97
939,279	-18,49
939,486	-15,61
939,694	-14,36
939,901	-15,91
940,109	-14,9
940,316	-14,44
940,524	-15,95
940,731	-17,23
940,939	-15,71
941,146	-15,78
941,353	-16,45
941,561	-16,65
941,768	-16,98
941,975	-15,4
942,182	-15,74
942,39	-16,24
942,597	-12,94
942,804	-12,38
943,011	-12,9
943,218	-12,32
943,425	-12,27
943,632	-11,07
943,839	-12,32
944,046	-12,57
944,253	-12,37
944,46	-11,55
944,667	-6,9
944,874	-6,9
945,081	-5,06
945,288	-2,85
945,495	-1,75
945,702	-1,72
945,909	-3,92
946,115	-3,73
946,322	-3,42
946,529	-5,65
946,736	-6,25
946,942	-5,89
947,149	-7,02
947,356	-8,67
947,562	-10,37
947,769	-11,66
947,976	-12,32
948,182	-9,99
948,389	-10,64
948,595	-9,41
948,802	-8,09
949,008	-9,68
949,215	-9,18
949,421	-9,05
949,628	-10,67
949,834	-10,29
950,04	-10,58
950,247	-7,57
950,453	-5,99
950,659	-7,83
950,865	-7,27
951,072	-11,31
951,278	-10,06
951,484	-12,95
951,69	-17,48
951,896	-17,61
952,103	-17,77
952,309	-15,33
952,515	-15,17
952,721	-13,26
952,927	-11,41
953,133	-11,81
953,339	-12,97
953,545	-12,31
953,751	-11,54
953,957	-9,65
954,163	-10,89
954,369	-10,84
954,574	-12,67
954,78	-12,99
954,986	-12,05
955,192	-11,56
955,398	-13,09
955,603	-15,77
955,809	-14,23
956,015	-11,85
956,22	-10,06
956,426	-10,12
956,632	-13,82
956,837	-15,1
957,043	-14,74
957,248	-12,44
957,454	-11,87
957,66	-14,89
957,865	-14,19
958,07	-12,79
958,276	-13,62
958,481	-15,02
958,687	-15,41
958,892	-17,37
959,097	-18,07
959,303	-17,34
959,508	-17,74
959,713	-16,72
959,919	-16,26
960,124	-17,87
960,329	-17,68
960,534	-14,65
960,739	-13,97
960,945	-11,88
961,15	-12,12
961,355	-14,31
961,56	-18,2
961,765	-18,09
961,97	-16,27
962,175	-15,13
962,38	-18,56
962,585	-19
962,79	-20
962,995	-21,44
963,2	-21,98
963,404	-21,97
963,609	-24,05
963,814	-24,41
964,019	-25,58
964,224	-27,51
964,428	-25,07
964,633	-24,54
964,838	-23,07
965,042	-24,87
965,247	-25,65
965,452	-25,4
965,656	-25,1
965,861	-24,7
966,066	-26,18
966,27	-24,66
966,475	-20,5
966,679	-23,72
966,884	-20,63
967,088	-22,62
967,292	-23,37
967,497	-21,08
967,701	-21,78
967,906	-19,66
968,11	-17,32
968,314	-13,53
968,518	-15,93
968,723	-13,28
968,927	-11,99
969,131	-10,59
969,335	-7,7
969,539	-7,34
969,744	-5,34
969,948	-3,21
970,152	-0,9
970,356	0,63
970,56	0,09
970,764	-2,38
970,968	1,29
971,172	0,34
971,376	1,2
971,58	3,62
971,784	2,92
971,988	0,89
972,192	3,29
972,395	3,09
972,599	0,04
972,803	-1,62
973,007	0,05
973,21	-2,3
973,414	-2,41
973,618	-4,32
973,822	-5,4
974,025	-3,37
974,229	-3,74
974,432	-7
974,636	-9,72
974,84	-7,72
975,043	-7,06
975,247	-10,59
975,45	-12,24
975,654	-10,38
975,857	-7,96
976,06	-9,43
976,264	-10,3
976,467	-10,73
976,671	-11,11
976,874	-9,56
977,077	-10,15
977,28	-12,62
977,484	-14,35
977,687	-15,17
977,89	-13,61
978,093	-13,67
978,297	-12,95
978,5	-15,16
978,703	-14,36
978,906	-13,08
979,109	-13,33
979,312	-12,35
979,515	-12,47
979,718	-12,43
979,921	-11,41
980,124	-13,47
980,327	-14,39
980,53	-14,79
980,733	-12,68
980,936	-10,02
981,138	-11,55
981,341	-11,03
981,544	-9,69
981,747	-9,05
981,949	-10,59
982,152	-8,46
982,355	-9,19
982,558	-7,08
982,76	-9,32
982,963	-9,9
983,165	-9,32
983,368	-6,88
983,571	-7,17
983,773	-2,86
983,976	-1,24
984,178	-1,36
984,381	-1,33
984,583	-3,51
984,785	-3,03
984,988	0,4
985,19	2,71
985,392	0,95
985,595	-1,61
985,797	-2,46
985,999	-0,33
986,202	1,85
986,404	2,62
986,606	4,98
986,808	5,35
987,01	7,26
987,212	4,79
987,415	2,91
987,617	3,16
987,819	1,7
988,021	2,73
988,223	1,18
988,425	-2,64
988,627	-3,35
988,829	-7,18
989,031	-5,04
989,232	-5,94
989,434	-3,48
989,636	-4,44
989,838	-4,32
990,04	-4,76
990,242	-7,02
990,443	-9,31
990,645	-6,03
990,847	-2,46
991,048	-3,32
991,25	-6,63
991,452	-8,03
991,653	-8,76
991,855	-8,03
992,057	-7,42
992,258	-6,78
992,46	-7,76
992,661	-6,85
992,863	-8,58
993,064	-8,25
993,265	-11,48
993,467	-13,03
993,668	-11,14
993,87	-11,35
994,071	-11,19
994,272	-11,44
994,473	-10,62
994,675	-9,72
994,876	-7,41
995,077	-6,36
995,278	-6,52
995,48	-5,64
995,681	-8,44
995,882	-6,89
996,083	-8,36
996,284	-11,59
996,485	-11,25
996,686	-12,84
996,887	-14,29
997,088	-17,33
997,289	-18,56
997,49	-18,97
997,691	-18,57
997,892	-18,53
998,092	-14,52
998,293	-16,11
998,494	-16,8
998,695	-17,99
998,896	-16,82
999,096	-16,11
999,297	-15,41
999,498	-16,73
999,698	-16,91
999,899	-18,83
1000,1	-20,77
1000,3	-20,35
1000,501	-21,24
1000,701	-21,61
1000,902	-21,77
1001,102	-21,21
1001,303	-19,48
1001,503	-20,6
1001,704	-19,75
1001,904	-21,03
1002,105	-21,68
1002,305	-20,35
1002,505	-21,29
1002,706	-20,94
1002,906	-20,07
1003,106	-21,11
1003,306	-19,61
1003,507	-16,28
1003,707	-15,99
1003,907	-14,75
1004,107	-13,87
1004,307	-15,72
1004,507	-13,1
1004,707	-13,19
1004,907	-13,23
1005,107	-14,42
1005,308	-15,64
1005,507	-16,17
1005,707	-13,27
1005,907	-14,39
1006,107	-12,21
1006,307	-11,54
1006,507	-11,69
1006,707	-11,61
1006,907	-11,44
1007,106	-12,46
1007,306	-14,06
1007,506	-14,86
1007,706	-15,25
1007,905	-17
1008,105	-16,01
1008,305	-16,93
1008,504	-17,04
1008,704	-11,36
1008,903	-11,55
1009,103	-9,93
1009,303	-12,35
1009,502	-13,23
1009,702	-15,19
1009,901	-15,48
1010,1	-18,33
1010,3	-16,3
1010,499	-18,16
1010,699	-19,79
1010,898	-21,88
1011,097	-22,29
1011,296	-21,11
1011,496	-20,85
1011,695	-21,95
1011,894	-23,78
1012,093	-20,34
1012,293	-19,29
1012,492	-18,75
1012,691	-19,07
1012,89	-17,6
1013,089	-18,99
1013,288	-17,29
1013,487	-16,87
1013,686	-16,52
1013,885	-17,31
1014,084	-15,57
1014,283	-15,48
1014,482	-16,68
1014,681	-17,74
1014,88	-21,04
1015,078	-19,81
1015,277	-21,69
1015,476	-21,66
1015,675	-20,12
1015,873	-19,46
1016,072	-20,03
1016,271	-16,66
1016,47	-20,1
1016,668	-18,08
1016,867	-18,51
1017,065	-19,54
1017,264	-20,65
1017,463	-21,51
1017,661	-22,04
1017,86	-22,21
1018,058	-20,8
1018,256	-22,43
1018,455	-24,47
1018,653	-24,61
1018,852	-23,8
1019,05	-26,93
1019,248	-28,85
1019,447	-31,13
1019,645	-30,8
1019,843	-31,81
1020,041	-31,02
1020,24	-32,41
1020,438	-28,62
1020,636	-28,99
1020,834	-29,41
1021,032	-28,42
1021,23	-29,21
1021,428	-26,9
1021,626	-22,76
1021,824	-23,37
1022,022	-24,1
1022,22	-22,51
1022,418	-22,26
1022,616	-22,71
1022,814	-23,72
1023,012	-24,09
1023,21	-21,97
1023,408	-21,59
1023,606	-22,58
1023,803	-17,53
1024,001	-17,1
1024,199	-21,18
1024,397	-20,5
1024,594	-20,11
1024,792	-21,3
1024,99	-19,89
1025,187	-18,85
1025,385	-13,28
1025,582	-12,59
1025,78	-12,91
1025,977	-11,47
1026,175	-11,46
1026,372	-10,66
1026,57	-13,75
1026,767	-11,77
1026,965	-12,25
1027,162	-10,96
1027,359	-11,08
1027,557	-10,96
1027,754	-15,01
1027,951	-14,91
1028,148	-12,83
1028,346	-13,69
1028,543	-16,45
1028,74	-16,41
1028,937	-17,3
1029,134	-16,74
1029,331	-17,1
1029,528	-16,64
1029,725	-16,48
1029,923	-19,95
1030,12	-16,34
1030,317	-13,26
1030,513	-11,21
1030,71	-10,48
1030,907	-7,27
1031,104	-8,84
1031,301	-9,27
1031,498	-9,56
1031,695	-10,13
1031,892	-10,31
1032,088	-11,35
1032,285	-11,79
1032,482	-13,43
1032,678	-15,84
1032,875	-18,03
1033,072	-16,94
1033,268	-17,97
1033,465	-17,19
1033,662	-20,28
1033,858	-19,37
1034,055	-18,88
1034,251	-16,9
1034,448	-17,48
1034,644	-16,86
1034,84	-14,65
1035,037	-13,71
1035,233	-14,11
1035,43	-12,52
1035,626	-13,31
1035,822	-12,72
1036,019	-13,28
1036,215	-17,25
1036,411	-17,56
1036,607	-20,44
1036,803	-23,43
1037	-25,3
1037,196	-26,07
1037,392	-25,91
1037,588	-28,77
1037,784	-27,59
1037,98	-29,85
1038,176	-29,22
1038,372	-29,37
1038,568	-27,2
1038,764	-25,24
1038,96	-21,59
1039,156	-22,63
1039,352	-25
1039,547	-23,73
1039,743	-22,94
1039,939	-19,85
1040,135	-21,6
1040,331	-24,28
1040,526	-22,35
1040,722	-23,23
1040,918	-24,32
1041,113	-26,57
1041,309	-26,75
1041,505	-30,47
1041,7	-29,36
1041,896	-29,14
1042,091	-29,31
1042,287	-28,16
1042,482	-27,81
1042,678	-27,23
1042,873	-25,32
1043,069	-26,29
1043,264	-25,69
1043,459	-24,88
1043,655	-24,11
1043,85	-24,76
1044,045	-21,68
1044,24	-23,04
1044,436	-21,64
1044,631	-22,73
1044,826	-22,99
1045,021	-26,33
1045,216	-24,6
