Data from led_4000k_2_FLMT021711__14__17-34-15-525.txt Node

Date: Tue Nov 05 17:34:15 CET 2024
User: Etudiants TP
Spectrometer: FLMT02171
Trigger mode: 0
Integration Time (sec): 1.000000E-1
Scans to average: 5
Electric dark correction enabled: true
Nonlinearity correction enabled: true
Boxcar width: 15
XAxis mode: Wavelengths
Number of Pixels in Spectrum: 3648
>>>>>Begin Spectral Data<<<<<
194.658	-65.31
194.923	-63.82
195.188	-55.26
195.453	-56.5
195.717	-51.05
195.982	-49.24
196.247	-47.43
196.512	-50.83
196.777	-49.44
197.042	-48
197.307	-48.53
197.572	-43.6
197.837	-44.23
198.101	-41.13
198.366	-37.7
198.631	-35.93
198.896	-29.38
199.161	-23.45
199.425	-16.3
199.69	-5.57
199.955	-3.81
200.22	-7.05
200.484	-7.99
200.749	-8.7
201.014	-6.17
201.278	-5.73
201.543	-5.34
201.807	-5.79
202.072	-4.18
202.337	-4.1
202.601	-5.27
202.866	-7.76
203.13	-4.8
203.395	-7.83
203.659	-6.85
203.924	-9.07
204.189	-7.63
204.453	-5.92
204.717	-2.39
204.982	-1.43
205.246	1.43
205.511	3.42
205.775	2.42
206.04	8.09
206.304	7.98
206.568	9.83
206.833	10.29
207.097	10.64
207.361	13.47
207.626	16.52
207.89	17.62
208.154	17.7
208.419	18.83
208.683	19.04
208.947	21.36
209.211	20.61
209.476	20.44
209.74	20.14
210.004	20.24
210.268	20.52
210.532	23.28
210.796	25.32
211.061	25.75
211.325	25.78
211.589	24.01
211.853	26.61
212.117	26.63
212.381	25.91
212.645	25.57
212.909	24.93
213.173	22.78
213.437	21.95
213.701	22.44
213.965	22.5
214.229	18.03
214.493	17.56
214.757	15.55
215.021	15
215.285	18.21
215.549	19.58
215.813	17.66
216.077	16.59
216.34	18.77
216.604	18.86
216.868	19.19
217.132	19.63
217.396	18.46
217.659	18.81
217.923	16.26
218.187	16.25
218.451	15.79
218.714	13.91
218.978	13.84
219.242	16.29
219.505	14.62
219.769	17.5
220.033	17.35
220.296	20.28
220.56	21.05
220.824	18.73
221.087	20.37
221.351	19.73
221.614	18.91
221.878	21.04
222.142	20.83
222.405	21.19
222.669	23.69
222.932	19.61
223.196	18.77
223.459	15.27
223.722	16.8
223.986	15.06
224.249	13.26
224.513	12.53
224.776	10.6
225.04	11.31
225.303	10.79
225.566	10.97
225.83	12.41
226.093	15.02
226.356	12.45
226.62	10.67
226.883	13.22
227.146	12.83
227.409	12.69
227.673	11.09
227.936	8.84
228.199	7.45
228.462	4.84
228.725	3.14
228.989	3.03
229.252	3.42
229.515	9.49
229.778	9.26
230.041	7.74
230.304	4.7
230.567	5.45
230.83	2.47
231.093	5.29
231.356	3.6
231.619	12.17
231.882	9.79
232.145	12.48
232.408	11.71
232.671	11.06
232.934	13.58
233.197	11.34
233.46	10.12
233.723	11.59
233.986	9.14
234.249	7.59
234.512	10.39
234.775	13.8
235.037	11.36
235.3	12.24
235.563	12.64
235.826	14.7
236.089	17.89
236.351	17.93
236.614	19.95
236.877	21.79
237.14	25.09
237.402	24.78
237.665	18.81
237.928	17.55
238.19	15.28
238.453	18.82
238.716	17.95
238.978	18.22
239.241	18.04
239.503	21.69
239.766	14.4
240.029	12.49
240.291	15.19
240.554	15.69
240.816	15.51
241.079	14.24
241.341	14.66
241.604	14.92
241.866	10.94
242.129	12.43
242.391	13.75
242.653	12.93
242.916	12.86
243.178	11.99
243.441	12.62
243.703	10.79
243.965	9.26
244.228	9.49
244.49	9.23
244.752	8.99
245.015	9.21
245.277	9.58
245.539	8.25
245.801	10.05
246.064	10.15
246.326	9.37
246.588	8.72
246.85	11.49
247.112	12.08
247.374	13.63
247.637	15.15
247.899	15.48
248.161	16.68
248.423	12.46
248.685	13.92
248.947	12.73
249.209	13.35
249.471	14.46
249.733	14.33
249.995	14.48
250.257	13.88
250.519	12.77
250.781	15.93
251.043	12.95
251.305	15.79
251.567	16.73
251.829	18.16
252.091	17.37
252.353	13.58
252.615	14.08
252.876	13.13
253.138	10.26
253.4	6.97
253.662	8.16
253.924	10.35
254.185	11.89
254.447	11.99
254.709	12.14
254.971	12.98
255.232	15.36
255.494	13
255.756	11.9
256.017	12.78
256.279	12.86
256.541	13.23
256.802	11.25
257.064	13.84
257.326	12.31
257.587	12.68
257.849	14.62
258.11	16.32
258.372	17.7
258.633	18.62
258.895	16.68
259.156	17.19
259.418	15.28
259.679	11.12
259.941	8.71
260.202	12.03
260.464	13.78
260.725	13.01
260.987	12.37
261.248	12.77
261.509	14.21
261.771	13.23
262.032	14.36
262.293	14.3
262.555	14.41
262.816	12.44
263.077	10.17
263.338	7.56
263.6	8.2
263.861	7.04
264.122	5.27
264.383	9.11
264.645	9.79
264.906	9.29
265.167	8.31
265.428	7.89
265.689	8.75
265.95	5.74
266.211	6.58
266.473	5.38
266.734	2.55
266.995	-0.74
267.256	-0.81
267.517	1.85
267.778	6.57
268.039	8.2
268.3	6.98
268.561	4.55
268.822	8.15
269.083	5.76
269.344	4.29
269.604	3.1
269.865	3.65
270.126	-0.45
270.387	0.45
270.648	2.05
270.909	1.78
271.17	-0.1
271.43	-2.52
271.691	-4.08
271.952	-4.97
272.213	-2.15
272.473	-6.85
272.734	-4.78
272.995	-1.62
273.256	-1.33
273.516	1.52
273.777	-1.64
274.038	1.85
274.298	0.51
274.559	0.54
274.82	4.95
275.08	8.53
275.341	10.79
275.601	9.72
275.862	6.58
276.122	6.9
276.383	5.77
276.643	7.54
276.904	4.76
277.164	8.31
277.425	8.79
277.685	11.78
277.946	13.27
278.206	13.8
278.467	14.31
278.727	14.68
278.987	14.19
279.248	15.29
279.508	17.41
279.768	19.39
280.029	20.71
280.289	17.5
280.549	16.83
280.81	16.03
281.07	13.93
281.33	15.91
281.59	15.35
281.851	18.3
282.111	16.61
282.371	15.59
282.631	17.37
282.891	14.97
283.151	12.02
283.412	9.6
283.672	8.75
283.932	9.72
284.192	11.68
284.452	10.15
284.712	8.71
284.972	9.16
285.232	7.44
285.492	10.39
285.752	9.04
286.012	13.34
286.272	15.99
286.532	13.71
286.792	14.32
287.052	16.16
287.312	17.47
287.571	15.44
287.831	15.62
288.091	12.52
288.351	12.97
288.611	17.02
288.871	15.32
289.13	15.37
289.39	11.44
289.65	12.93
289.91	10.59
290.17	13.53
290.429	16.24
290.689	13.36
290.949	9.78
291.208	12.35
291.468	14.76
291.728	15.05
291.987	16.34
292.247	13.15
292.506	17.42
292.766	19.55
293.026	17.33
293.285	18.32
293.545	20.43
293.804	19.67
294.064	16.32
294.323	12.96
294.583	12.23
294.842	11.03
295.102	11.95
295.361	11.58
295.621	12.94
295.88	13.37
296.139	13.13
296.399	13.36
296.658	8.28
296.917	8.71
297.177	5.95
297.436	8.25
297.695	5.99
297.955	7.1
298.214	5.3
298.473	6.34
298.732	10.25
298.992	14.75
299.251	13.5
299.51	9.65
299.769	11.71
300.028	10.56
300.287	11.95
300.547	10.33
300.806	9.42
301.065	12.76
301.324	14.86
301.583	11.34
301.842	8.55
302.101	6.86
302.36	8.81
302.619	9.45
302.878	10.78
303.137	8.77
303.396	9.07
303.655	10.84
303.914	8.93
304.173	9.52
304.432	9.55
304.691	12.77
304.95	11.06
305.208	15.21
305.467	15.25
305.726	13.85
305.985	15.76
306.244	17.12
306.503	17.77
306.761	15.47
307.02	11.6
307.279	12.51
307.537	13.94
307.796	9.13
308.055	7.34
308.314	7.72
308.572	5.81
308.831	6.43
309.09	6.48
309.348	6.73
309.607	6.98
309.865	11.2
310.124	9.92
310.382	10.98
310.641	11.66
310.9	9.98
311.158	10.56
311.417	10.71
311.675	10.97
311.933	10.77
312.192	12.01
312.45	12.42
312.709	12.86
312.967	11.43
313.226	13.18
313.484	11.12
313.742	10.6
314.001	8.37
314.259	5.14
314.517	5.68
314.776	7.71
315.034	11.63
315.292	9.19
315.55	8.06
315.809	9.05
316.067	9.98
316.325	9.08
316.583	10.86
316.841	9.71
317.1	8.09
317.358	5.37
317.616	5.01
317.874	2.49
318.132	0.94
318.39	0.56
318.648	0.73
318.906	0.51
319.164	-0.39
319.422	-1.16
319.68	-3.87
319.938	-3.03
320.196	-2.68
320.454	-1.87
320.712	-2.49
320.97	-0.09
321.228	-3.86
321.486	-0.67
321.744	0.77
322.002	3.25
322.26	2.6
322.517	1.68
322.775	-1.74
323.033	-3.6
323.291	-0.77
323.549	2.31
323.806	3.4
324.064	3.1
324.322	3.51
324.58	1.42
324.837	3.3
325.095	1.84
325.353	1.79
325.61	3.05
325.868	3.24
326.126	7.48
326.383	5.85
326.641	4.39
326.898	5.52
327.156	5.38
327.413	5.75
327.671	6.64
327.928	8.76
328.186	10.11
328.443	7.9
328.701	11.09
328.958	11.42
329.216	12.18
329.473	9.68
329.731	10.25
329.988	9.64
330.245	13.29
330.503	14.25
330.76	15.81
331.017	18.2
331.275	16.02
331.532	14.76
331.789	12.46
332.047	12.11
332.304	9.44
332.561	10.55
332.818	9.22
333.076	11.67
333.333	13.65
333.59	14.54
333.847	16.03
334.104	14.71
334.361	14.38
334.618	13.4
334.876	11.35
335.133	11.56
335.39	9.28
335.647	11.86
335.904	8.46
336.161	5.57
336.418	7.32
336.675	2.65
336.932	3.45
337.189	2.76
337.446	4.6
337.703	3.65
337.96	-1.16
338.216	-3
338.473	-6.32
338.73	-6.7
338.987	-7.8
339.244	-5.54
339.501	-7.21
339.757	-4.45
340.014	-2.94
340.271	-1.88
340.528	-0.5
340.785	4.69
341.041	3.95
341.298	2.17
341.555	1.26
341.811	0.61
342.068	-2.04
342.325	-1.93
342.581	1.28
342.838	1.69
343.094	1.77
343.351	1.9
343.608	-1.73
343.864	-1.15
344.121	0.92
344.377	0.17
344.634	-1.06
344.89	-2.83
345.147	-3.36
345.403	-4.4
345.66	-4.59
345.916	-1.43
346.172	-2.17
346.429	-2.41
346.685	-3.85
346.942	-3.49
347.198	-6.69
347.454	-5.75
347.711	-6.41
347.967	-9.37
348.223	-8.08
348.48	-8.55
348.736	-6.58
348.992	-7.39
349.248	-5.86
349.504	-6.1
349.761	-5.52
350.017	-4.49
350.273	-4.63
350.529	-5.49
350.785	-3.97
351.041	-3.63
351.297	-2.41
351.554	-4.16
351.81	-5.82
352.066	-6.99
352.322	-6.75
352.578	-4.24
352.834	-4.36
353.09	-4.04
353.346	-5.34
353.602	-6.69
353.858	-7.84
354.114	-9.29
354.369	-8.27
354.625	-6.46
354.881	-8.99
355.137	-6.03
355.393	-5.36
355.649	-5.37
355.905	-5.15
356.16	-5.57
356.416	-4.92
356.672	-12.83
356.928	-11.59
357.183	-12.91
357.439	-13.65
357.695	-16.11
357.951	-12.01
358.206	-13.41
358.462	-14.67
358.718	-17.19
358.973	-16.95
359.229	-17.66
359.484	-17.35
359.74	-13.58
359.996	-14.07
360.251	-11.42
360.507	-12.38
360.762	-13.16
361.018	-10.75
361.273	-11.91
361.529	-9.44
361.784	-9.19
362.04	-7.17
362.295	-8.31
362.55	-7.88
362.806	-4.11
363.061	-3.79
363.316	-4.01
363.572	-2.44
363.827	-0.41
364.082	-2.32
364.338	-2.81
364.593	-2.51
364.848	-1.79
365.104	-3.13
365.359	0.33
365.614	1.59
365.869	-0.83
366.124	1.1
366.38	-0.27
366.635	2.61
366.89	3.47
367.145	4.17
367.4	9
367.655	9.22
367.91	9.31
368.165	8.17
368.42	5.96
368.675	9.12
368.93	9.86
369.185	8.61
369.44	8.64
369.695	11.19
369.95	9.36
370.205	9.44
370.46	9.87
370.715	9.34
370.97	9.72
371.225	8.94
371.48	9.09
371.734	10.25
371.989	10.85
372.244	10.57
372.499	13.81
372.754	12.3
373.008	11.99
373.263	6.99
373.518	9.86
373.773	7.69
374.027	7.3
374.282	10.46
374.537	10.66
374.791	12.12
375.046	11.34
375.301	9.81
375.555	7.8
375.81	9.9
376.064	9.73
376.319	13.04
376.573	10.05
376.828	5.96
377.082	10.37
377.337	7.16
377.591	4.54
377.846	7.05
378.1	9.52
378.355	8.54
378.609	7.21
378.863	4.46
379.118	6.39
379.372	6.5
379.627	4.4
379.881	3.9
380.135	3.79
380.389	2.71
380.644	3.9
380.898	3.01
381.152	3.74
381.407	2.01
381.661	4.72
381.915	4.47
382.169	3.75
382.423	3.16
382.677	0.14
382.932	0.15
383.186	1.51
383.44	2.29
383.694	3.32
383.948	1.59
384.202	0.48
384.456	2.88
384.71	3.79
384.964	1.37
385.218	3.98
385.472	5.39
385.726	2.62
385.98	3.05
386.234	2.61
386.488	0.1
386.742	0.84
386.996	-1.26
387.249	-2.48
387.503	-0.71
387.757	1.16
388.011	3.03
388.265	3.62
388.518	5.05
388.772	7.59
389.026	9.11
389.28	7.76
389.533	5.42
389.787	7.89
390.041	7.3
390.295	6.75
390.548	7.45
390.802	11.11
391.055	9.16
391.309	8.25
391.563	6.97
391.816	7.01
392.07	6.86
392.323	7.29
392.577	9.89
392.83	11.2
393.084	16.25
393.337	18.44
393.591	20.71
393.844	20.2
394.098	23.68
394.351	27.29
394.604	29.69
394.858	31.28
395.111	32.72
395.364	30.67
395.618	31.19
395.871	28.38
396.124	26.94
396.378	24.96
396.631	24.15
396.884	22.97
397.137	22.61
397.391	24.3
397.644	21.69
397.897	22.41
398.15	24.08
398.403	26.46
398.657	24.94
398.91	23.87
399.163	25.6
399.416	24.38
399.669	23.5
399.922	22.32
400.175	20.03
400.428	18.05
400.681	18.2
400.934	13.28
401.187	12.8
401.44	13.86
401.693	11.69
401.946	9.21
402.199	6.05
402.452	4.05
402.704	0.28
402.957	-0.41
403.21	0.63
403.463	0.11
403.716	1.44
403.969	2.39
404.221	1.58
404.474	4.64
404.727	7.75
404.98	9.08
405.232	9.96
405.485	11.08
405.738	12.09
405.99	12.02
406.243	12.96
406.496	15.84
406.748	16.02
407.001	14.37
407.253	14.31
407.506	14.77
407.759	15.82
408.011	14.29
408.264	14.56
408.516	15.11
408.769	13.52
409.021	15.38
409.274	14.98
409.526	17.96
409.778	16.5
410.031	18.74
410.283	18.24
410.536	25.24
410.788	22.8
411.04	22.47
411.293	24.6
411.545	24.53
411.797	24.21
412.049	23.45
412.302	23.61
412.554	24.42
412.806	23.61
413.058	20.79
413.311	21.92
413.563	20.37
413.815	18.29
414.067	14.84
414.319	13.18
414.571	14.37
414.823	12.47
415.075	13.66
415.328	13.18
415.58	16.7
415.832	18.8
416.084	20.11
416.336	18.62
416.588	23.21
416.84	19.55
417.091	21.59
417.343	18.36
417.595	20.92
417.847	21.59
418.099	24.25
418.351	22.06
418.603	25.11
418.855	26.43
419.106	25.92
419.358	25.67
419.61	25.04
419.862	27.31
420.114	24.48
420.365	23.02
420.617	24.32
420.869	23.6
421.12	22.27
421.372	24.46
421.624	25.11
421.875	25.41
422.127	21.09
422.379	21.17
422.63	25.01
422.882	22.68
423.133	24.61
423.385	23.7
423.636	24.37
423.888	25.74
424.139	28.63
424.391	24.37
424.642	22.68
424.894	21.76
425.145	20.86
425.396	17.32
425.648	18.6
425.899	15.99
426.151	16.35
426.402	15.98
426.653	15.02
426.905	14.31
427.156	13.05
427.407	12.99
427.658	12.85
427.91	11.92
428.161	11.66
428.412	12.11
428.663	13.78
428.914	14.95
429.166	15.19
429.417	15.99
429.668	14.7
429.919	13.15
430.17	12.23
430.421	12.37
430.672	16
430.923	15.84
431.174	14.88
431.425	14.62
431.676	14.06
431.927	10.23
432.178	13.71
432.429	14.77
432.68	12.89
432.931	17.1
433.182	21.06
433.433	19.65
433.683	21.61
433.934	21.2
434.185	18.74
434.436	18.64
434.687	19.77
434.937	22.67
435.188	22.72
435.439	21.57
435.69	23.6
435.94	22.94
436.191	24.76
436.442	24.46
436.692	24.13
436.943	21.19
437.194	19.72
437.444	22.41
437.695	27.97
437.945	29.99
438.196	28.84
438.447	28.59
438.697	29
438.948	27.16
439.198	25.41
439.449	21.46
439.699	23.13
439.949	22.81
440.2	22.04
440.45	25.04
440.701	23.83
440.951	23.4
441.201	24.6
441.452	22.76
441.702	21.43
441.952	24.52
442.203	25.19
442.453	22.86
442.703	22.82
442.953	23.94
443.204	26.24
443.454	24.16
443.704	25.41
443.954	22.73
444.204	23.7
444.455	25.08
444.705	27.6
444.955	28.33
445.205	28.14
445.455	26.49
445.705	26.22
445.955	27.14
446.205	27.05
446.455	28.4
446.705	30.64
446.955	32.3
447.205	35.43
447.455	37.59
447.705	34.92
447.955	36.11
448.205	36.76
448.454	35.98
448.704	38.38
448.954	37.14
449.204	38.38
449.454	39.78
449.704	37.32
449.953	37.75
450.203	41.06
450.453	39.75
450.703	41.66
450.952	40.15
451.202	43.11
451.452	42.79
451.701	45.06
451.951	48.84
452.201	49.71
452.45	49.07
452.7	51.39
452.949	51.74
453.199	51.43
453.448	54.36
453.698	54.85
453.947	52.75
454.197	51.29
454.446	50.59
454.696	53.59
454.945	53.41
455.195	51.87
455.444	54.97
455.693	58.61
455.943	56.59
456.192	58.09
456.442	56.39
456.691	57.93
456.94	57.51
457.189	56.74
457.439	60.57
457.688	62.3
457.937	60.21
458.186	61.19
458.436	59.64
458.685	59.92
458.934	58.59
459.183	58.96
459.432	61.42
459.681	60.6
459.93	57.69
460.179	58.34
460.429	55.95
460.678	59.38
460.927	61.43
461.176	59.02
461.425	58.51
461.674	62.21
461.923	61.82
462.172	59.83
462.42	58.25
462.669	59.66
462.918	59.92
463.167	58.18
463.416	55.36
463.665	56.24
463.914	56.75
464.162	55.88
464.411	55.72
464.66	57.97
464.909	54.85
465.158	52.96
465.406	52.93
465.655	55.07
465.904	56.4
466.152	57.35
466.401	58.07
466.65	59.88
466.898	57.11
467.147	52.9
467.395	52.68
467.644	55.34
467.893	55.09
468.141	56.36
468.39	51.76
468.638	50.53
468.887	48.77
469.135	47.34
469.384	45.09
469.632	46.03
469.88	46.82
470.129	48.88
470.377	45.59
470.626	47.05
470.874	48.46
471.122	48.69
471.371	46.88
471.619	46.37
471.867	48.09
472.115	48.04
472.364	45.75
472.612	50.96
472.86	49.92
473.108	48.69
473.356	48.97
473.605	48.7
473.853	45.6
474.101	43.48
474.349	41.21
474.597	43.78
474.845	43.17
475.093	41.61
475.341	38.98
475.589	38.38
475.837	38.29
476.085	39.91
476.333	38.18
476.581	40.28
476.829	40.76
477.077	42.72
477.325	43.75
477.573	45.41
477.821	42.84
478.069	44.89
478.317	44.49
478.564	47.96
478.812	46.41
479.06	45.59
479.308	43.26
479.555	44.3
479.803	41.09
480.051	41.74
480.299	40.47
480.546	42.47
480.794	40.94
481.042	39.67
481.289	38.56
481.537	40.92
481.784	41.06
482.032	45.37
482.28	44.46
482.527	44.04
482.775	44.1
483.022	46.32
483.27	47.36
483.517	50.14
483.765	49.31
484.012	48.62
484.259	46.2
484.507	47.4
484.754	48.37
485.002	44.6
485.249	44.41
485.496	47.39
485.744	45.85
485.991	45.66
486.238	42.56
486.486	45.78
486.733	47.24
486.98	50.07
487.227	47.66
487.474	50.49
487.722	53.03
487.969	50.64
488.216	48.82
488.463	49.57
488.71	49.36
488.957	48.45
489.204	47.9
489.451	49.66
489.699	47.59
489.946	45.74
490.193	45.37
490.44	45.75
490.687	45.95
490.934	44.24
491.18	40.77
491.427	43.41
491.674	46.09
491.921	46.64
492.168	46.17
492.415	43.21
492.662	46.63
492.909	47.93
493.155	45.53
493.402	43.38
493.649	40.94
493.896	41.54
494.142	36.85
494.389	36.68
494.636	35.33
494.883	32.95
495.129	31.96
495.376	29.29
495.623	31.74
495.869	34.42
496.116	35.33
496.362	36.72
496.609	40.25
496.855	46.62
497.102	46.34
497.348	45.9
497.595	47.12
497.841	51.56
498.088	50.47
498.334	49.67
498.581	48.67
498.827	48.32
499.074	47.22
499.32	48.81
499.566	50.52
499.813	51.44
500.059	49.78
500.305	49.73
500.552	49.09
500.798	47.63
501.044	52.55
501.29	52.39
501.537	49.94
501.783	53.36
502.029	54.74
502.275	52.59
502.521	52.8
502.767	53.39
503.013	57.73
503.26	55.7
503.506	51.63
503.752	51.97
503.998	49.28
504.244	49.02
504.49	43.78
504.736	46.13
504.982	45.05
505.228	47.44
505.474	47.27
505.72	48.22
505.966	46.89
506.211	49.88
506.457	51.06
506.703	50.06
506.949	48.91
507.195	48.96
507.441	45.34
507.686	49.22
507.932	48.37
508.178	50.05
508.424	49.78
508.669	48.97
508.915	50.37
509.161	53
509.406	54.8
509.652	54.91
509.898	59.81
510.143	60.31
510.389	60.24
510.634	55.93
510.88	59.34
511.125	63.37
511.371	65.47
511.616	68.34
511.862	64.34
512.107	63.13
512.353	63.06
512.598	63.06
512.844	59.9
513.089	56.97
513.335	57.71
513.58	58.39
513.825	57.86
514.071	56.82
514.316	56.35
514.561	55.93
514.806	53.86
515.052	57.04
515.297	56.3
515.542	58.94
515.787	57.87
516.033	59.64
516.278	58.74
516.523	57.81
516.768	56.67
517.013	53.28
517.258	51.5
517.503	49.7
517.748	50.23
517.993	49.37
518.238	49.17
518.483	47.05
518.728	44.78
518.973	41.81
519.218	40.8
519.463	43.09
519.708	41.82
519.953	40.09
520.198	39.78
520.443	42.69
520.688	46.6
520.933	45.64
521.177	46.51
521.422	46.49
521.667	50.5
521.912	50.26
522.157	47.19
522.401	50.16
522.646	50.11
522.891	50.31
523.135	50.04
523.38	51.25
523.625	50.65
523.869	53.57
524.114	55.54
524.358	54
524.603	53.47
524.848	52.47
525.092	51.05
525.337	52.4
525.581	54.15
525.826	57.53
526.07	58.24
526.315	60.12
526.559	60.06
526.803	57.32
527.048	60.13
527.292	60.97
527.537	61.26
527.781	62.29
528.025	59.77
528.269	59.66
528.514	59.97
528.758	58.02
529.002	57.43
529.247	59.77
529.491	58.98
529.735	64.17
529.979	65.02
530.223	65.76
530.467	63.24
530.712	61.19
530.956	59.12
531.2	58.83
531.444	55.54
531.688	56.36
531.932	56.85
532.176	59.41
532.42	59.7
532.664	61.13
532.908	60.16
533.152	58.29
533.396	56.91
533.64	54.97
533.884	52.85
534.128	53.5
534.371	55.63
534.615	56.92
534.859	57.16
535.103	56
535.347	55.71
535.59	57.93
535.834	54.87
536.078	56.88
536.322	58.99
536.565	61.23
536.809	59.28
537.053	60.93
537.296	59.72
537.54	58.64
537.784	57.85
538.027	59.48
538.271	59.58
538.514	59.18
538.758	60.53
539.001	61.13
539.245	60.54
539.488	60.23
539.732	61.3
539.975	62.95
540.219	63.74
540.462	63.39
540.706	65.78
540.949	64.67
541.192	66.12
541.436	71.08
541.679	74.93
541.922	75.39
542.166	70.35
542.409	70.04
542.652	71.04
542.895	73.13
543.139	73.36
543.382	78.57
543.625	77.08
543.868	77.42
544.111	76.12
544.354	73.75
544.598	72.71
544.841	72.85
545.084	72.99
545.327	72.85
545.57	73.69
545.813	75.22
546.056	75.47
546.299	75.17
546.542	76.39
546.785	79.16
547.028	80.72
547.271	80.18
547.514	80.42
547.756	78.64
547.999	80.76
548.242	81.36
548.485	79.82
548.728	80.31
548.971	76.25
549.213	76.1
549.456	74.86
549.699	75.72
549.942	76.26
550.184	75.15
550.427	74
550.67	73.45
550.912	68.05
551.155	71.01
551.398	69.92
551.64	69.96
551.883	70.48
552.125	69.9
552.368	68.48
552.61	65.4
552.853	67.7
553.095	67.09
553.338	66.23
553.58	66.87
553.823	65.29
554.065	67.03
554.308	63.3
554.55	60.8
554.792	58.29
555.035	56.43
555.277	56.43
555.519	55.54
555.762	54.3
556.004	56.3
556.246	54.3
556.488	55.4
556.731	52
556.973	54.1
557.215	53.19
557.457	54.53
557.699	56.06
557.941	53.94
558.183	54.09
558.426	57.03
558.668	51.57
558.91	53.33
559.152	53.74
559.394	54.06
559.636	57.06
559.878	58.76
560.12	58.62
560.362	59.04
560.604	58.42
560.845	58.28
561.087	56.98
561.329	60.07
561.571	57.99
561.813	59.01
562.055	59.76
562.297	61.11
562.538	62.57
562.78	64.81
563.022	61.78
563.264	62.36
563.505	62.42
563.747	61.93
563.989	60.81
564.23	60.34
564.472	58.74
564.714	62.06
564.955	62.29
565.197	59.27
565.438	61.36
565.68	65.39
565.921	62.95
566.163	66.56
566.404	64.43
566.646	66.98
566.887	67.59
567.129	67.45
567.37	66.15
567.612	68.62
567.853	66.02
568.094	66.96
568.336	66.3
568.577	68.87
568.818	69.53
569.06	67.79
569.301	66.19
569.542	66.3
569.783	67.32
570.025	68.75
570.266	69.37
570.507	72.34
570.748	71.46
570.989	71.62
571.23	75.04
571.472	75.01
571.713	75.08
571.954	76.7
572.195	74.48
572.436	75.91
572.677	81.34
572.918	83.57
573.159	80.33
573.4	79.53
573.641	79.14
573.882	79.88
574.123	75.72
574.364	71.98
574.604	72.18
574.845	72.47
575.086	72.95
575.327	73.87
575.568	73.88
575.809	74.12
576.049	73.26
576.29	70.06
576.531	75.81
576.771	79.68
577.012	83.22
577.253	85.95
577.494	85.1
577.734	84.99
577.975	86.41
578.215	87.09
578.456	87.33
578.697	88.67
578.937	92.01
579.178	92.17
579.418	91.93
579.659	92.7
579.899	89.18
580.14	88.26
580.38	87.9
580.62	88.97
580.861	93.85
581.101	93.74
581.342	95.47
581.582	93.52
581.822	97.22
582.063	97.42
582.303	99.21
582.543	99.99
582.783	101.67
583.024	105.03
583.264	109.32
583.504	108.07
583.744	111.56
583.984	111.87
584.224	112.29
584.465	111.6
584.705	112.76
584.945	115.21
585.185	117.28
585.425	119.23
585.665	120.55
585.905	121.41
586.145	121.63
586.385	120.98
586.625	125.64
586.865	126.45
587.105	127.55
587.345	132.22
587.585	132.81
587.824	134.21
588.064	136.14
588.304	134.98
588.544	136.87
588.784	135.55
589.024	140.71
589.263	141.57
589.503	143.05
589.743	146.61
589.982	149.08
590.222	151.83
590.462	150.57
590.701	149.59
590.941	153.75
591.181	154.08
591.42	153.21
591.66	157.3
591.899	162.74
592.139	163
592.378	165.03
592.618	165.11
592.857	165.86
593.097	168.73
593.336	170.7
593.576	172.02
593.815	173.77
594.055	174.75
594.294	176.5
594.533	178
594.773	178.23
595.012	181.95
595.251	182.88
595.491	186.25
595.73	190.15
595.969	191.87
596.208	196.03
596.447	202.45
596.687	205.29
596.926	207.58
597.165	205.16
597.404	208.09
597.643	206.92
597.882	209.23
598.121	211.42
598.36	214.14
598.599	218.25
598.838	220.02
599.077	218.39
599.316	219.34
599.555	221.13
599.794	222.99
600.033	226.45
600.272	229.47
600.511	229.01
600.75	232.57
600.989	234.5
601.228	235.78
601.466	236.59
601.705	238.21
601.944	240.12
602.183	244.16
602.422	244.71
602.66	245.19
602.899	244.6
603.138	246.32
603.376	247.76
603.615	248.96
603.854	247.12
604.092	248.73
604.331	250.07
604.569	253.03
604.808	252.54
605.047	255.46
605.285	255.72
605.524	256.74
605.762	255.11
606	256.46
606.239	257.83
606.477	259.67
606.716	255.71
606.954	254.57
607.193	252.09
607.431	249.36
607.669	248.41
607.908	248.14
608.146	247.83
608.384	247.64
608.622	248.13
608.861	247.79
609.099	247.95
609.337	246.35
609.575	244.54
609.813	244.76
610.052	245.01
610.29	241.31
610.528	238.47
610.766	237.3
611.004	237.21
611.242	235.6
611.48	234.97
611.718	232.48
611.956	231.77
612.194	230.19
612.432	229.69
612.67	228.14
612.908	228.16
613.146	226.44
613.384	225.48
613.621	223.46
613.859	222.5
614.097	221.97
614.335	222.27
614.573	222.65
614.811	224.28
615.048	221.56
615.286	222.51
615.524	221.72
615.761	218.58
615.999	218.04
616.237	217.63
616.474	219.86
616.712	222.59
616.95	220.94
617.187	218.96
617.425	220.54
617.662	220.97
617.9	219.11
618.137	216.44
618.375	215.35
618.612	213.08
618.85	213.06
619.087	215.14
619.325	213.21
619.562	211.03
619.799	208.79
620.037	208.22
620.274	208.35
620.511	209.82
620.749	205.13
620.986	202.58
621.223	199.75
621.461	199.43
621.698	199.91
621.935	198.79
622.172	195.18
622.409	198.05
622.647	196.23
622.884	194.1
623.121	195.81
623.358	193.5
623.595	193.28
623.832	192.66
624.069	189.49
624.306	190.55
624.543	191.53
624.78	190.46
625.017	190.51
625.254	192.96
625.491	194.81
625.728	195.93
625.965	196.42
626.202	194.96
626.438	193.46
626.675	192.65
626.912	195.58
627.149	196.44
627.386	195.8
627.622	192.76
627.859	191.65
628.096	192.39
628.333	193.02
628.569	193.63
628.806	194.2
629.043	193.41
629.279	195.7
629.516	198.21
629.752	192.94
629.989	194.09
630.225	191.73
630.462	191.13
630.699	190.67
630.935	188.92
631.171	185.48
631.408	185.39
631.644	181.44
631.881	178.83
632.117	175.73
632.354	176.75
632.59	173.52
632.826	172.73
633.063	170.32
633.299	170.26
633.535	167.8
633.771	165.73
634.008	167.94
634.244	164.63
634.48	161.8
634.716	162.7
634.953	161.55
635.189	161.64
635.425	163.25
635.661	165.28
635.897	162.92
636.133	161.89
636.369	159.72
636.605	153.66
636.841	152.13
637.077	154.26
637.313	153.89
637.549	153.77
637.785	153.01
638.021	153.44
638.257	151.06
638.493	150.71
638.729	147.08
638.965	151.26
639.2	152.87
639.436	151.52
639.672	149.12
639.908	148.06
640.144	151.21
640.379	153.14
640.615	149.98
640.851	151.56
641.086	152.9
641.322	150.03
641.558	150.86
641.793	152.18
642.029	149.83
642.264	149.53
642.5	148.54
642.736	143.02
642.971	143.33
643.207	140.27
643.442	139.45
643.678	140.11
643.913	141.11
644.148	139.99
644.384	140.94
644.619	138.73
644.855	140.25
645.09	139.45
645.325	138.42
645.561	139.17
645.796	136.84
646.031	140.37
646.266	135.58
646.502	132.49
646.737	134.59
646.972	134.06
647.207	132.45
647.442	129.86
647.678	126.16
647.913	128.45
648.148	128.91
648.383	125.54
648.618	125.52
648.853	124.85
649.088	125.82
649.323	128.55
649.558	128.97
649.793	128.7
650.028	129.92
650.263	124.64
650.498	128.41
650.733	126.63
650.968	122.45
651.202	124.18
651.437	120.45
651.672	116.19
651.907	115.03
652.142	114.6
652.376	114.14
652.611	115.64
652.846	115.67
653.081	114.82
653.315	113.24
653.55	113.94
653.785	112.93
654.019	113.38
654.254	111.33
654.488	112.46
654.723	107.57
654.958	105.65
655.192	103.57
655.427	98.88
655.661	100.56
655.896	103.2
656.13	104.87
656.364	100.55
656.599	96.69
656.833	98.36
657.068	99.82
657.302	99.7
657.536	98.41
657.771	98.58
658.005	98.73
658.239	101.33
658.474	98.61
658.708	99.89
658.942	100.34
659.176	98.08
659.41	94.77
659.645	93.85
659.879	92.3
660.113	88.65
660.347	88.26
660.581	85.52
660.815	84.02
661.049	82.31
661.283	78.35
661.517	77.69
661.751	76.84
661.985	75.45
662.219	76.37
662.453	74.33
662.687	76.72
662.921	73.17
663.155	71.44
663.389	63.94
663.622	62.91
663.856	64.76
664.09	60.95
664.324	59.04
664.558	58.89
664.791	57.49
665.025	56.24
665.259	56.55
665.492	55.1
665.726	57.14
665.96	57.73
666.193	54.91
666.427	55.59
666.661	54.24
666.894	52.25
667.128	49.27
667.361	52.08
667.595	51.65
667.828	52.56
668.062	52.07
668.295	52.59
668.529	53.45
668.762	52.32
668.995	50.17
669.229	54.13
669.462	53.85
669.695	55.55
669.929	53.22
670.162	51.94
670.395	50.62
670.629	53.06
670.862	54.76
671.095	50.9
671.328	50.48
671.561	47.38
671.795	47.45
672.028	49.07
672.261	48.23
672.494	49.15
672.727	47.66
672.96	47.56
673.193	45.66
673.426	50.03
673.659	50.33
673.892	50.83
674.125	50.24
674.358	50.88
674.591	49.03
674.824	48.02
675.057	45.51
675.29	44.34
675.523	45.56
675.755	43.91
675.988	44.33
676.221	47.27
676.454	45.89
676.687	47.71
676.919	45.07
677.152	44.42
677.385	45.66
677.617	43.9
677.85	44.61
678.083	42.3
678.315	44.01
678.548	43.6
678.78	42.69
679.013	41.57
679.246	41.16
679.478	43.14
679.711	39.77
679.943	40.28
680.175	37.14
680.408	40.6
680.64	36.71
680.873	38.18
681.105	38.95
681.338	43.17
681.57	42.4
681.802	43.48
682.034	43.57
682.267	46.84
682.499	48.83
682.731	45.31
682.964	44.79
683.196	43.16
683.428	40.46
683.66	37.84
683.892	38.43
684.124	42.15
684.356	45.8
684.589	45.17
684.821	43.51
685.053	42.32
685.285	42.33
685.517	43
685.749	42.38
685.981	44.05
686.213	44.38
686.445	44.41
686.676	39.74
686.908	40.41
687.14	39.47
687.372	40.28
687.604	35.55
687.836	36.13
688.068	35.48
688.299	34.73
688.531	31.36
688.763	36.04
688.995	34.33
689.226	37.85
689.458	35.63
689.69	32.75
689.921	32.49
690.153	32.25
690.384	34.13
690.616	32.81
690.848	35
691.079	32.71
691.311	29.08
691.542	25.09
691.774	23.92
692.005	27.48
692.237	29.86
692.468	28.25
692.699	28.14
692.931	28.96
693.162	25.93
693.393	23.97
693.625	24.36
693.856	26.2
694.087	25.31
694.319	26.2
694.55	25.05
694.781	24.93
695.012	24.35
695.243	20.82
695.475	20.15
695.706	19.88
695.937	17.04
696.168	15.69
696.399	13.03
696.63	13
696.861	13.43
697.092	18.59
697.323	21.65
697.554	22.2
697.785	23.99
698.016	23.7
698.247	21.64
698.478	22.07
698.709	23.91
698.94	26.49
699.171	25.78
699.401	22.56
699.632	25.45
699.863	22.02
700.094	21.36
700.325	24.16
700.555	27.37
700.786	27.68
701.017	28.13
701.247	28.16
701.478	27.48
701.709	28.64
701.939	27.11
702.17	29.73
702.401	32.49
702.631	33.32
702.862	31.67
703.092	28.87
703.323	31.63
703.553	32.17
703.784	31.12
704.014	30.84
704.244	26.33
704.475	23.99
704.705	24.53
704.936	23.87
705.166	22.79
705.396	24.24
705.627	25.76
705.857	23.93
706.087	23.48
706.317	20.22
706.548	18.32
706.778	16.62
707.008	17.05
707.238	17.76
707.468	17
707.698	14.18
707.928	14.38
708.158	12.24
708.389	11.93
708.619	9.28
708.849	7.48
709.079	9.77
709.309	6.27
709.539	2.71
709.768	2.78
709.998	5.59
710.228	5.98
710.458	3.75
710.688	0.95
710.918	1.86
711.148	1.75
711.378	2.57
711.607	0.24
711.837	0.68
712.067	1.13
712.297	2.13
712.526	1.35
712.756	1.03
712.986	-1.97
713.215	-3.78
713.445	-1.5
713.674	-0.37
713.904	-0.19
714.134	3.54
714.363	2.07
714.593	0.43
714.822	-0.59
715.052	-1.87
715.281	-0.34
715.511	-0.98
715.74	1.62
715.969	-0.39
716.199	-1.66
716.428	-1.67
716.657	0.04
716.887	1.88
717.116	-0.6
717.345	0.57
717.575	1.61
717.804	2.98
718.033	1.44
718.262	0.77
718.492	0.58
718.721	3.73
718.95	2.1
719.179	-0.22
719.408	0.37
719.637	-1.56
719.866	-3.49
720.095	0.14
720.324	-1.68
720.553	-5.51
720.782	-5.28
721.011	-4.47
721.24	-8.14
721.469	-8.07
721.698	-7.93
721.927	-7.11
722.156	-8.51
722.385	-9.49
722.613	-5.87
722.842	-5.94
723.071	-2.29
723.3	-0.23
723.529	0.4
723.757	1.29
723.986	-2.56
724.215	-2.86
724.443	-0.03
724.672	1.96
724.901	2.92
725.129	4.97
725.358	8.38
725.586	6.23
725.815	5.3
726.043	3.96
726.272	2.83
726.5	1.51
726.729	2.06
726.957	-0.83
727.186	-3.73
727.414	-0.9
727.642	1.18
727.871	1.1
728.099	-0.48
728.327	0.06
728.556	1.8
728.784	3.17
729.012	1.38
729.241	4.41
729.469	4.02
729.697	0.24
729.925	0.66
730.153	-0.59
730.381	-0.5
730.61	-0.89
730.838	-3.6
731.066	-3.11
731.294	-3.43
731.522	-6.95
731.75	-10
731.978	-11.55
732.206	-12.95
732.434	-14.67
732.662	-11.73
732.89	-13.98
733.118	-13.65
733.346	-12.99
733.573	-12.96
733.801	-11.69
734.029	-5.16
734.257	-3.36
734.485	-0.62
734.712	1.44
734.94	-0.93
735.168	2.31
735.396	1.82
735.623	-0.45
735.851	0.84
736.078	3.4
736.306	2.61
736.534	2.16
736.761	3.21
736.989	0.29
737.216	-0.83
737.444	-3.11
737.671	-2.57
737.899	3.2
738.126	3.62
738.354	2.94
738.581	3.28
738.809	3.88
739.036	1.14
739.263	1.5
739.491	-1.34
739.718	-2.29
739.945	2.67
740.173	3.38
740.4	4
740.627	2.88
740.854	2.41
741.081	-0.23
741.309	-1.67
741.536	-5.17
741.763	-6.45
741.99	-3.99
742.217	-4.08
742.444	-3.43
742.671	-2.09
742.898	-2.18
743.125	-4.22
743.352	-5.92
743.579	-6.13
743.806	-6.74
744.033	-3.32
744.26	-1.67
744.487	-2.63
744.714	-2.69
744.941	-4.89
745.167	-1.46
745.394	-1.12
745.621	-1.67
745.848	-0.22
746.075	3.3
746.301	6.12
746.528	11.18
746.755	8.39
746.981	8.11
747.208	10.26
747.435	12.63
747.661	13.29
747.888	14.8
748.114	13.18
748.341	16.06
748.567	15.89
748.794	12.37
749.02	11.27
749.247	8.33
749.473	8.38
749.7	7.58
749.926	6.98
750.152	10.81
750.379	9.61
750.605	8.92
750.831	8.78
751.058	7.32
751.284	5.27
751.51	9.39
751.737	11.09
751.963	10.42
752.189	8.86
752.415	8.91
752.641	7.56
752.867	5.38
753.094	2.25
753.32	1.37
753.546	-1.18
753.772	1.8
753.998	-0.49
754.224	-1.56
754.45	-3.88
754.676	-4.46
754.902	-6.08
755.128	-4.91
755.354	-6.88
755.579	-4.19
755.805	-0.67
756.031	-1.88
756.257	-2.32
756.483	-3.84
756.709	-4.82
756.934	-6.21
757.16	-9.24
757.386	-6.89
757.612	-7.13
757.837	-7.77
758.063	-5.42
758.289	-2.17
758.514	-4.23
758.74	-8.97
758.965	-11.56
759.191	-9.8
759.416	-9.04
759.642	-6.68
759.868	-7.21
760.093	-3
760.318	-5.64
760.544	-5.18
760.769	-5.64
760.995	-6.65
761.22	-6.97
761.445	-4.52
761.671	-3.41
761.896	-0.7
762.121	-0.64
762.347	0.65
762.572	-3.13
762.797	-4.46
763.022	-3.16
763.248	1
763.473	2.68
763.698	2.66
763.923	3.25
764.148	1.84
764.373	0.99
764.598	2.88
764.823	4.64
765.048	1.54
765.273	-1.02
765.498	-1.93
765.723	1.2
765.948	1.55
766.173	0.65
766.398	1.21
766.623	-1.16
766.848	-1.26
767.073	-3.97
767.298	-3.67
767.522	-4.52
767.747	-4.33
767.972	-3.82
768.197	-3.21
768.421	-5.52
768.646	-8.43
768.871	-13.46
769.095	-13.05
769.32	-12.18
769.545	-10.85
769.769	-9.03
769.994	-6.9
770.218	-9.44
770.443	-8.96
770.667	-8.89
770.892	-7.81
771.116	-6.86
771.341	-6.59
771.565	-6.91
771.79	-7.37
772.014	-8.56
772.238	-10.1
772.463	-7.78
772.687	-8.18
772.911	-7.28
773.136	-10.61
773.36	-8.9
773.584	-7.36
773.808	-8.82
774.033	-7.4
774.257	-7.05
774.481	-7.35
774.705	-8.47
774.929	-9.5
775.153	-9.74
775.377	-7.43
775.602	-7.11
775.826	-3.72
776.05	-0.39
776.274	-2.03
776.498	-2.62
776.722	-3.52
776.945	-3.33
777.169	-4.08
777.393	-4.58
777.617	-4.53
777.841	-4.22
778.065	-3.44
778.289	-4.84
778.512	-6.7
778.736	-6.66
778.96	-5.95
779.184	-4
779.407	-6.1
779.631	-5.92
779.855	-7.29
780.078	-5.85
780.302	-9
780.526	-11.7
780.749	-11.42
780.973	-10.33
781.196	-9.62
781.42	-11.21
781.643	-11.49
781.867	-9.07
782.09	-10.81
782.314	-12.16
782.537	-11.78
782.76	-12.66
782.984	-13.88
783.207	-14.82
783.431	-13.83
783.654	-16.78
783.877	-20.22
784.1	-21.59
784.324	-23.88
784.547	-24.98
784.77	-29.05
784.993	-30.79
785.216	-31.78
785.44	-29.35
785.663	-30.47
785.886	-28.38
786.109	-28.69
786.332	-28.97
786.555	-29.41
786.778	-26.76
787.001	-27.24
787.224	-24.76
787.447	-22.3
787.67	-18.9
787.893	-19.24
788.116	-18.06
788.339	-16.4
788.561	-16.18
788.784	-19.49
789.007	-20.74
789.23	-21.22
789.453	-21.53
789.675	-24.61
789.898	-27.46
790.121	-28.69
790.344	-30.49
790.566	-28.02
790.789	-28.02
791.012	-26.29
791.234	-22.86
791.457	-18.52
791.679	-17.23
791.902	-15.91
792.124	-14.42
792.347	-16.42
792.569	-16.26
792.792	-20.23
793.014	-16.83
793.237	-15.03
793.459	-13.76
793.681	-14.83
793.904	-15.69
794.126	-17.1
794.348	-17.63
794.571	-17.72
794.793	-18.53
795.015	-19.8
795.237	-19.56
795.46	-19.76
795.682	-19.41
795.904	-17.48
796.126	-18.86
796.348	-19.98
796.57	-15.3
796.792	-14.87
797.014	-9.85
797.237	-7.43
797.459	-4.56
797.681	-2.7
797.903	-4.77
798.124	-4.45
798.346	5.31
798.568	7.77
798.79	10.85
799.012	12.63
799.234	12.9
799.456	13.84
799.678	17.8
799.899	15.2
800.121	12.47
800.343	12.34
800.565	12.14
800.786	14.05
801.008	15.37
801.23	15.17
801.451	16.45
801.673	14.64
801.895	14.65
802.116	15.35
802.338	17.74
802.559	17.52
802.781	16.78
803.002	19.79
803.224	23.25
803.445	20.52
803.667	22.64
803.888	20.52
804.109	20.68
804.331	19.94
804.552	20.45
804.773	22.53
804.995	18.53
805.216	5.87
805.437	4.09
805.658	1.55
805.88	-0.33
806.101	0.76
806.322	1.58
806.543	-1.64
806.764	-3.65
806.985	-1.48
807.207	-2.16
807.428	-1.33
807.649	-5.1
807.87	-7.51
808.091	-6.22
808.312	-7.4
808.533	-2.35
808.754	0.09
808.975	-1.35
809.195	-0.63
809.416	-0.24
809.637	-1.21
809.858	-3.06
810.079	-5.22
810.3	-2.75
810.52	-4.63
810.741	-8.06
810.962	-9.91
811.183	-12.15
811.403	-12.12
811.624	-12.3
811.845	-9.37
812.065	-9.13
812.286	-8.65
812.506	-8.62
812.727	-8.95
812.948	-8.25
813.168	-6.45
813.389	-6.53
813.609	-4.62
813.83	-4.32
814.05	-4.74
814.27	-4.91
814.491	-0.63
814.711	-1.19
814.931	-4.21
815.152	-5.36
815.372	-8.1
815.592	-8.83
815.813	-11.24
816.033	-13.01
816.253	-11.03
816.473	-11.24
816.694	-10.58
816.914	-10.44
817.134	-10.9
817.354	-12.05
817.574	-10.42
817.794	-10.51
818.014	-11.34
818.234	-11.77
818.454	-13.98
818.674	-16.52
818.894	-18.31
819.114	-16.6
819.334	-15.96
819.554	-13.09
819.774	-11.08
819.994	-15.08
820.214	-15
820.433	-14.93
820.653	-17.47
820.873	-14.93
821.093	-13.47
821.312	-15.41
821.532	-13.45
821.752	-11.14
821.972	-10.77
822.191	-9.76
822.411	-11.83
822.63	-9.4
822.85	-8.69
823.07	-12.56
823.289	-11.2
823.509	-13.03
823.728	-10.18
823.948	-12.97
824.167	-13.39
824.387	-14.28
824.606	-12.27
824.825	-12.96
825.045	-12.79
825.264	-13.64
825.483	-11.45
825.703	-9.12
825.922	-11.71
826.141	-13.4
826.361	-14.72
826.58	-18.89
826.799	-19.7
827.018	-18.52
827.237	-18.99
827.456	-16.07
827.676	-15.97
827.895	-16.95
828.114	-15.25
828.333	-13.97
828.552	-13.18
828.771	-13.34
828.99	-15.84
829.209	-15.74
829.428	-13.41
829.647	-14.47
829.866	-11.86
830.084	-12.37
830.303	-11.79
830.522	-13.67
830.741	-12.09
830.96	-10.7
831.179	-10.62
831.397	-11.88
831.616	-11.07
831.835	-11.7
832.053	-8.4
832.272	-8.82
832.491	-9.62
832.709	-9.74
832.928	-8.76
833.147	-8.14
833.365	-6.46
833.584	-4.81
833.802	-2.53
834.021	-1.78
834.239	-1.02
834.458	-4.63
834.676	-8.58
834.894	-10.3
835.113	-12.66
835.331	-14.86
835.55	-15.25
835.768	-13.95
835.986	-12.21
836.204	-14.74
836.423	-13.82
836.641	-15.75
836.859	-17.6
837.077	-17.67
837.296	-17.68
837.514	-19.48
837.732	-21.65
837.95	-21.84
838.168	-20.38
838.386	-20.43
838.604	-18.04
838.822	-18.34
839.04	-19.4
839.258	-17.56
839.476	-15.5
839.694	-15.85
839.912	-17.68
840.13	-18.06
840.348	-14.28
840.566	-17.59
840.783	-15.84
841.001	-19.6
841.219	-16.85
841.437	-14.74
841.655	-13.87
841.872	-14.06
842.09	-13.87
842.308	-13.53
842.525	-13.56
842.743	-13.01
842.961	-14.19
843.178	-16.16
843.396	-12.53
843.613	-11.01
843.831	-9.71
844.048	-9.71
844.266	-8.9
844.483	-10.13
844.701	-10.21
844.918	-9.55
845.136	-10.62
845.353	-12.89
845.57	-13.42
845.788	-10.42
846.005	-13.42
846.222	-15.26
846.439	-12.83
846.657	-12.65
846.874	-12.09
847.091	-13.98
847.308	-11.56
847.526	-14.38
847.743	-13.04
847.96	-15.79
848.177	-15.77
848.394	-16.05
848.611	-16.06
848.828	-16.87
849.045	-17.42
849.262	-17.42
849.479	-17.62
849.696	-18.07
849.913	-17.39
850.13	-21.91
850.347	-19.31
850.564	-20.43
850.78	-21.03
850.997	-22.02
851.214	-19.8
851.431	-18.55
851.647	-22.84
851.864	-21.78
852.081	-19.07
852.298	-21.93
852.514	-22.69
852.731	-21.19
852.948	-19.14
853.164	-18.1
853.381	-18.22
853.597	-20.91
853.814	-22.87
854.03	-26.51
854.247	-22.73
854.463	-22.4
854.68	-21.41
854.896	-19.7
855.113	-19.87
855.329	-19.38
855.545	-17.4
855.762	-18.44
855.978	-21.72
856.194	-23.61
856.411	-17.81
856.627	-17.38
856.843	-14.82
857.059	-12.15
857.275	-12.06
857.492	-10.79
857.708	-7.22
857.924	-5.69
858.14	-4.11
858.356	-3.37
858.572	-3.14
858.788	-5.22
859.004	-2.16
859.22	-4.85
859.436	-3.47
859.652	-5.17
859.868	-7.63
860.084	-6.55
860.3	-4.41
860.516	-3.51
860.731	-3.59
860.947	-8.09
861.163	-6.98
861.379	-6.06
861.595	-5
861.81	-4.53
862.026	-4.29
862.242	-4.53
862.457	-4.1
862.673	-1.96
862.889	-2.61
863.104	-5.38
863.32	-4.75
863.535	-4.63
863.751	-9.94
863.966	-7.59
864.182	-6.62
864.397	-8.7
864.613	-10.6
864.828	-12.09
865.044	-11.07
865.259	-9.19
865.474	-10
865.69	-9.37
865.905	-7.45
866.12	-10.24
866.336	-9.66
866.551	-10.04
866.766	-12.3
866.981	-14.78
867.196	-15.61
867.412	-13.23
867.627	-11.71
867.842	-12.23
868.057	-13.71
868.272	-15.03
868.487	-15.57
868.702	-17.31
868.917	-17.84
869.132	-16.26
869.347	-15.18
869.562	-16.51
869.777	-18.01
869.992	-19.41
870.207	-19.59
870.422	-19.38
870.636	-22.4
870.851	-24.03
871.066	-26.13
871.281	-26.05
871.495	-26.38
871.71	-24.06
871.925	-27.24
872.14	-28.76
872.354	-30.87
872.569	-32.46
872.783	-30.47
872.998	-30.64
873.213	-31.36
873.427	-28.12
873.642	-25.99
873.856	-26.29
874.071	-27.28
874.285	-28.38
874.5	-29.66
874.714	-29.2
874.928	-29.91
875.143	-31.19
875.357	-31.05
875.571	-31.07
875.786	-30.03
876	-27.46
876.214	-24.49
876.429	-25.35
876.643	-23.68
876.857	-23.53
877.071	-23.45
877.285	-23.54
877.499	-25.31
877.714	-22.61
877.928	-19.96
878.142	-21.83
878.356	-23.41
878.57	-21.17
878.784	-19.17
878.998	-19.97
879.212	-16.88
879.426	-18.72
879.639	-17.55
879.853	-17.31
880.067	-16.98
880.281	-17.17
880.495	-14.83
880.709	-11.36
880.922	-10.73
881.136	-9.13
881.35	-6.68
881.564	-8.18
881.777	-8.87
881.991	-7.85
882.205	-4.66
882.418	-5.5
882.632	-8.89
882.845	-9.36
883.059	-8.5
883.273	-10.54
883.486	-11.97
883.7	-7.8
883.913	-8.53
884.126	-7.81
884.34	-10.57
884.553	-13.41
884.767	-8.66
884.98	-8
885.193	-9.91
885.407	-10.44
885.62	-7.84
885.833	-8.55
886.046	-6.84
886.26	-9.61
886.473	-10.91
886.686	-13.13
886.899	-12.86
887.112	-13.3
887.326	-17.1
887.539	-17.37
887.752	-17.23
887.965	-20.91
888.178	-18.87
888.391	-19.16
888.604	-18.67
888.817	-23.03
889.03	-21.3
889.243	-22.05
889.455	-25.14
889.668	-23.85
889.881	-18.71
890.094	-18.93
890.307	-22.1
890.52	-19.31
890.732	-17.94
890.945	-17.64
891.158	-17.29
891.37	-21.03
891.583	-21.85
891.796	-20.71
892.008	-21.16
892.221	-21.17
892.434	-23.72
892.646	-24.21
892.859	-22.91
893.071	-20.77
893.284	-19.15
893.496	-19.04
893.709	-20.23
893.921	-18.88
894.133	-18.86
894.346	-19.47
894.558	-19.19
894.771	-18.85
894.983	-15.76
895.195	-14.9
895.407	-12.39
895.62	-16.51
895.832	-14.61
896.044	-11.86
896.256	-14.05
896.468	-17.24
896.681	-14.54
896.893	-14.24
897.105	-15.13
897.317	-17.24
897.529	-14.6
897.741	-14.01
897.953	-11.46
898.165	-12.29
898.377	-13.82
898.589	-14.34
898.801	-15.5
899.013	-14.07
899.224	-12.28
899.436	-10.08
899.648	-10.47
899.86	-10.52
900.072	-7.96
900.283	-6.52
900.495	-5.08
900.707	-4.31
900.919	-6.61
901.13	-5.64
901.342	-8.26
901.554	-9.25
901.765	-9.74
901.977	-12.37
902.188	-11.86
902.4	-13.41
902.611	-14.74
902.823	-14.83
903.034	-16.97
903.246	-19.36
903.457	-19.58
903.669	-20.57
903.88	-20.45
904.091	-20.63
904.303	-20.07
904.514	-21.8
904.725	-20.17
904.936	-19.9
905.148	-18.28
905.359	-15.6
905.57	-15.06
905.781	-17.05
905.992	-20.29
906.204	-19.3
906.415	-20.72
906.626	-23.56
906.837	-21.49
907.048	-23.52
907.259	-24.1
907.47	-24.79
907.681	-24.94
907.892	-19.75
908.103	-20.15
908.314	-22.46
908.525	-19.59
908.735	-17.64
908.946	-18.2
909.157	-18
909.368	-15.94
909.579	-14.59
909.789	-15.37
910	-17.41
910.211	-15.04
910.421	-15.23
910.632	-15.2
910.843	-18.12
911.053	-13.78
911.264	-12.07
911.475	-11.04
911.685	-10.88
911.896	-11.53
912.106	-11.12
912.317	-12.79
912.527	-9.38
912.737	-10.29
912.948	-8.65
913.158	-7.32
913.369	-10.75
913.579	-7.73
913.789	-6.61
914	-1.85
914.21	-1.42
914.42	-4.7
914.63	-6.01
914.841	-4.76
915.051	-3.94
915.261	-5.04
915.471	-2.67
915.681	-2.79
915.891	-2.42
916.101	-3.38
916.311	-2.98
916.521	-2.26
916.731	-1.55
916.941	1.67
917.151	0.36
917.361	4.55
917.571	-0.01
917.781	-1.7
917.991	-5.19
918.201	-4.85
918.411	-8.37
918.621	-9.68
918.83	-8.38
919.04	-10.66
919.25	-9
919.46	-7.98
919.669	-11.62
919.879	-12.45
920.089	-14.73
920.298	-16.7
920.508	-17.35
920.717	-16.82
920.927	-17.54
921.136	-15.87
921.346	-16.88
921.555	-20.96
921.765	-20.63
921.974	-22.92
922.184	-25.79
922.393	-27.02
922.603	-28.34
922.812	-26.06
923.021	-26.99
923.23	-28.67
923.44	-31.31
923.649	-30.86
923.858	-31.9
924.067	-31.71
924.277	-33.53
924.486	-29.8
924.695	-30.63
924.904	-28.52
925.113	-28.3
925.322	-28.05
925.531	-27.54
925.74	-29.73
925.949	-31.31
926.158	-28.8
926.367	-27.5
926.576	-26.79
926.785	-26.04
926.994	-28.01
927.203	-27.4
927.412	-27.49
927.621	-28.31
927.83	-26.58
928.038	-25.45
928.247	-26.71
928.456	-26
928.665	-23.9
928.873	-22.08
929.082	-20.06
929.291	-18.92
929.499	-15.92
929.708	-16.71
929.916	-16.32
930.125	-17.98
930.333	-19.64
930.542	-17.22
930.75	-13.8
930.959	-12.62
931.167	-13.06
931.376	-13.8
931.584	-12.31
931.793	-9.99
932.001	-10.31
932.209	-12.03
932.418	-14.45
932.626	-15.13
932.834	-17.29
933.042	-20.52
933.251	-20.92
933.459	-19.99
933.667	-21.47
933.875	-20.86
934.083	-18.99
934.291	-16.48
934.499	-15.09
934.707	-15.09
934.915	-15.5
935.123	-13.23
935.331	-14.36
935.539	-16.6
935.747	-19.45
935.955	-19.83
936.163	-20.07
936.371	-20.27
936.579	-17.29
936.787	-17.22
936.995	-19.11
937.202	-22.5
937.41	-22.86
937.618	-23.4
937.826	-23.3
938.033	-28.27
938.241	-31.23
938.449	-28.33
938.656	-26.04
938.864	-24.8
939.071	-24.12
939.279	-21.23
939.486	-18.19
939.694	-18.57
939.901	-20.79
940.109	-20.54
940.316	-20.25
940.524	-21.34
940.731	-24.29
940.939	-23.22
941.146	-22.91
941.353	-24.1
941.561	-24.32
941.768	-25.14
941.975	-22.79
942.182	-23.22
942.39	-23.82
942.597	-20.41
942.804	-20.6
943.011	-21.37
943.218	-19.98
943.425	-19.9
943.632	-19.37
943.839	-20.92
944.046	-20.99
944.253	-19.53
944.46	-17.63
944.667	-12.39
944.874	-13.41
945.081	-11.64
945.288	-10.45
945.495	-9.57
945.702	-9.85
945.909	-11.79
946.115	-10.33
946.322	-11.26
946.529	-12.09
946.736	-12.49
946.942	-10.51
947.149	-10.83
947.356	-12.43
947.562	-14.51
947.769	-13.6
947.976	-14.31
948.182	-12.42
948.389	-14.13
948.595	-13.03
948.802	-13.01
949.008	-15.64
949.215	-14.61
949.421	-14.59
949.628	-15.94
949.834	-16.41
950.04	-16.34
950.247	-12.19
950.453	-10.88
950.659	-11.99
950.865	-10.07
951.072	-16.06
951.278	-13.89
951.484	-15.77
951.69	-18.69
951.896	-20.12
952.103	-19.76
952.309	-17.55
952.515	-17.83
952.721	-15.26
952.927	-13.15
953.133	-14.43
953.339	-16.88
953.545	-17.32
953.751	-17.88
953.957	-13.6
954.163	-14.72
954.369	-15.15
954.574	-17.44
954.78	-16.88
954.986	-16.15
955.192	-14.21
955.398	-14.57
955.603	-17.17
955.809	-16.5
956.015	-16.97
956.22	-14.8
956.426	-13.25
956.632	-17.3
956.837	-17.1
957.043	-16.52
957.248	-17.27
957.454	-16.63
957.66	-19.95
957.865	-20.55
958.07	-18.62
958.276	-19.11
958.481	-21.59
958.687	-23.8
958.892	-23.88
959.097	-23
959.303	-24.88
959.508	-24.44
959.713	-24.51
959.919	-23.81
960.124	-24.34
960.329	-25.06
960.534	-21.61
960.739	-19.08
960.945	-16.88
961.15	-15.78
961.355	-17.46
961.56	-21.74
961.765	-22.81
961.97	-21.32
962.175	-19.78
962.38	-21.88
962.585	-23.09
962.79	-24.71
962.995	-24.87
963.2	-26.63
963.404	-27.88
963.609	-29.31
963.814	-30.84
964.019	-32.47
964.224	-33.9
964.428	-32.47
964.633	-31.13
964.838	-29.67
965.042	-28.3
965.247	-30.32
965.452	-31.96
965.656	-29.41
965.861	-28.69
966.066	-29.2
966.27	-26.68
966.475	-22.21
966.679	-25.88
966.884	-25.35
967.088	-29.35
967.292	-30.52
967.497	-29.33
967.701	-30.01
967.906	-28
968.11	-24.73
968.314	-20.71
968.518	-22.55
968.723	-19.63
968.927	-18.66
969.131	-17.05
969.335	-14.37
969.539	-14.34
969.744	-13.01
969.948	-10.21
970.152	-8.75
970.356	-7.4
970.56	-6.4
970.764	-7.94
970.968	-6.28
971.172	-6.22
971.376	-6.1
971.58	-3.81
971.784	-2.31
971.988	-5.12
972.192	-2.19
972.395	-2.74
972.599	-6.5
972.803	-8.17
973.007	-5.36
973.21	-5.82
973.414	-5.69
973.618	-5.75
973.822	-6.77
974.025	-5.67
974.229	-5.37
974.432	-10.09
974.636	-12.02
974.84	-11.26
975.043	-10.29
975.247	-11.09
975.45	-12.65
975.654	-13.45
975.857	-10.94
976.06	-11.72
976.264	-13.28
976.467	-11.91
976.671	-12.75
976.874	-11.38
977.077	-12.67
977.28	-13.25
977.484	-14.57
977.687	-15.16
977.89	-14.31
978.093	-14.76
978.297	-12.77
978.5	-15.01
978.703	-14.13
978.906	-12.83
979.109	-13.94
979.312	-13.11
979.515	-14.17
979.718	-13.53
979.921	-14.23
980.124	-15.42
980.327	-15.91
980.53	-16.17
980.733	-13.26
980.936	-11.25
981.138	-12.35
981.341	-12.49
981.544	-12.8
981.747	-13.87
981.949	-14.53
982.152	-14.34
982.355	-13.7
982.558	-11.81
982.76	-13.05
982.963	-13.84
983.165	-14.5
983.368	-12.35
983.571	-13.56
983.773	-10.55
983.976	-9.67
984.178	-10.02
984.381	-11
984.583	-15.2
984.785	-14.49
984.988	-11.34
985.19	-8.69
985.392	-9.2
985.595	-12.25
985.797	-11.49
985.999	-8.89
986.202	-6.34
986.404	-7.4
986.606	-3.97
986.808	-3.93
987.01	-2.08
987.212	-5.13
987.415	-6.34
987.617	-6.41
987.819	-6.43
988.021	-5.23
988.223	-7.65
988.425	-8.79
988.627	-10.12
988.829	-14.31
989.031	-13.42
989.232	-14.35
989.434	-12.46
989.636	-12.56
989.838	-12.02
990.04	-11.61
990.242	-13.26
990.443	-15.49
990.645	-13.43
990.847	-8.5
991.048	-10.15
991.25	-12.6
991.452	-15.57
991.653	-16.27
991.855	-17.09
992.057	-16.9
992.258	-16.55
992.46	-17.36
992.661	-15.49
992.863	-17.77
993.064	-17.31
993.265	-18.33
993.467	-18.8
993.668	-17.7
993.87	-17.45
994.071	-17.67
994.272	-17.69
994.473	-15.94
994.675	-15.54
994.876	-14.44
995.077	-13.42
995.278	-12.59
995.48	-10.83
995.681	-12.47
995.882	-12.27
996.083	-13.25
996.284	-17.08
996.485	-15.93
996.686	-16.34
996.887	-17.94
997.088	-21.91
997.289	-22.63
997.49	-22.93
997.691	-22.48
997.892	-22.64
998.092	-17.24
998.293	-18.63
998.494	-20.31
998.695	-21.16
998.896	-19.64
999.096	-20.31
999.297	-19.93
999.498	-22.58
999.698	-24.68
999.899	-26.31
1000.1	-27.69
1000.3	-28.25
1000.501	-28.01
1000.701	-27.18
1000.902	-27.4
1001.102	-27.77
1001.303	-26.25
1001.503	-27.54
1001.704	-26.88
1001.904	-27.4
1002.105	-28.19
1002.305	-27.96
1002.505	-28.36
1002.706	-28.21
1002.906	-28.26
1003.106	-27.57
1003.306	-25.75
1003.507	-23.72
1003.707	-24.32
1003.907	-21.93
1004.107	-18.99
1004.307	-20.65
1004.507	-20.2
1004.707	-20
1004.907	-20.4
1005.107	-22.42
1005.308	-20.65
1005.507	-22.42
1005.707	-19.22
1005.907	-17.52
1006.107	-14.66
1006.307	-14.93
1006.507	-15.83
1006.707	-14.96
1006.907	-13.99
1007.106	-13.61
1007.306	-13.49
1007.506	-12.37
1007.706	-12.76
1007.905	-15.47
1008.105	-16.6
1008.305	-17.72
1008.504	-17.13
1008.704	-12.44
1008.903	-13.24
1009.103	-11.78
1009.303	-12.98
1009.502	-12.38
1009.702	-14.02
1009.901	-13.5
1010.1	-16.26
1010.3	-16.46
1010.499	-17.69
1010.699	-18.55
1010.898	-19.64
1011.097	-19.6
1011.296	-18.82
1011.496	-21.59
1011.695	-21.74
1011.894	-23.74
1012.093	-21.9
1012.293	-22.34
1012.492	-22.23
1012.691	-21.51
1012.89	-22.26
1013.089	-25.4
1013.288	-25.03
1013.487	-24.56
1013.686	-26.09
1013.885	-27.58
1014.084	-26.1
1014.283	-25.11
1014.482	-24.51
1014.681	-24.98
1014.88	-30.31
1015.078	-27.81
1015.277	-29.79
1015.476	-32.05
1015.675	-32.04
1015.873	-29.98
1016.072	-31.2
1016.271	-27.06
1016.47	-29.93
1016.668	-29.06
1016.867	-29.54
1017.065	-30.45
1017.264	-32.19
1017.463	-31.12
1017.661	-30.13
1017.86	-29.58
1018.058	-28.42
1018.256	-28.41
1018.455	-30.32
1018.653	-28.34
1018.852	-27.68
1019.05	-29.7
1019.248	-31.08
1019.447	-32.7
1019.645	-33.38
1019.843	-33.51
1020.041	-31.88
1020.24	-31.75
1020.438	-28.3
1020.636	-28.24
1020.834	-30.41
1021.032	-25.81
1021.23	-27.73
1021.428	-25.09
1021.626	-20.26
1021.824	-20.04
1022.022	-22.2
1022.22	-19.64
1022.418	-20.67
1022.616	-22.09
1022.814	-23.02
1023.012	-23.33
1023.21	-22.92
1023.408	-22.56
1023.606	-24.19
1023.803	-19.18
1024.001	-20
1024.199	-22.77
1024.397	-23.77
1024.594	-22.5
1024.792	-24.82
1024.99	-24.31
1025.187	-23.58
1025.385	-18.36
1025.582	-18.05
1025.78	-17.84
1025.977	-16.57
1026.175	-17.23
1026.372	-17.03
1026.57	-20.28
1026.767	-17.48
1026.965	-15.85
1027.162	-16.87
1027.359	-17.54
1027.557	-17.01
1027.754	-20.57
1027.951	-22.33
1028.148	-20.51
1028.346	-22.92
1028.543	-24.47
1028.74	-24.65
1028.937	-26.38
1029.134	-27.01
1029.331	-26.42
1029.528	-25.23
1029.725	-26.51
1029.923	-31.73
1030.12	-26.79
1030.317	-25.69
1030.513	-24.68
1030.71	-24.32
1030.907	-22.32
1031.104	-22.7
1031.301	-23.6
1031.498	-24.54
1031.695	-25.25
1031.892	-25.1
1032.088	-25.96
1032.285	-25.43
1032.482	-27.06
1032.678	-28.91
1032.875	-31.43
1033.072	-30.49
1033.268	-30.71
1033.465	-31.12
1033.662	-33.81
1033.858	-32.86
1034.055	-32.05
1034.251	-29.81
1034.448	-29.56
1034.644	-30.18
1034.84	-27.09
1035.037	-25.91
1035.233	-26.17
1035.43	-24.88
1035.626	-26.26
1035.822	-24.96
1036.019	-23.87
1036.215	-28.3
1036.411	-29.46
1036.607	-30.69
1036.803	-34.14
1037	-34.51
1037.196	-36.29
1037.392	-36.06
1037.588	-39.21
1037.784	-37.79
1037.98	-38.62
1038.176	-38.63
1038.372	-39.29
1038.568	-37.09
1038.764	-34.54
1038.96	-33.34
1039.156	-34.51
1039.352	-35.96
1039.547	-34.02
1039.743	-33.21
1039.939	-31.63
1040.135	-33.13
1040.331	-35.12
1040.526	-33.62
1040.722	-35.13
1040.918	-35.97
1041.113	-36.96
1041.309	-35.63
1041.505	-38.22
1041.7	-35.79
1041.896	-35.78
1042.091	-36.49
1042.287	-36.14
1042.482	-34.31
1042.678	-34.44
1042.873	-32.02
1043.069	-32.95
1043.264	-31.69
1043.459	-30.5
1043.655	-28.4
1043.85	-29.28
1044.045	-28.42
1044.24	-28.49
1044.436	-27.03
1044.631	-27.92
1044.826	-29.38
1045.021	-31.37
1045.216	-31.3
