Data from led_4000k_2_FLMT021711__22__17-35-16-594.txt Node

Date: Tue Nov 05 17:35:16 CET 2024
User: Etudiants TP
Spectrometer: FLMT02171
Trigger mode: 0
Integration Time (sec): 1.000000E-1
Scans to average: 5
Electric dark correction enabled: true
Nonlinearity correction enabled: true
Boxcar width: 15
XAxis mode: Wavelengths
Number of Pixels in Spectrum: 3648
>>>>>Begin Spectral Data<<<<<
194.658	-56.84
194.923	-56.15
195.188	-50.03
195.453	-50.89
195.717	-44.16
195.982	-43.06
196.247	-42.29
196.512	-44.13
196.777	-42.42
197.042	-40.43
197.307	-41.23
197.572	-36.49
197.837	-36.81
198.101	-34.38
198.366	-32.79
198.631	-30.33
198.896	-24.24
199.161	-18.35
199.425	-11.3
199.69	-2.8
199.955	-4.55
200.22	-6.2
200.484	-5.08
200.749	-6.27
201.014	-3.79
201.278	-2.44
201.543	-1.1
201.807	-2.01
202.072	0.37
202.337	-0.81
202.601	-1.03
202.866	-3.89
203.13	-2.06
203.395	-4.35
203.659	-3.39
203.924	-5.01
204.189	-5
204.453	-4.1
204.717	-2.54
204.982	-2.01
205.246	-1.85
205.511	0.82
205.775	-0.21
206.04	5.52
206.304	6.06
206.568	8.85
206.833	8.9
207.097	9.7
207.361	12.12
207.626	16.17
207.89	16.69
208.154	17.85
208.419	18.44
208.683	16.94
208.947	19.62
209.211	19.47
209.476	18.57
209.74	18.27
210.004	16.94
210.268	16.81
210.532	20.27
210.796	19.22
211.061	20.25
211.325	21.03
211.589	20.3
211.853	21.75
212.117	21.09
212.381	22.23
212.645	23.88
212.909	24.14
213.173	21.77
213.437	22.43
213.701	23.63
213.965	23.02
214.229	17.35
214.493	16.81
214.757	15.65
215.021	14.71
215.285	18.18
215.549	19.96
215.813	16.33
216.077	16.04
216.34	17.39
216.604	15.33
216.868	17.18
217.132	16.8
217.396	15.67
217.659	15.92
217.923	12.81
218.187	13.43
218.451	12.73
218.714	9.03
218.978	12.2
219.242	13.97
219.505	13.52
219.769	15.13
220.033	13.74
220.296	14.23
220.56	14.31
220.824	10.91
221.087	10.81
221.351	12.04
221.614	11.83
221.878	11.47
222.142	10.14
222.405	11.04
222.669	13.71
222.932	8.67
223.196	6.43
223.459	3.63
223.722	4.14
223.986	3.97
224.249	3.38
224.513	3.7
224.776	3.67
225.04	2.05
225.303	2.27
225.566	1.88
225.83	2.51
226.093	5.33
226.356	4.44
226.62	2.64
226.883	5.3
227.146	4.6
227.409	5.04
227.673	4.9
227.936	3.85
228.199	6.02
228.462	3.11
228.725	2.03
228.989	2.15
229.252	4.59
229.515	9.19
229.778	8.4
230.041	8.41
230.304	7.32
230.567	7.82
230.83	4.44
231.093	8.6
231.356	9.62
231.619	14.75
231.882	13.38
232.145	15.12
232.408	14.05
232.671	13.63
232.934	14.05
233.197	13.39
233.46	12.56
233.723	12.95
233.986	12.23
234.249	8.83
234.512	10.57
234.775	15.26
235.037	13.98
235.3	13.36
235.563	13.39
235.826	14.27
236.089	16.41
236.351	14.44
236.614	19.04
236.877	19.82
237.14	22.78
237.402	20.82
237.665	13.87
237.928	12.71
238.19	9.36
238.453	12.4
238.716	11.68
238.978	11.19
239.241	9.89
239.503	11.63
239.766	8.84
240.029	6.92
240.291	10.3
240.554	9.98
240.816	8.69
241.079	8.59
241.341	8.03
241.604	7.54
241.866	6.7
242.129	8.21
242.391	11.03
242.653	10.08
242.916	8.95
243.178	8.33
243.441	8.87
243.703	8.95
243.965	5.78
244.228	6.29
244.49	6.24
244.752	5.9
245.015	8.25
245.277	9
245.539	8.62
245.801	10.52
246.064	10.68
246.326	10.32
246.588	9.22
246.85	12.77
247.112	14.97
247.374	16.41
247.637	18.66
247.899	17.2
248.161	18.37
248.423	12.4
248.685	12.75
248.947	13.8
249.209	14.01
249.471	15.34
249.733	15.33
249.995	14.2
250.257	13.12
250.519	10.75
250.781	13.56
251.043	10.59
251.305	12.74
251.567	15.41
251.829	14.91
252.091	15.35
252.353	11.32
252.615	13.16
252.876	11.32
253.138	7.95
253.4	4.99
253.662	6.49
253.924	8.29
254.185	9.15
254.447	10.87
254.709	10.84
254.971	11.21
255.232	12.71
255.494	10.46
255.756	7.78
256.017	6.67
256.279	8.13
256.541	9.2
256.802	10.15
257.064	9.95
257.326	9.07
257.587	9.79
257.849	11.2
258.11	12.82
258.372	13.12
258.633	15.15
258.895	13.23
259.156	13.26
259.418	11.63
259.679	6.73
259.941	3.64
260.202	6.3
260.464	8.46
260.725	6.74
260.987	5.22
261.248	5.45
261.509	6.7
261.771	4.56
262.032	7.8
262.293	8.58
262.555	7.63
262.816	6.76
263.077	3.51
263.338	1.41
263.6	2.2
263.861	1.81
264.122	1.77
264.383	2.89
264.645	4.07
264.906	1.83
265.167	2.39
265.428	1.35
265.689	1.21
265.95	-1.35
266.211	1.37
266.473	0.61
266.734	-2.5
266.995	-5.1
267.256	-5
267.517	-2.46
267.778	1.08
268.039	2.67
268.3	-0.33
268.561	-2.72
268.822	-0.55
269.083	-1.8
269.344	-3.25
269.604	-4.65
269.865	-2.8
270.126	-7.5
270.387	-7.24
270.648	-5.64
270.909	-6.25
271.17	-6.8
271.43	-10.03
271.691	-13.12
271.952	-13.71
272.213	-11.67
272.473	-14.01
272.734	-13.25
272.995	-11.45
273.256	-10.73
273.516	-7.34
273.777	-9.93
274.038	-7.16
274.298	-10.53
274.559	-10.91
274.82	-5.93
275.08	-3.02
275.341	-0.86
275.601	-2.2
275.862	-4.7
276.122	-3.86
276.383	-2.25
276.643	0.47
276.904	-0.29
277.164	4.77
277.425	4.63
277.685	8.28
277.946	7.76
278.206	8.72
278.467	10.69
278.727	10.2
278.987	10.44
279.248	9.73
279.508	11.43
279.768	14.05
280.029	16.2
280.289	12.9
280.549	11.1
280.81	10.27
281.07	9.11
281.33	10.14
281.59	8.07
281.851	12.76
282.111	12.54
282.371	12.21
282.631	14.97
282.891	12.79
283.151	10.95
283.412	8.6
283.672	9.28
283.932	10.29
284.192	11.84
284.452	9.59
284.712	7.07
284.972	6.24
285.232	3.05
285.492	6.04
285.752	3.93
286.012	10.82
286.272	12
286.532	8.9
286.792	10.55
287.052	12
287.312	12.57
287.571	10.74
287.831	13.03
288.091	9.88
288.351	11.31
288.611	15.24
288.871	15.45
289.13	15.61
289.39	12.25
289.65	13.85
289.91	10.51
290.17	12.18
290.429	15.36
290.689	11.92
290.949	9.21
291.208	10.13
291.468	13.33
291.728	13.1
291.987	13.66
292.247	11.89
292.506	13.76
292.766	16.08
293.026	14.57
293.285	15.67
293.545	17.6
293.804	18.3
294.064	14.38
294.323	12.42
294.583	12.86
294.842	10.76
295.102	11.27
295.361	12.5
295.621	13.9
295.88	13.63
296.139	13.34
296.399	14.02
296.658	9.18
296.917	8.44
297.177	6.3
297.436	7.36
297.695	5.3
297.955	7.29
298.214	4.53
298.473	5.43
298.732	8.65
298.992	12.32
299.251	12.74
299.51	8.72
299.769	10.36
300.028	11.66
300.287	11.75
300.547	12.74
300.806	11.03
301.065	14.87
301.324	16.07
301.583	11.71
301.842	7.28
302.101	5.13
302.36	5.2
302.619	5
302.878	7.55
303.137	5.11
303.396	6.03
303.655	8.38
303.914	4.88
304.173	5.5
304.432	5.41
304.691	9.84
304.95	8.15
305.208	13.03
305.467	14.65
305.726	14.1
305.985	15.2
306.244	17.52
306.503	16.56
306.761	13.95
307.02	10.6
307.279	10.7
307.537	11.27
307.796	7.43
308.055	4.62
308.314	6.33
308.572	4.53
308.831	5.84
309.09	5.75
309.348	6.83
309.607	7.43
309.865	11.73
310.124	11.42
310.382	13.32
310.641	13.69
310.9	11.68
311.158	12.59
311.417	12.42
311.675	11.83
311.933	12.06
312.192	14.09
312.45	13.17
312.709	10.74
312.967	10.88
313.226	10.72
313.484	9.19
313.742	8.24
314.001	5.45
314.259	3.42
314.517	4.44
314.776	6.51
315.034	8.72
315.292	6.74
315.55	5.45
315.809	4.48
316.067	4.34
316.325	2.7
316.583	4.59
316.841	2.82
317.1	0.12
317.358	-3.4
317.616	-4.2
317.874	-5.79
318.132	-5.94
318.39	-5.34
318.648	-6.4
318.906	-7.3
319.164	-8.87
319.422	-9.66
319.68	-11.48
319.938	-9.6
320.196	-10.62
320.454	-8.4
320.712	-7.42
320.97	-7.15
321.228	-10.34
321.486	-8.92
321.744	-7.54
322.002	-6.01
322.26	-7.24
322.517	-8.09
322.775	-11.78
323.033	-11.87
323.291	-8.89
323.549	-5.99
323.806	-3.73
324.064	-1.89
324.322	-0.42
324.58	-2.42
324.837	0.33
325.095	-0.8
325.353	1.82
325.61	4.25
325.868	4.09
326.126	6.48
326.383	4.99
326.641	4.93
326.898	6.55
327.156	6.35
327.413	7.34
327.671	8.35
327.928	9.71
328.186	9.57
328.443	8.11
328.701	11.83
328.958	13.69
329.216	15.57
329.473	13.03
329.731	13.6
329.988	13.26
330.245	15.84
330.503	15.18
330.76	16.37
331.017	18.34
331.275	15.4
331.532	13.5
331.789	11.72
332.047	11.41
332.304	7.63
332.561	9.03
332.818	7.67
333.076	8.91
333.333	9.64
333.59	10.84
333.847	13.29
334.104	10.81
334.361	10.2
334.618	8.94
334.876	6.36
335.133	7.59
335.39	5.86
335.647	7.02
335.904	3.42
336.161	1.89
336.418	2.08
336.675	-3.02
336.932	-3.17
337.189	-5.17
337.446	-2.98
337.703	-4.26
337.96	-7.79
338.216	-6.39
338.473	-7.61
338.73	-6.76
338.987	-7.98
339.244	-4.39
339.501	-5.79
339.757	-4.24
340.014	-4.16
340.271	-2.5
340.528	-2.9
340.785	-0.1
341.041	0.75
341.298	-3.45
341.555	-4.86
341.811	-5.83
342.068	-8.01
342.325	-8.42
342.581	-5.64
342.838	-3.43
343.094	-2.7
343.351	-4.04
343.608	-6.63
343.864	-4.31
344.121	-3.23
344.377	-4.54
344.634	-4.78
344.89	-5.93
345.147	-4.83
345.403	-7.37
345.66	-6.98
345.916	-4.94
346.172	-8.41
346.429	-9.39
346.685	-10.09
346.942	-9.98
347.198	-13.87
347.454	-12.54
347.711	-12.99
347.967	-16.23
348.223	-15.08
348.48	-14.91
348.736	-11.22
348.992	-12.69
349.248	-8.82
349.504	-8.47
349.761	-9.92
350.017	-9.19
350.273	-9.3
350.529	-9.88
350.785	-10.95
351.041	-12.25
351.297	-9.49
351.554	-11.1
351.81	-12.58
352.066	-13.74
352.322	-13.56
352.578	-12.3
352.834	-12.93
353.09	-13.08
353.346	-11.84
353.602	-13.36
353.858	-14.75
354.114	-15.74
354.369	-14.69
354.625	-13.4
354.881	-15.11
355.137	-12.62
355.393	-11.58
355.649	-11.26
355.905	-9.89
356.16	-9.63
356.416	-9.29
356.672	-15.99
356.928	-14.49
357.183	-16.33
357.439	-17.96
357.695	-19.31
357.951	-14.97
358.206	-15.67
358.462	-16.02
358.718	-17.65
358.973	-17.41
359.229	-18.37
359.484	-16.53
359.74	-13.92
359.996	-11.99
360.251	-8.54
360.507	-8.91
360.762	-9.97
361.018	-8.19
361.273	-11.15
361.529	-8.97
361.784	-8.33
362.04	-5.24
362.295	-6.13
362.55	-6.69
362.806	-5
363.061	-4.12
363.316	-4.34
363.572	-3.95
363.827	-1.75
364.082	-4.36
364.338	-5.47
364.593	-5.94
364.848	-5.28
365.104	-6
365.359	-2.72
365.614	-1.45
365.869	-3.5
366.124	-2.41
366.38	-3.25
366.635	-1.47
366.89	0.35
367.145	0.11
367.4	3.06
367.655	2.56
367.91	1.57
368.165	0.45
368.42	-2.55
368.675	-0.34
368.93	0.81
369.185	0.09
369.44	0.3
369.695	3.43
369.95	2.32
370.205	2.51
370.46	1.48
370.715	2.31
370.97	2.6
371.225	4.55
371.48	5.74
371.734	5.73
371.989	7.13
372.244	7.17
372.499	9.06
372.754	7.54
373.008	3.96
373.263	-0.44
373.518	1.9
373.773	0.03
374.027	-0.32
374.282	1.2
374.537	2.84
374.791	4.63
375.046	3.79
375.301	1.82
375.555	1.13
375.81	3.42
376.064	2.82
376.319	6.93
376.573	5.63
376.828	-0.09
377.082	4.46
377.337	2.26
377.591	-1.58
377.846	-1.9
378.1	-0.39
378.355	0.25
378.609	-1.05
378.863	-3.46
379.118	-4.54
379.372	-5.13
379.627	-7.85
379.881	-9.53
380.135	-9.3
380.389	-9.24
380.644	-8.99
380.898	-6.47
381.152	-5.3
381.407	-4.94
381.661	-1.82
381.915	-0.89
382.169	0.44
382.423	-1.11
382.677	-5.34
382.932	-4.42
383.186	-2.85
383.44	-2.81
383.694	-1.79
383.948	-3.92
384.202	-5.38
384.456	-2.79
384.71	-0.11
384.964	-1.58
385.218	1.38
385.472	2.97
385.726	2.12
385.98	3.88
386.234	4.74
386.488	1.5
386.742	1.34
386.996	-0.59
387.249	-0.43
387.503	1.27
387.757	3.44
388.011	4.51
388.265	4.43
388.518	5.63
388.772	8.33
389.026	8.84
389.28	4.84
389.533	2.52
389.787	3.99
390.041	0.64
390.295	0.66
390.548	0.71
390.802	4.16
391.055	2.97
391.309	3.34
391.563	0.91
391.816	2.24
392.07	0.91
392.323	1.56
392.577	2.73
392.83	3.97
393.084	8.54
393.337	12.35
393.591	14.15
393.844	13.34
394.098	17.57
394.351	22.48
394.604	25.73
394.858	27.41
395.111	27.75
395.364	27.28
395.618	26.94
395.871	23.42
396.124	22.22
396.378	21.61
396.631	20.24
396.884	18.31
397.137	18.87
397.391	20.21
397.644	17.56
397.897	19.78
398.15	21.33
398.403	24.23
398.657	22.21
398.91	22.03
399.163	22.03
399.416	21.85
399.669	19.99
399.922	18.28
400.175	16.67
400.428	15.58
400.681	16.31
400.934	11.22
401.187	9.66
401.44	8.01
401.693	5.5
401.946	1.41
402.199	-2.46
402.452	-5.38
402.704	-9.49
402.957	-10.74
403.21	-9.7
403.463	-9.7
403.716	-7.01
403.969	-4.91
404.221	-5.36
404.474	-3.55
404.727	-0.19
404.98	2.77
405.232	2.37
405.485	4.96
405.738	5.79
405.99	5.06
406.243	5.72
406.496	6.75
406.748	5.63
407.001	3.68
407.253	3.88
407.506	5.05
407.759	8.28
408.011	6.13
408.264	6.32
408.516	5.23
408.769	3.65
409.021	5.21
409.274	7.27
409.526	9.47
409.778	7.91
410.031	10.27
410.283	11.69
410.536	18.75
410.788	18.58
411.04	17.97
411.293	18.85
411.545	20.1
411.797	19.14
412.049	19.29
412.302	19.84
412.554	21.31
412.806	19.64
413.058	18.16
413.311	17.62
413.563	16.52
413.815	16.82
414.067	14.87
414.319	14.42
414.571	16.2
414.823	14.79
415.075	13.69
415.328	15.21
415.58	17.83
415.832	18.74
416.084	20.41
416.336	19.54
416.588	23.59
416.84	20.13
417.091	22.78
417.343	19.03
417.595	22.05
417.847	22.81
418.099	22.26
418.351	20.33
418.603	21.16
418.855	22.64
419.106	23.48
419.358	23.51
419.61	23.44
419.862	23.34
420.114	21.33
420.365	20.56
420.617	19.93
420.869	18.48
421.12	17.87
421.372	19.98
421.624	19.7
421.875	19.07
422.127	15.84
422.379	14.53
422.63	17.4
422.882	16.71
423.133	15.94
423.385	15.7
423.636	16.88
423.888	19.19
424.139	20.4
424.391	17.92
424.642	16.79
424.894	13.11
425.145	13.11
425.396	9.95
425.648	11.8
425.899	11.1
426.151	9.73
426.402	9.46
426.653	8.82
426.905	7.73
427.156	6.16
427.407	6.29
427.658	6.25
427.91	5.11
428.161	3.73
428.412	7.81
428.663	10.16
428.914	11.28
429.166	11.38
429.417	11.14
429.668	11.94
429.919	10.46
430.17	10
430.421	10.25
430.672	14.74
430.923	15.26
431.174	14.57
431.425	16.01
431.676	14.64
431.927	12.18
432.178	14.87
432.429	16.39
432.68	16.58
432.931	21.53
433.182	25.08
433.433	23.17
433.683	24.86
433.934	27.01
434.185	26.73
434.436	26.11
434.687	27.83
434.937	29.74
435.188	28.84
435.439	28.79
435.69	30.57
435.94	30.88
436.191	29.82
436.442	28.63
436.692	27.45
436.943	25.06
437.194	24.64
437.444	26.7
437.695	32.77
437.945	34.72
438.196	35.56
438.447	35.26
438.697	36.12
438.948	35.07
439.198	32.55
439.449	29.62
439.699	32.13
439.949	31.12
440.2	30.62
440.45	32.69
440.701	32.16
440.951	30.87
441.201	32.02
441.452	31.89
441.702	31.29
441.952	32.94
442.203	34.85
442.453	33.27
442.703	34.3
442.953	36.61
443.204	39.13
443.454	37.75
443.704	39.1
443.954	37.44
444.204	38.65
444.455	42.15
444.705	45.04
444.955	46.24
445.205	45.73
445.455	43.47
445.705	44.62
445.955	44.37
446.205	44.25
446.455	45.76
446.705	46.91
446.955	48.24
447.205	50.41
447.455	53.6
447.705	52.76
447.955	53.38
448.205	55.48
448.454	55.4
448.704	59.32
448.954	58.26
449.204	59.21
449.454	59.33
449.704	58.86
449.953	59.7
450.203	63.74
450.453	62.84
450.703	65.16
450.952	65.48
451.202	68.61
451.452	69.72
451.701	73.56
451.951	79.18
452.201	77.79
452.45	78.15
452.7	81.21
452.949	82.71
453.199	83.23
453.448	85.27
453.698	86.87
453.947	85.98
454.197	85.14
454.446	85.3
454.696	90.01
454.945	90.36
455.195	88.91
455.444	89.13
455.693	92.92
455.943	90.76
456.192	93.17
456.442	92.16
456.691	93.99
456.94	94.07
457.189	94.74
457.439	98.16
457.688	100.29
457.937	99.26
458.186	100.22
458.436	100.34
458.685	100.98
458.934	99.45
459.183	98.36
459.432	100.14
459.681	98.68
459.93	97.67
460.179	97.25
460.429	94.73
460.678	96.96
460.927	99.18
461.176	98.19
461.425	98.12
461.674	100.37
461.923	100.94
462.172	100.53
462.42	98.26
462.669	101.48
462.918	101.27
463.167	102.21
463.416	99.89
463.665	99.99
463.914	100.29
464.162	98.36
464.411	98.52
464.66	99.52
464.909	97.13
465.158	94.88
465.406	93.45
465.655	94.44
465.904	96.24
466.152	96.46
466.401	95.42
466.65	96.23
466.898	94.88
467.147	90.29
467.395	90.44
467.644	92.39
467.893	91.19
468.141	90.1
468.39	87.29
468.638	85.63
468.887	84.68
469.135	84.18
469.384	83.57
469.632	83.55
469.88	84.39
470.129	84.9
470.377	79.92
470.626	82.84
470.874	83.56
471.122	84.99
471.371	84.26
471.619	81.01
471.867	83.91
472.115	83.51
472.364	83.26
472.612	86.97
472.86	87.33
473.108	87.21
473.356	87.64
473.605	85.78
473.853	83.03
474.101	83.3
474.349	82.89
474.597	85.27
474.845	84.03
475.093	81.54
475.341	80.17
475.589	81.29
475.837	84.06
476.085	84.68
476.333	82.25
476.581	84.39
476.829	84.28
477.077	86.23
477.325	86.21
477.573	86.24
477.821	84.06
478.069	85.36
478.317	84.45
478.564	87.27
478.812	84.03
479.06	82.62
479.308	83.48
479.555	83.07
479.803	81.93
480.051	82.51
480.299	82.12
480.546	81.94
480.794	79.74
481.042	80.41
481.289	80.45
481.537	82.14
481.784	80.27
482.032	84.34
482.28	83.95
482.527	83.71
482.775	84.81
483.022	86.69
483.27	88.82
483.517	91.91
483.765	91.26
484.012	92.87
484.259	89.25
484.507	91.52
484.754	92.24
485.002	92.39
485.249	91.64
485.496	95.76
485.744	97.07
485.991	96.21
486.238	93.87
486.486	97.75
486.733	100.09
486.98	103.86
487.227	103.09
487.474	106.82
487.722	109.6
487.969	108.79
488.216	109.31
488.463	111.05
488.71	109.12
488.957	109.31
489.204	108.51
489.451	111.09
489.699	109.86
489.946	108.49
490.193	109.47
490.44	110.12
490.687	109.52
490.934	107.11
491.18	104.65
491.427	108.1
491.674	111.98
491.921	113.84
492.168	112.43
492.415	110.54
492.662	112.27
492.909	115.67
493.155	116.41
493.402	115.33
493.649	115.33
493.896	116.92
494.142	114.45
494.389	114.81
494.636	111.81
494.883	111.6
495.129	110.05
495.376	108.66
495.623	110.7
495.869	112.99
496.116	115.4
496.362	117.57
496.609	120.84
496.855	126.87
497.102	127.15
497.348	127.75
497.595	129.44
497.841	135.48
498.088	134.26
498.334	135.56
498.581	136.02
498.827	135.04
499.074	136.79
499.32	137.48
499.566	141.96
499.813	143.82
500.059	144.94
500.305	145.56
500.552	145.11
500.798	143.44
501.044	147.42
501.29	145.68
501.537	144.96
501.783	148.39
502.029	152.36
502.275	150.73
502.521	148.73
502.767	148.99
503.013	152.58
503.26	150.93
503.506	148.22
503.752	150.04
503.998	148.72
504.244	149.4
504.49	147.27
504.736	148.69
504.982	148.61
505.228	152.67
505.474	153.15
505.72	155.94
505.966	155.99
506.211	159.17
506.457	159.96
506.703	156.58
506.949	155.92
507.195	155.26
507.441	153.88
507.686	155.08
507.932	155.39
508.178	156.8
508.424	155.88
508.669	154.41
508.915	156.96
509.161	158.37
509.406	159.8
509.652	159.26
509.898	162.96
510.143	165.28
510.389	165.62
510.634	161.98
510.88	166.06
511.125	168.65
511.371	168.89
511.616	169.71
511.862	167.42
512.107	165.56
512.353	166.95
512.598	166.88
512.844	163.97
513.089	161.32
513.335	161.82
513.58	161.62
513.825	161.54
514.071	160.23
514.316	160.88
514.561	161.31
514.806	160.05
515.052	162.39
515.297	160.68
515.542	160.97
515.787	160.9
516.033	163.85
516.278	164.22
516.523	163.84
516.768	164.12
517.013	161.71
517.258	160.81
517.503	160.32
517.748	160.84
517.993	160.4
518.238	160.83
518.483	157.98
518.728	157.6
518.973	155.09
519.218	155.83
519.463	157.14
519.708	154.5
519.953	152.6
520.198	152.07
520.443	153.51
520.688	156.23
520.933	155.51
521.177	153.51
521.422	150.91
521.667	154.46
521.912	153.9
522.157	150.44
522.401	152.2
522.646	151.33
522.891	152.42
523.135	152.98
523.38	154.35
523.625	151.12
523.869	152.46
524.114	152.54
524.358	150.35
524.603	150.19
524.848	147.94
525.092	147.69
525.337	148.29
525.581	149.93
525.826	150.97
526.07	151.4
526.315	152.69
526.559	151.65
526.803	148.95
527.048	151.41
527.292	152.73
527.537	152.8
527.781	153.09
528.025	149.92
528.269	149.42
528.514	148.32
528.758	148.49
529.002	148.51
529.247	151.57
529.491	149.85
529.735	153.56
529.979	152.92
530.223	153.59
530.467	150.24
530.712	147.52
530.956	145.36
531.2	146.93
531.444	143.66
531.688	144.91
531.932	144.84
532.176	145.5
532.42	147.5
532.664	148.59
532.908	147.32
533.152	145.21
533.396	143.66
533.64	141.71
533.884	138.24
534.128	137.26
534.371	139.2
534.615	139.78
534.859	140.19
535.103	138.34
535.347	137.46
535.59	139.23
535.834	135.8
536.078	138.07
536.322	139.28
536.565	140.9
536.809	137.96
537.053	140.84
537.296	138.67
537.54	137.95
537.784	136.97
538.027	139.56
538.271	139.66
538.514	138.61
538.758	137.87
539.001	137.77
539.245	137.03
539.488	137.92
539.732	138.62
539.975	138.37
540.219	139.49
540.462	140.02
540.706	141.25
540.949	141.84
541.192	144.48
541.436	150.54
541.679	156.53
541.922	156.15
542.166	150.99
542.409	151.13
542.652	153.72
542.895	156.45
543.139	157.14
543.382	163.36
543.625	163.17
543.868	163.79
544.111	163.24
544.354	162.24
544.598	161.21
544.841	162.08
545.084	162.1
545.327	161.22
545.57	161.62
545.813	163.5
546.056	163.94
546.299	164.59
546.542	166.75
546.785	170.13
547.028	171.04
547.271	171.97
547.514	172.68
547.756	170.05
547.999	171.12
548.242	172.28
548.485	171.1
548.728	170.68
548.971	166.14
549.213	165.81
549.456	165.28
549.699	166.01
549.942	166.05
550.184	165.34
550.427	164.14
550.67	163.06
550.912	157.06
551.155	157.79
551.398	157.91
551.64	157.72
551.883	157.79
552.125	156.96
552.368	158.4
552.61	154.92
552.853	158.12
553.095	157.32
553.338	156.61
553.58	156.98
553.823	156.31
554.065	158.33
554.308	153.79
554.55	151.69
554.792	148.98
555.035	146.71
555.277	146.75
555.519	146
555.762	143.51
556.004	144.18
556.246	140.92
556.488	142.64
556.731	138.7
556.973	140.82
557.215	141.06
557.457	142.61
557.699	145.35
557.941	143.4
558.183	143.95
558.426	146.63
558.668	142.93
558.91	142.61
559.152	143.94
559.394	144.17
559.636	145.34
559.878	145.55
560.12	146.37
560.362	146.19
560.604	147.13
560.845	147.4
561.087	145.95
561.329	147.95
561.571	146.09
561.813	148.03
562.055	148
562.297	149.17
562.538	150.88
562.78	153.59
563.022	151.49
563.264	153.83
563.505	154.52
563.747	154.51
563.989	151.65
564.23	151.07
564.472	149.26
564.714	151.62
564.955	151.86
565.197	148.38
565.438	149.66
565.68	153.27
565.921	151.66
566.163	154.83
566.404	155.2
566.646	157.12
566.887	159.59
567.129	161.06
567.37	159
567.612	161.92
567.853	160.32
568.094	162.45
568.336	162.35
568.577	165.01
568.818	166.15
569.06	164.08
569.301	162.59
569.542	163.93
569.783	165.27
570.025	165.51
570.266	167.35
570.507	170.31
570.748	171.27
570.989	171.77
571.23	175.61
571.472	176.78
571.713	177.19
571.954	179.93
572.195	179.52
572.436	183
572.677	186.16
572.918	188.82
573.159	187.15
573.4	185.97
573.641	185.54
573.882	186.26
574.123	185.3
574.364	181.48
574.604	183.71
574.845	182.78
575.086	183.43
575.327	185.75
575.568	185.18
575.809	186.34
576.049	185.8
576.29	184.23
576.531	191.12
576.771	195.72
577.012	199.02
577.253	202.18
577.494	202.83
577.734	202.27
577.975	202.33
578.215	200.41
578.456	199.48
578.697	200.27
578.937	203.31
579.178	205.38
579.418	204.44
579.659	204.18
579.899	200.44
580.14	199.4
580.38	198.83
580.62	199.03
580.861	204.7
581.101	206.21
581.342	207.92
581.582	203.56
581.822	207.49
582.063	205.6
582.303	208.38
582.543	209.11
582.783	210.79
583.024	214.47
583.264	217.73
583.504	216.63
583.744	219.14
583.984	217.32
584.224	216.94
584.465	216.79
584.705	216.31
584.945	217.93
585.185	219.32
585.425	222.5
585.665	224.88
585.905	226.29
586.145	227.24
586.385	227.66
586.625	229.89
586.865	230.96
587.105	233.59
587.345	235.95
587.585	238.79
587.824	239.91
588.064	242.67
588.304	240
588.544	241.84
588.784	242.14
589.024	247.98
589.263	248.55
589.503	249.52
589.743	253.03
589.982	252.94
590.222	254.04
590.462	251.85
590.701	251.58
590.941	257.66
591.181	258.1
591.42	259.33
591.66	263.73
591.899	266.93
592.139	267.12
592.378	269.49
592.618	269.16
592.857	269.84
593.097	272.96
593.336	275.63
593.576	277.05
593.815	278.58
594.055	279.89
594.294	281.97
594.533	281.87
594.773	282.61
595.012	284.08
595.251	285.83
595.491	289.63
595.73	295.21
595.969	295.58
596.208	298.72
596.447	303.86
596.687	305.81
596.926	306.95
597.165	305.99
597.404	310.54
597.643	310.04
597.882	310.25
598.121	311.08
598.36	312.41
598.599	314.52
598.838	315.72
599.077	312.99
599.316	313.78
599.555	314.55
599.794	315.45
600.033	319.35
600.272	321.58
600.511	320.78
600.75	322.3
600.989	325.86
601.228	325.82
601.466	326.96
601.705	329.04
601.944	330.53
602.183	332.76
602.422	333.13
602.66	332.24
602.899	331.56
603.138	332.24
603.376	333.46
603.615	333.39
603.854	331.73
604.092	331.59
604.331	334.19
604.569	335.07
604.808	333.37
605.047	336.77
605.285	338.33
605.524	338.08
605.762	334.43
606	335.82
606.239	335.74
606.477	336.53
606.716	331.8
606.954	331.01
607.193	328.86
607.431	322.89
607.669	320.78
607.908	318.79
608.146	320.09
608.384	316.91
608.622	316.83
608.861	315.2
609.099	313.45
609.337	311.84
609.575	311.29
609.813	311.34
610.052	311.19
610.29	305.24
610.528	300.65
610.766	299.69
611.004	297.96
611.242	294.86
611.48	293.48
611.718	289.21
611.956	288.42
612.194	286.97
612.432	283.25
612.67	281.59
612.908	282.16
613.146	280.5
613.384	279.84
613.621	277.96
613.859	277.57
614.097	276.52
614.335	275.9
614.573	276.58
614.811	278.64
615.048	276.52
615.286	278.18
615.524	275.84
615.761	274.19
615.999	273.72
616.237	271.99
616.474	272.08
616.712	273.19
616.95	270.65
617.187	268.85
617.425	269.56
617.662	271.33
617.9	270.05
618.137	267.01
618.375	265.55
618.612	263.76
618.85	265.55
619.087	268.2
619.325	267.09
619.562	265.53
619.799	264.33
620.037	262.79
620.274	261.76
620.511	263.77
620.749	260
620.986	257.76
621.223	253.91
621.461	254.19
621.698	255.24
621.935	252.72
622.172	251.15
622.409	251.89
622.647	250.32
622.884	247.09
623.121	246.69
623.358	244.25
623.595	243.8
623.832	243.73
624.069	240.51
624.306	240.41
624.543	242.06
624.78	241.58
625.017	239.67
625.254	242.57
625.491	244.4
625.728	245.25
625.965	243.9
626.202	241.88
626.438	240.06
626.675	238.28
626.912	240
627.149	240.62
627.386	239
627.622	237.99
627.859	235.96
628.096	234.67
628.333	234.32
628.569	234.95
628.806	235.88
629.043	233.81
629.279	234.44
629.516	235.09
629.752	231.63
629.989	231.06
630.225	228.9
630.462	229.55
630.699	228.47
630.935	228.38
631.171	223.97
631.408	222.89
631.644	221.38
631.881	216.65
632.117	213.81
632.354	216
632.59	212.56
632.826	211.01
633.063	209.84
633.299	211.98
633.535	208.44
633.771	207.3
634.008	210.01
634.244	208.14
634.48	204.33
634.716	205.97
634.953	203.31
635.189	202.65
635.425	205.19
635.661	207.08
635.897	204.81
636.133	203.37
636.369	201.47
636.605	197.23
636.841	196.63
637.077	198.19
637.313	196.14
637.549	197.31
637.785	194.11
638.021	194.75
638.257	191.64
638.493	193.41
638.729	190.5
638.965	193.64
639.2	195.03
639.436	193.04
639.672	190.65
639.908	188.19
640.144	190.57
640.379	191.23
640.615	187.46
640.851	188.86
641.086	188.54
641.322	184.6
641.558	183.62
641.793	183.7
642.029	180.94
642.264	179.4
642.5	178.57
642.736	173.38
642.971	172.54
643.207	170.59
643.442	168.67
643.678	169.16
643.913	170.34
644.148	168.03
644.384	168.58
644.619	167.95
644.855	167.66
645.09	169.23
645.325	167.51
645.561	168.02
645.796	164.2
646.031	169.13
646.266	163.28
646.502	161.33
646.737	162.21
646.972	161.81
647.207	161.63
647.442	158.6
647.678	154.91
647.913	156.32
648.148	156.43
648.383	153.9
648.618	155.5
648.853	155.22
649.088	157.34
649.323	159.64
649.558	160.18
649.793	160.69
650.028	160.02
650.263	156.14
650.498	157.69
650.733	157.14
650.968	154.44
651.202	156.6
651.437	153.34
651.672	150.1
651.907	148.47
652.142	148.61
652.376	147.47
652.611	149.96
652.846	149.98
653.081	149.44
653.315	146.61
653.55	147.97
653.785	146.32
654.019	148.16
654.254	144.25
654.488	145.73
654.723	141.63
654.958	139.79
655.192	138.34
655.427	135.26
655.661	136.83
655.896	136.35
656.13	137.16
656.364	132.2
656.599	128.01
656.833	131.13
657.068	132.7
657.302	131.61
657.536	130.49
657.771	132.26
658.005	131.88
658.239	133.49
658.474	128.73
658.708	129.76
658.942	129.03
659.176	127.67
659.41	124.06
659.645	122.99
659.879	120.07
660.113	116.87
660.347	116.56
660.581	113.34
660.815	111.62
661.049	110.65
661.283	107.1
661.517	106.09
661.751	104.8
661.985	103.46
662.219	104.44
662.453	102.35
662.687	103.4
662.921	98.51
663.155	97.64
663.389	90.7
663.622	89.59
663.856	90.96
664.09	86.45
664.324	84.73
664.558	85.08
664.791	83.26
665.025	80.37
665.259	80.38
665.492	77.67
665.726	80.79
665.96	81.21
666.193	78.96
666.427	78.97
666.661	77.95
666.894	76.24
667.128	74.63
667.361	76.64
667.595	76.33
667.828	76.44
668.062	75.21
668.295	75.3
668.529	76.65
668.762	77.36
668.995	74.02
669.229	77.26
669.462	77.43
669.695	77.42
669.929	73.69
670.162	76.32
670.395	73.17
670.629	74.61
670.862	77.22
671.095	73.97
671.328	72.57
671.561	68.75
671.795	69.46
672.028	70.89
672.261	71.76
672.494	71.67
672.727	71.41
672.96	70.71
673.193	68.86
673.426	73.34
673.659	73.31
673.892	73.72
674.125	71.58
674.358	71.94
674.591	69.51
674.824	68.07
675.057	67.13
675.29	65.92
675.523	66.42
675.755	63.41
675.988	63.52
676.221	66.58
676.454	64.88
676.687	64.22
676.919	63.13
677.152	64.35
677.385	61.7
677.617	61.82
677.85	62.1
678.083	60.41
678.315	62.88
678.548	61.47
678.78	60.52
679.013	59.08
679.246	59.26
679.478	57.96
679.711	57.92
679.943	58.81
680.175	55.52
680.408	59.01
680.64	53.19
680.873	54.83
681.105	54.8
681.338	58.22
681.57	55.92
681.802	57.66
682.034	56.92
682.267	58.66
682.499	59.98
682.731	57.47
682.964	54.79
683.196	53.09
683.428	50.71
683.66	48.14
683.892	50.75
684.124	53.72
684.356	56.11
684.589	57.02
684.821	56.37
685.053	56.87
685.285	56.98
685.517	57.41
685.749	58.99
685.981	59.58
686.213	59.24
686.445	59.14
686.676	57.11
686.908	56.45
687.14	55.16
687.372	56.27
687.604	52.24
687.836	53.83
688.068	52.66
688.299	51.68
688.531	49.33
688.763	53.61
688.995	50.75
689.226	55.41
689.458	54.14
689.69	53.09
689.921	51.27
690.153	53.11
690.384	53.75
690.616	52.37
690.848	53.93
691.079	49.13
691.311	44.42
691.542	42
691.774	39.66
692.005	41.28
692.237	43.84
692.468	41.65
692.699	40.3
692.931	39.59
693.162	37.27
693.393	37.26
693.625	34.53
693.856	36.53
694.087	35.9
694.319	36.11
694.55	35.35
694.781	34.47
695.012	35.23
695.243	32.28
695.475	32.47
695.706	31.5
695.937	30.66
696.168	30.55
696.399	26.19
696.63	26.12
696.861	25.95
697.092	30.3
697.323	32.84
697.554	34.01
697.785	34.06
698.016	33.97
698.247	33.44
698.478	35.18
698.709	36.11
698.94	38.22
699.171	38.09
699.401	33.95
699.632	35.93
699.863	32.13
700.094	31.74
700.325	35.11
700.555	35.89
700.786	37.88
701.017	36.92
701.247	35.3
701.478	35.45
701.709	35.08
701.939	33.45
702.17	33.79
702.401	36.19
702.631	38.09
702.862	37.06
703.092	32.92
703.323	35.18
703.553	36.83
703.784	35.98
704.014	35.92
704.244	31.49
704.475	28.98
704.705	28.09
704.936	28.56
705.166	27.59
705.396	29
705.627	30.83
705.857	28.84
706.087	28.82
706.317	26.85
706.548	23.83
706.778	22.11
707.008	24.43
707.238	23.97
707.468	20.87
707.698	18.29
707.928	18.27
708.158	15.89
708.389	16.2
708.619	15.48
708.849	14.27
709.079	15.74
709.309	13.35
709.539	11.41
709.768	8.95
709.998	11.35
710.228	12.52
710.458	11.72
710.688	10.14
710.918	10.67
711.148	9.38
711.378	10.05
711.607	8.88
711.837	9.98
712.067	9.6
712.297	10.37
712.526	9.62
712.756	9.5
712.986	7.33
713.215	5.73
713.445	7.37
713.674	11.38
713.904	10.65
714.134	12.34
714.363	12.01
714.593	11.12
714.822	10.64
715.052	9.27
715.281	12.01
715.511	10.18
715.74	9.64
715.969	9.03
716.199	9.09
716.428	9.63
716.657	9.59
716.887	12.2
717.116	9.11
717.345	10.29
717.575	9.18
717.804	8.63
718.033	6.15
718.262	4.82
718.492	5.28
718.721	6.16
718.95	5.01
719.179	2.29
719.408	1.94
719.637	0.48
719.866	-2.2
720.095	0.44
720.324	0.27
720.553	-4.98
720.782	-8.3
721.011	-7.05
721.24	-9.51
721.469	-9.07
721.698	-8.42
721.927	-7.75
722.156	-8.05
722.385	-10.22
722.613	-7.08
722.842	-7.52
723.071	-4.6
723.3	-3.66
723.529	-4.11
723.757	-3.91
723.986	-7.52
724.215	-7.24
724.443	-6.23
724.672	-2.77
724.901	-1.52
725.129	1.14
725.358	5.1
725.586	3.62
725.815	4
726.043	2.54
726.272	1.26
726.5	2.45
726.729	3.19
726.957	0.63
727.186	-2.28
727.414	-2.23
727.642	0.84
727.871	1.95
728.099	0.82
728.327	1.46
728.556	3.28
728.784	4.81
729.012	3.11
729.241	4.88
729.469	4.73
729.697	2.05
729.925	3.74
730.153	1.06
730.381	0.38
730.61	0.42
730.838	-2.43
731.066	-0.91
731.294	0.52
731.522	-3.81
731.75	-8.99
731.978	-9.85
732.206	-10.74
732.434	-12.71
732.662	-9.94
732.89	-12.55
733.118	-14.48
733.346	-11.93
733.573	-12.66
733.801	-13.14
734.029	-6.45
734.257	-4.13
734.485	-0.19
734.712	0.57
734.94	-0.62
735.168	3.3
735.396	2.54
735.623	0.76
735.851	1.26
736.078	2.96
736.306	2.69
736.534	2.66
736.761	3.65
736.989	-0.04
737.216	0.94
737.444	-1.06
737.671	0.17
737.899	4.69
738.126	3.88
738.354	3.55
738.581	6.06
738.809	8.24
739.036	6.07
739.263	6.15
739.491	4.05
739.718	2.26
739.945	7.92
740.173	11.76
740.4	10.53
740.627	9.46
740.854	9.04
741.081	5.58
741.309	3.4
741.536	-1.6
741.763	-2.42
741.99	0.24
742.217	0.22
742.444	-0.05
742.671	0.96
742.898	0.28
743.125	-1.67
743.352	-3.93
743.579	-4.78
743.806	-5.86
744.033	-2.19
744.26	-1.84
744.487	-2.1
744.714	-3.1
744.941	-2.97
745.167	-0.11
745.394	-0.58
745.621	-1.46
745.848	-1
746.075	2.44
746.301	5.58
746.528	10.81
746.755	8.56
746.981	7.63
747.208	7.88
747.435	11.05
747.661	10.83
747.888	12.59
748.114	10.62
748.341	13.68
748.567	15.94
748.794	14.44
749.02	12.27
749.247	8.38
749.473	8.09
749.7	6.75
749.926	5.92
750.152	10.46
750.379	11.55
750.605	12.68
750.831	12.67
751.058	10.77
751.284	9.25
751.51	12.49
751.737	14.53
751.963	12.9
752.189	11.84
752.415	10.22
752.641	8.99
752.867	7.61
753.094	3.51
753.32	1.97
753.546	-0.43
753.772	1.4
753.998	-0.52
754.224	-2.4
754.45	-3.03
754.676	-3.45
754.902	-4.75
755.128	-4.49
755.354	-5.56
755.579	-4.93
755.805	-3.54
756.031	-3.84
756.257	-4.56
756.483	-5.45
756.709	-6.71
756.934	-6.79
757.16	-9.73
757.386	-10.07
757.612	-13.18
757.837	-13.96
758.063	-12.11
758.289	-9.7
758.514	-11.18
758.74	-15.52
758.965	-18.31
759.191	-17.06
759.416	-16.29
759.642	-14.41
759.868	-14.67
760.093	-10.03
760.318	-11.67
760.544	-12.16
760.769	-11.65
760.995	-12.32
761.22	-10.93
761.445	-9.35
761.671	-7.93
761.896	-4.98
762.121	-4.6
762.347	-4.69
762.572	-8.23
762.797	-9.78
763.022	-8.54
763.248	-2.71
763.473	-0.98
763.698	-1.02
763.923	-0.26
764.148	-0.49
764.373	-1.75
764.598	0.69
764.823	1.92
765.048	-0.56
765.273	-4.35
765.498	-5.09
765.723	-2.28
765.948	-0.34
766.173	-0.69
766.398	0.64
766.623	-1.47
766.848	-1.76
767.073	-4.68
767.298	-5.31
767.522	-5.35
767.747	-4.48
767.972	-5.3
768.197	-4.82
768.421	-6.11
768.646	-8.27
768.871	-12.67
769.095	-11.86
769.32	-10.9
769.545	-10.42
769.769	-7.53
769.994	-7.15
770.218	-12.09
770.443	-11.26
770.667	-10.81
770.892	-11.85
771.116	-12.52
771.341	-9.49
771.565	-9.17
771.79	-8.49
772.014	-9.13
772.238	-9.22
772.463	-7.37
772.687	-9.3
772.911	-9.53
773.136	-12.85
773.36	-12.24
773.584	-9.26
773.808	-9.83
774.033	-8.38
774.257	-7.45
774.481	-9.36
774.705	-10.98
774.929	-9.85
775.153	-10.31
775.377	-9.61
775.602	-10.05
775.826	-6.94
776.05	-5.74
776.274	-6.58
776.498	-5.21
776.722	-7.23
776.945	-6.09
777.169	-5.66
777.393	-6.67
777.617	-7.78
777.841	-6.55
778.065	-3.83
778.289	-6.31
778.512	-7.51
778.736	-7.34
778.96	-7.93
779.184	-5.43
779.407	-6.13
779.631	-4.72
779.855	-6.04
780.078	-3.81
780.302	-6.17
780.526	-8.78
780.749	-9.33
780.973	-8.42
781.196	-8.2
781.42	-8.09
781.643	-6.5
781.867	-5.35
782.09	-8.79
782.314	-9.6
782.537	-9.75
782.76	-11.68
782.984	-11.04
783.207	-12.26
783.431	-12.01
783.654	-13.21
783.877	-17.2
784.1	-17.62
784.324	-19.35
784.547	-20.68
784.77	-24.27
784.993	-26.53
785.216	-27.51
785.44	-27.48
785.663	-28.2
785.886	-24.87
786.109	-26.18
786.332	-26.51
786.555	-25.78
786.778	-23.09
787.001	-23.18
787.224	-20.58
787.447	-19.67
787.67	-17.94
787.893	-19.19
788.116	-18.97
788.339	-18.31
788.561	-20.46
788.784	-24.8
789.007	-24.01
789.23	-27.92
789.453	-27.88
789.675	-28.25
789.898	-29.56
790.121	-29.62
790.344	-30.52
790.566	-29.28
790.789	-27.63
791.012	-27.21
791.234	-24.14
791.457	-19.87
791.679	-18.14
791.902	-19.14
792.124	-17.57
792.347	-18.27
792.569	-18.51
792.792	-21.76
793.014	-18.59
793.237	-17.46
793.459	-18.94
793.681	-19.12
793.904	-20.43
794.126	-22.72
794.348	-23.68
794.571	-22.54
794.793	-24.02
795.015	-24.38
795.237	-24.5
795.46	-22.63
795.682	-21.41
795.904	-19.23
796.126	-18.15
796.348	-19.18
796.57	-17.04
796.792	-17.92
797.014	-15.06
797.237	-13.35
797.459	-10.57
797.681	-9.06
797.903	-11.19
798.124	-10.74
798.346	1.67
798.568	3.29
798.79	8.6
799.012	9.22
799.234	10.34
799.456	12.09
799.678	15.4
799.899	13.68
800.121	11.56
800.343	12.09
800.565	12.9
800.786	13.97
801.008	15.58
801.23	16.48
801.451	17.01
801.673	15.38
801.895	15.38
802.116	17.64
802.338	19.1
802.559	20.16
802.781	18.29
803.002	19.76
803.224	23.32
803.445	22.21
803.667	24.31
803.888	21.85
804.109	21.4
804.331	18.99
804.552	17.49
804.773	20.42
804.995	16.66
805.216	1.86
805.437	0.54
805.658	-2.99
805.88	-5.82
806.101	-4.99
806.322	-6.57
806.543	-8.91
806.764	-12.03
806.985	-10.61
807.207	-9.81
807.428	-10.51
807.649	-14.56
807.87	-16.03
808.091	-16.22
808.312	-16.59
808.533	-10.49
808.754	-9.3
808.975	-13.34
809.195	-12.21
809.416	-12.4
809.637	-12.66
809.858	-12.74
810.079	-15.35
810.3	-14.72
810.52	-15.06
810.741	-17.11
810.962	-17.99
811.183	-18.03
811.403	-17.35
811.624	-17.68
811.845	-13.84
812.065	-11.86
812.286	-11.58
812.506	-11.63
812.727	-10.38
812.948	-9.43
813.168	-7.8
813.389	-8.93
813.609	-7.05
813.83	-8.49
814.05	-8.81
814.27	-8.9
814.491	-3.96
814.711	-5.01
814.931	-7.04
815.152	-7.49
815.372	-9.37
815.592	-10.03
815.813	-9.23
816.033	-11.11
816.253	-9.3
816.473	-9.97
816.694	-8.17
816.914	-7.24
817.134	-8.17
817.354	-10.88
817.574	-9.66
817.794	-10.35
818.014	-11.08
818.234	-10.69
818.454	-11.95
818.674	-15
818.894	-16.87
819.114	-15.24
819.334	-14.77
819.554	-12.02
819.774	-9.51
819.994	-12.29
820.214	-12.63
820.433	-11.38
820.653	-10.71
820.873	-10.1
821.093	-9.21
821.312	-11.16
821.532	-8.67
821.752	-5.73
821.972	-7.46
822.191	-6.54
822.411	-8.28
822.63	-7.36
822.85	-6.15
823.07	-9.7
823.289	-8.27
823.509	-10.23
823.728	-8.39
823.948	-9.18
824.167	-8.25
824.387	-9.26
824.606	-7.45
824.825	-8.35
825.045	-8.31
825.264	-9.55
825.483	-8.85
825.703	-7.43
825.922	-7.88
826.141	-9.56
826.361	-11.4
826.58	-16.96
826.799	-17.27
827.018	-15.58
827.237	-16.13
827.456	-14.92
827.676	-15.14
827.895	-15.58
828.114	-14.62
828.333	-14.65
828.552	-15.41
828.771	-14.82
828.99	-17.68
829.209	-18.37
829.428	-16.52
829.647	-19.8
829.866	-19.42
830.084	-20.22
830.303	-21.08
830.522	-21.99
830.741	-20.3
830.96	-21.12
831.179	-19.27
831.397	-20.71
831.616	-19.43
831.835	-20.02
832.053	-17.8
832.272	-16.5
832.491	-15.77
832.709	-17.86
832.928	-17.25
833.147	-16.89
833.365	-13.79
833.584	-11.92
833.802	-8.8
834.021	-8.69
834.239	-7.73
834.458	-8.32
834.676	-11.31
834.894	-12.6
835.113	-14.06
835.331	-15.98
835.55	-16.1
835.768	-15.3
835.986	-13.12
836.204	-15.34
836.423	-12.62
836.641	-12.93
836.859	-13.88
837.077	-11.79
837.296	-11.86
837.514	-13.86
837.732	-14.14
837.95	-15.36
838.168	-12.48
838.386	-13.51
838.604	-11.89
838.822	-13.26
839.04	-15.17
839.258	-15.14
839.476	-12.49
839.694	-11.18
839.912	-12.04
840.13	-13.14
840.348	-10.92
840.566	-14.89
840.783	-13.44
841.001	-15.35
841.219	-14.43
841.437	-12.74
841.655	-11.63
841.872	-11.47
842.09	-10.94
842.308	-9.15
842.525	-8.98
842.743	-7.17
842.961	-7.27
843.178	-9.98
843.396	-5.75
843.613	-3.73
843.831	-3.54
844.048	-3.57
844.266	-2.47
844.483	-2.85
844.701	-5.13
844.918	-5.59
845.136	-6.03
845.353	-7.53
845.57	-6.1
845.788	-3.82
846.005	-5.52
846.222	-7.5
846.439	-6.12
846.657	-5.52
846.874	-6.13
847.091	-7.79
847.308	-7.04
847.526	-8.39
847.743	-8.15
847.96	-10.71
848.177	-10.57
848.394	-11.16
848.611	-11.99
848.828	-12.01
849.045	-13.12
849.262	-12.53
849.479	-13.65
849.696	-14.59
849.913	-15.99
850.13	-20.25
850.347	-19.07
850.564	-19.97
850.78	-20.93
850.997	-22.67
851.214	-21.33
851.431	-19.4
851.647	-23.05
851.864	-22.06
852.081	-20.5
852.298	-23.34
852.514	-23.76
852.731	-23.59
852.948	-21.24
853.164	-22
853.381	-21.67
853.597	-22.17
853.814	-23.67
854.03	-26.1
854.247	-25.09
854.463	-25.52
854.68	-24.29
854.896	-24.34
855.113	-24.12
855.329	-22.17
855.545	-20.07
855.762	-20.54
855.978	-23.42
856.194	-25.34
856.411	-21.86
856.627	-18.92
856.843	-18
857.059	-16.22
857.275	-17.1
857.492	-16.91
857.708	-13.52
857.924	-12.97
858.14	-9.22
858.356	-9.3
858.572	-9.59
858.788	-11.78
859.004	-10.05
859.22	-12.58
859.436	-11.47
859.652	-13.44
859.868	-14.88
860.084	-15.52
860.3	-15.27
860.516	-15.69
860.731	-14.29
860.947	-15.1
861.163	-14.45
861.379	-14.28
861.595	-12.84
861.81	-11.63
862.026	-10.22
862.242	-10.1
862.457	-10.16
862.673	-8.49
862.889	-7.29
863.104	-8.26
863.32	-7.9
863.535	-7.29
863.751	-12.03
863.966	-9.36
864.182	-7.38
864.397	-10.3
864.613	-11.8
864.828	-14.76
865.044	-13.85
865.259	-11.46
865.474	-11.96
865.69	-9.86
865.905	-8.08
866.12	-10.39
866.336	-11.13
866.551	-10.38
866.766	-11.48
866.981	-12.38
867.196	-11.43
867.412	-10.99
867.627	-12.03
867.842	-12.48
868.057	-13.35
868.272	-14.77
868.487	-17.04
868.702	-20.86
868.917	-21.8
869.132	-21.04
869.347	-21.84
869.562	-23.7
869.777	-23.76
869.992	-27.04
870.207	-27.61
870.422	-27.71
870.636	-29.59
870.851	-30.39
871.066	-31.38
871.281	-31.55
871.495	-33.23
871.71	-29.65
871.925	-31.85
872.14	-32.47
872.354	-35.45
872.569	-37.27
872.783	-34.97
872.998	-34.91
873.213	-35.54
873.427	-33.13
873.642	-31.2
873.856	-31.26
874.071	-31.42
874.285	-32.05
874.5	-33.33
874.714	-33.14
874.928	-33.65
875.143	-33.18
875.357	-33.32
875.571	-33.92
875.786	-33.54
876	-29.95
876.214	-29.44
876.429	-31.54
876.643	-28.65
876.857	-27.29
877.071	-25.16
877.285	-25.48
877.499	-28.81
877.714	-25.08
877.928	-23
878.142	-24.43
878.356	-27.97
878.57	-27.61
878.784	-24.67
878.998	-25.3
879.212	-21.86
879.426	-23.74
879.639	-21.62
879.853	-21.31
880.067	-21.3
880.281	-22.59
880.495	-21.1
880.709	-19.17
880.922	-17.99
881.136	-16.08
881.35	-14.73
881.564	-14.73
881.777	-16.46
881.991	-15.81
882.205	-14.01
882.418	-13.28
882.632	-14.69
882.845	-13.58
883.059	-13.52
883.273	-14.44
883.486	-15.22
883.7	-13.1
883.913	-13.67
884.126	-12.36
884.34	-16.51
884.553	-19.12
884.767	-14.14
884.98	-13.92
885.193	-15.49
885.407	-17.36
885.62	-15.17
885.833	-16.37
886.046	-16.46
886.26	-18.17
886.473	-19.87
886.686	-19.4
886.899	-18.06
887.112	-19.41
887.326	-20.89
887.539	-20.68
887.752	-19.55
887.965	-22.27
888.178	-21.2
888.391	-20.27
888.604	-19.58
888.817	-21.16
889.03	-20.77
889.243	-23.74
889.455	-26.82
889.668	-25.69
889.881	-22.66
890.094	-23.99
890.307	-27.91
890.52	-26.48
890.732	-25.48
890.945	-24.72
891.158	-23.23
891.37	-25.53
891.583	-24.72
891.796	-22.13
892.008	-23.46
892.221	-24.57
892.434	-27.4
892.646	-26.84
892.859	-27.69
893.071	-24.93
893.284	-24.19
893.496	-24.4
893.709	-24.37
893.921	-24.08
894.133	-24.88
894.346	-25.35
894.558	-25.05
894.771	-25.26
894.983	-22.45
895.195	-20.88
895.407	-20.89
895.62	-24.49
895.832	-22.95
896.044	-20.19
896.256	-20.39
896.468	-23.04
896.681	-20.89
896.893	-19.66
897.105	-20.28
897.317	-21.34
897.529	-20.07
897.741	-20.16
897.953	-17.56
898.165	-18.48
898.377	-21.25
898.589	-18.85
898.801	-19.14
899.013	-16.87
899.224	-14.36
899.436	-11.68
899.648	-13.93
899.86	-16.19
900.072	-14.26
900.283	-12.99
900.495	-11.25
900.707	-9.74
900.919	-13.69
901.13	-11.05
901.342	-12.91
901.554	-14.85
901.765	-15.71
901.977	-17.68
902.188	-17.44
902.4	-18.61
902.611	-19.43
902.823	-20.17
903.034	-22.8
903.246	-24.21
903.457	-23.87
903.669	-25.89
903.88	-25.36
904.091	-25.91
904.303	-24.65
904.514	-26.26
904.725	-24.31
904.936	-23.34
905.148	-24.16
905.359	-21.26
905.57	-20.53
905.781	-21.68
905.992	-22.54
906.204	-20.94
906.415	-20.8
906.626	-23.28
906.837	-21.97
907.048	-23.53
907.259	-24.49
907.47	-25.02
907.681	-27.29
907.892	-23.48
908.103	-23.96
908.314	-26.37
908.525	-23.92
908.735	-23.42
908.946	-23.97
909.157	-24.81
909.368	-23.47
909.579	-21.56
909.789	-23.02
910	-25.97
910.211	-22.81
910.421	-23.44
910.632	-21.77
910.843	-24.73
911.053	-21.9
911.264	-20.53
911.475	-21.45
911.685	-20.72
911.896	-22.22
912.106	-21.46
912.317	-25.4
912.527	-22.93
912.737	-25
912.948	-24.18
913.158	-23.36
913.369	-27.4
913.579	-25.92
913.789	-25.73
914	-21.5
914.21	-20.09
914.42	-20.61
914.63	-21.46
914.841	-20
915.051	-18.75
915.261	-17.72
915.471	-14.1
915.681	-13.4
915.891	-14.97
916.101	-16.32
916.311	-16.72
916.521	-14.94
916.731	-15.18
916.941	-11.34
917.151	-12.98
917.361	-9.68
917.571	-13.59
917.781	-15.64
917.991	-16.51
918.201	-16.75
918.411	-19.48
918.621	-21.06
918.83	-17.64
919.04	-20.56
919.25	-16.53
919.46	-16.16
919.669	-18.6
919.879	-17.19
920.089	-17.87
920.298	-18.44
920.508	-18.94
920.717	-17.83
920.927	-20.41
921.136	-20.13
921.346	-21.45
921.555	-23.67
921.765	-24.41
921.974	-27
922.184	-30.28
922.393	-30.29
922.603	-30.34
922.812	-27.11
923.021	-26.13
923.23	-27.26
923.44	-31.76
923.649	-31.32
923.858	-32.86
924.067	-32.44
924.277	-33.08
924.486	-30.24
924.695	-31.36
924.904	-29.04
925.113	-29.06
925.322	-28.28
925.531	-28.19
925.74	-31.74
925.949	-31.88
926.158	-29.37
926.367	-29.23
926.576	-27.86
926.785	-29.58
926.994	-30.07
927.203	-30.77
927.412	-30.5
927.621	-30.2
927.83	-27.79
928.038	-29.04
928.247	-29.06
928.456	-28.54
928.665	-25.89
928.873	-23.77
929.082	-20.84
929.291	-20.25
929.499	-19.94
929.708	-21.04
929.916	-21.3
930.125	-21.85
930.333	-23.17
930.542	-19.94
930.75	-17.64
930.959	-18.14
931.167	-17.12
931.376	-17.76
931.584	-17.31
931.793	-16.98
932.001	-16.51
932.209	-16.82
932.418	-19.27
932.626	-21.87
932.834	-23.18
933.042	-27.68
933.251	-26.35
933.459	-26.37
933.667	-26.95
933.875	-26.72
934.083	-25.59
934.291	-24.01
934.499	-21.13
934.707	-19.9
934.915	-20.09
935.123	-18.02
935.331	-18.77
935.539	-22.21
935.747	-23.91
935.955	-25.25
936.163	-23.72
936.371	-21.57
936.579	-19.54
936.787	-18.38
936.995	-20.44
937.202	-22.82
937.41	-22.34
937.618	-23.5
937.826	-23
938.033	-26.11
938.241	-28.32
938.449	-25.67
938.656	-24
938.864	-23.33
939.071	-21.56
939.279	-18.22
939.486	-15.02
939.694	-15.02
939.901	-16.26
940.109	-15.85
940.316	-15.87
940.524	-17.04
940.731	-19.78
940.939	-20
941.146	-21.04
941.353	-22.34
941.561	-22.41
941.768	-23.54
941.975	-21.53
942.182	-22.95
942.39	-21.45
942.597	-18.1
942.804	-18.61
943.011	-20.36
943.218	-19.88
943.425	-21.01
943.632	-19.94
943.839	-20.3
944.046	-21.17
944.253	-21.02
944.46	-19.99
944.667	-16.37
944.874	-18.36
945.081	-16.59
945.288	-15.1
945.495	-14.51
945.702	-16.28
945.909	-17.91
946.115	-16.6
946.322	-17.71
946.529	-18.03
946.736	-17.75
946.942	-15.73
947.149	-17.02
947.356	-17.72
947.562	-19.26
947.769	-17.8
947.976	-19.02
948.182	-17.73
948.389	-18.71
948.595	-16.46
948.802	-15.99
949.008	-19.27
949.215	-16.38
949.421	-15.24
949.628	-15.84
949.834	-14.29
950.04	-16.29
950.247	-13.54
950.453	-11.94
950.659	-13.7
950.865	-11.53
951.072	-16.13
951.278	-14
951.484	-15.41
951.69	-17.8
951.896	-17.5
952.103	-17.77
952.309	-16.37
952.515	-16.44
952.721	-13.71
952.927	-13.5
953.133	-15.5
953.339	-17.12
953.545	-17.07
953.751	-16.57
953.957	-13.35
954.163	-16.47
954.369	-16.66
954.574	-17.63
954.78	-18.32
954.986	-19.02
955.192	-17.09
955.398	-18.07
955.603	-22.73
955.809	-20.28
956.015	-19.99
956.22	-19.97
956.426	-18.05
956.632	-20.63
956.837	-20.65
957.043	-18.87
957.248	-18.9
957.454	-18.59
957.66	-21.35
957.865	-22.53
958.07	-22.3
958.276	-24.44
958.481	-26.15
958.687	-27.56
958.892	-28.23
959.097	-29.48
959.303	-29.48
959.508	-28.98
959.713	-29.5
959.919	-29.51
960.124	-30.58
960.329	-30.8
960.534	-26.59
960.739	-25.68
960.945	-24.24
961.15	-22.9
961.355	-23.27
961.56	-28.64
961.765	-29.63
961.97	-28.26
962.175	-28.78
962.38	-31.33
962.585	-32.27
962.79	-34.35
962.995	-36.04
963.2	-36.67
963.404	-37.37
963.609	-41
963.814	-41.51
964.019	-44.29
964.224	-46.66
964.428	-44.7
964.633	-43.44
964.838	-42.82
965.042	-43.08
965.247	-45.03
965.452	-44.3
965.656	-42.5
965.861	-40.86
966.066	-41.1
966.27	-36.79
966.475	-32.23
966.679	-36.42
966.884	-35.9
967.088	-37.18
967.292	-37.53
967.497	-36.07
967.701	-38.6
967.906	-36.64
968.11	-33.17
968.314	-29.89
968.518	-31.8
968.723	-29.36
968.927	-28.03
969.131	-26.23
969.335	-22.89
969.539	-22.85
969.744	-21.61
969.948	-18.01
970.152	-16.73
970.356	-14.17
970.56	-12.89
970.764	-14.28
970.968	-11.71
971.172	-9.89
971.376	-9
971.58	-6.7
971.784	-4.85
971.988	-7.44
972.192	-6.06
972.395	-5.44
972.599	-8.94
972.803	-12.93
973.007	-10.39
973.21	-11.05
973.414	-12.47
973.618	-13.63
973.822	-15.27
974.025	-12.44
974.229	-12.51
974.432	-16.9
974.636	-19.73
974.84	-18.23
975.043	-17.54
975.247	-18.47
975.45	-19.32
975.654	-18.37
975.857	-16.95
976.06	-18.02
976.264	-19.54
976.467	-18.05
976.671	-18.81
976.874	-17.12
977.077	-18.33
977.28	-19.47
977.484	-22.75
977.687	-22.94
977.89	-22.41
978.093	-23.86
978.297	-22.58
978.5	-25.75
978.703	-25.98
978.906	-24.82
979.109	-23.94
979.312	-23.2
979.515	-25.77
979.718	-25.03
979.921	-24.56
980.124	-25.53
980.327	-28
980.53	-27.45
980.733	-24.75
980.936	-21.35
981.138	-22.41
981.341	-22.14
981.544	-21.89
981.747	-22.74
981.949	-25.47
982.152	-24.72
982.355	-24.81
982.558	-21.97
982.76	-24.43
982.963	-24.36
983.165	-24.11
983.368	-22.8
983.571	-25.02
983.773	-21.39
983.976	-20.6
984.178	-21.83
984.381	-21.91
984.583	-24.57
984.785	-23.06
984.988	-19.95
985.19	-18.55
985.392	-19.23
985.595	-21.5
985.797	-18.94
985.999	-15.72
986.202	-14
986.404	-13.96
986.606	-10.18
986.808	-11.5
987.01	-10.53
987.212	-13.81
987.415	-16.43
987.617	-16.13
987.819	-17.47
988.021	-16.22
988.223	-17.54
988.425	-19.75
988.627	-20.65
988.829	-24.2
989.031	-22.46
989.232	-22.65
989.434	-21.91
989.636	-22.64
989.838	-21.94
990.04	-20.46
990.242	-21.35
990.443	-21.4
990.645	-20.45
990.847	-17.25
991.048	-17.44
991.25	-20
991.452	-21.79
991.653	-22.73
991.855	-21.97
992.057	-23.1
992.258	-21.55
992.46	-21.85
992.661	-20.12
992.863	-21.95
993.064	-20.54
993.265	-21.2
993.467	-20.61
993.668	-17.58
993.87	-18.22
994.071	-18.76
994.272	-18.09
994.473	-16.26
994.675	-14.25
994.876	-10.99
995.077	-10.92
995.278	-10.04
995.48	-11.95
995.681	-13.65
995.882	-10.62
996.083	-10.57
996.284	-14.36
996.485	-14.23
996.686	-14.75
996.887	-16.11
997.088	-19.79
997.289	-20.24
997.49	-20.34
997.691	-19.54
997.892	-20.18
998.092	-15.74
998.293	-15.98
998.494	-18.64
998.695	-19.65
998.896	-17.98
999.096	-17.13
999.297	-17.11
999.498	-18.29
999.698	-21.9
999.899	-25.79
1000.1	-28.35
1000.3	-26.99
1000.501	-27.88
1000.701	-27.46
1000.902	-28.58
1001.102	-29.73
1001.303	-27.38
1001.503	-30.12
1001.704	-26.74
1001.904	-28.15
1002.105	-29.3
1002.305	-28.57
1002.505	-29.56
1002.706	-31.57
1002.906	-32.14
1003.106	-32.63
1003.306	-30.51
1003.507	-28.4
1003.707	-29
1003.907	-27.71
1004.107	-26.29
1004.307	-29.36
1004.507	-27.82
1004.707	-27.31
1004.907	-29.23
1005.107	-30.14
1005.308	-30.02
1005.507	-31.59
1005.707	-29.89
1005.907	-27.85
1006.107	-24.53
1006.307	-22.05
1006.507	-23.23
1006.707	-21.02
1006.907	-22.08
1007.106	-22.71
1007.306	-24.29
1007.506	-24.38
1007.706	-23.71
1007.905	-27.24
1008.105	-26.25
1008.305	-27.22
1008.504	-26.71
1008.704	-21.84
1008.903	-20.8
1009.103	-19.4
1009.303	-21.58
1009.502	-22.14
1009.702	-23.86
1009.901	-22.43
1010.1	-25.81
1010.3	-24.11
1010.499	-25.16
1010.699	-26.75
1010.898	-28.74
1011.097	-27.29
1011.296	-27.97
1011.496	-28.99
1011.695	-28.25
1011.894	-30.14
1012.093	-27.85
1012.293	-27.78
1012.492	-28.55
1012.691	-28.85
1012.89	-30.87
1013.089	-32.36
1013.288	-30.93
1013.487	-30.22
1013.686	-30.06
1013.885	-30.87
1014.084	-28.6
1014.283	-28.45
1014.482	-29.52
1014.681	-29.61
1014.88	-34.78
1015.078	-33.18
1015.277	-33.91
1015.476	-34.02
1015.675	-34.75
1015.873	-34.33
1016.072	-36.62
1016.271	-32.74
1016.47	-35.98
1016.668	-34.32
1016.867	-34.6
1017.065	-35.41
1017.264	-36.57
1017.463	-35.8
1017.661	-35.34
1017.86	-35.73
1018.058	-35.14
1018.256	-37.08
1018.455	-38.81
1018.653	-38.08
1018.852	-35.81
1019.05	-37.59
1019.248	-38.82
1019.447	-39.88
1019.645	-39.06
1019.843	-41.51
1020.041	-40.16
1020.24	-40.98
1020.438	-37.92
1020.636	-38.31
1020.834	-41.2
1021.032	-37.54
1021.23	-39.18
1021.428	-37.95
1021.626	-32.94
1021.824	-31.22
1022.022	-32.31
1022.22	-29.91
1022.418	-29.13
1022.616	-28.87
1022.814	-29.62
1023.012	-30.13
1023.21	-28.65
1023.408	-28.22
1023.606	-30.09
1023.803	-25.76
1024.001	-26.37
1024.199	-27.9
1024.397	-27.61
1024.594	-28.03
1024.792	-31.23
1024.99	-31.89
1025.187	-32.48
1025.385	-27.61
1025.582	-27.51
1025.78	-29.06
1025.977	-27.22
1026.175	-26.15
1026.372	-24.51
1026.57	-26.94
1026.767	-24.13
1026.965	-22.9
1027.162	-22.56
1027.359	-22.6
1027.557	-22.65
1027.754	-26.65
1027.951	-28.7
1028.148	-26.52
1028.346	-28.7
1028.543	-31.97
1028.74	-32.44
1028.937	-35.02
1029.134	-34.6
1029.331	-34.13
1029.528	-34.58
1029.725	-34.65
1029.923	-38.84
1030.12	-34.57
1030.317	-32.84
1030.513	-30.86
1030.71	-27.53
1030.907	-23.84
1031.104	-24.66
1031.301	-23.87
1031.498	-24.31
1031.695	-24.14
1031.892	-23.12
1032.088	-24.14
1032.285	-26.81
1032.482	-28.85
1032.678	-31.62
1032.875	-33.94
1033.072	-33.58
1033.268	-33.66
1033.465	-32.57
1033.662	-35.71
1033.858	-35.13
1034.055	-34.24
1034.251	-32.94
1034.448	-32.69
1034.644	-31.88
1034.84	-28.86
1035.037	-27.51
1035.233	-27.63
1035.43	-26.89
1035.626	-26.59
1035.822	-25.59
1036.019	-25.33
1036.215	-29.96
1036.411	-30.77
1036.607	-32.76
1036.803	-37.59
1037	-38.01
1037.196	-39.04
1037.392	-39.7
1037.588	-42.88
1037.784	-41.6
1037.98	-42.58
1038.176	-42.19
1038.372	-43.13
1038.568	-40.9
1038.764	-36.83
1038.96	-34.3
1039.156	-35.26
1039.352	-37.23
1039.547	-36
1039.743	-33.28
1039.939	-29.15
1040.135	-29.73
1040.331	-31.07
1040.526	-29.45
1040.722	-30.99
1040.918	-32.65
1041.113	-34.92
1041.309	-35.24
1041.505	-38.56
1041.7	-39.11
1041.896	-39.42
1042.091	-39.95
1042.287	-38.25
1042.482	-37.68
1042.678	-37.68
1042.873	-35.07
1043.069	-36.06
1043.264	-34.84
1043.459	-33.15
1043.655	-31.25
1043.85	-32.99
1044.045	-32.23
1044.24	-32.26
1044.436	-28.56
1044.631	-30.41
1044.826	-33.33
1045.021	-36
1045.216	-34.76
