Data from led_4000k_2_FLMT021711__11__17-33-43-673.txt Node

Date: Tue Nov 05 17:33:43 CET 2024
User: Etudiants TP
Spectrometer: FLMT02171
Trigger mode: 0
Integration Time (sec): 1.000000E-1
Scans to average: 5
Electric dark correction enabled: true
Nonlinearity correction enabled: true
Boxcar width: 15
XAxis mode: Wavelengths
Number of Pixels in Spectrum: 3648
>>>>>Begin Spectral Data<<<<<
194.658	-68.24
194.923	-67.33
195.188	-60.4
195.453	-60.95
195.717	-55.18
195.982	-53.85
196.247	-52.58
196.512	-53.01
196.777	-51.74
197.042	-50.66
197.307	-49.59
197.572	-44.14
197.837	-44.69
198.101	-42.26
198.366	-40.99
198.631	-39.45
198.896	-34.28
199.161	-26.94
199.425	-19.34
199.69	-9.52
199.955	-8.47
200.22	-12.69
200.484	-13.19
200.749	-13.56
201.014	-12.19
201.278	-12.85
201.543	-12.2
201.807	-12.2
202.072	-10.64
202.337	-10.87
202.601	-10.99
202.866	-14.17
203.13	-12.16
203.395	-13.95
203.659	-13.53
203.924	-15.65
204.189	-15.01
204.453	-13.64
204.717	-12.59
204.982	-11.34
205.246	-8.9
205.511	-7.49
205.775	-8.98
206.04	-3.15
206.304	-2.25
206.568	1.44
206.833	1.43
207.097	3.79
207.361	5.99
207.626	8.53
207.89	9.78
208.154	10.84
208.419	12.49
208.683	12.49
208.947	15.33
209.211	15.69
209.476	15.72
209.74	16.04
210.004	14.9
210.268	15.38
210.532	18.52
210.796	18.93
211.061	19.76
211.325	20.03
211.589	18.44
211.853	19.56
212.117	20.91
212.381	20.84
212.645	21.45
212.909	21.87
213.173	19.19
213.437	18.16
213.701	17.73
213.965	18.03
214.229	13.03
214.493	12.34
214.757	10.21
215.021	10.8
215.285	15.23
215.549	15.17
215.813	12.89
216.077	12.01
216.34	12.81
216.604	12.11
216.868	12.21
217.132	12.73
217.396	10.37
217.659	9.87
217.923	6.51
218.187	7.49
218.451	6.94
218.714	4.62
218.978	5.63
219.242	8.22
219.505	8.31
219.769	9.13
220.033	9.68
220.296	10.07
220.56	11.83
220.824	9.87
221.087	9.47
221.351	9.62
221.614	9.34
221.878	11.16
222.142	8.84
222.405	9.05
222.669	11.79
222.932	7.81
223.196	5.49
223.459	2.14
223.722	4.66
223.986	4.41
224.249	3.06
224.513	2.73
224.776	2.03
225.04	1.48
225.303	-0.21
225.566	-0
225.83	3.41
226.093	6.65
226.356	5.46
226.62	3.33
226.883	4.4
227.146	4.18
227.409	3.13
227.673	1.6
227.936	0.78
228.199	1.48
228.462	-1.11
228.725	-2.94
228.989	-3.23
229.252	-1.04
229.515	4.48
229.778	2.49
230.041	1.88
230.304	0.69
230.567	2.07
230.83	-1.65
231.093	0.42
231.356	-0.27
231.619	6.01
231.882	4.44
232.145	6.04
232.408	5.76
232.671	5.61
232.934	7.15
233.197	5.62
233.46	6.32
233.723	8.1
233.986	5.8
234.249	3.21
234.512	4.91
234.775	8.95
235.037	7.96
235.3	7.48
235.563	6.93
235.826	8.3
236.089	11.34
236.351	9.11
236.614	12.56
236.877	13.6
237.14	15.87
237.402	14.97
237.665	8.51
237.928	8.15
238.19	4.75
238.453	8.23
238.716	7.06
238.978	7.27
239.241	6.65
239.503	10.12
239.766	4.54
240.029	2.91
240.291	6.09
240.554	6.42
240.816	4.37
241.079	3.94
241.341	3.8
241.604	2.63
241.866	-0.11
242.129	1.05
242.391	2.62
242.653	0.99
242.916	0.92
243.178	-0.42
243.441	1
243.703	2.02
243.965	-0.76
244.228	-1.73
244.49	-1.63
244.752	-1.2
245.015	-1.35
245.277	-0.02
245.539	-1.54
245.801	0.44
246.064	0.63
246.326	1.33
246.588	0.26
246.85	1.97
247.112	3.04
247.374	6.07
247.637	7.83
247.899	6.69
248.161	7.51
248.423	3.4
248.685	2.36
248.947	3.19
249.209	3.3
249.471	3.81
249.733	4.3
249.995	4.13
250.257	2.62
250.519	0.38
250.781	4.39
251.043	2.55
251.305	4.52
251.567	6.69
251.829	6.37
252.091	6.69
252.353	3.84
252.615	5.1
252.876	3.48
253.138	1.88
253.4	-1.89
253.662	0.01
253.924	2.1
254.185	3.88
254.447	3.28
254.709	3.36
254.971	3.94
255.232	6.16
255.494	3.66
255.756	1.13
256.017	2.43
256.279	1.68
256.541	1.62
256.802	2.27
257.064	2.39
257.326	2.19
257.587	4.33
257.849	5.14
258.11	7.1
258.372	9.38
258.633	11.92
258.895	8.18
259.156	5.86
259.418	5.42
259.679	-0.63
259.941	-3.43
260.202	-0.65
260.464	1.75
260.725	0.83
260.987	-1.07
261.248	-0.48
261.509	-0.56
261.771	-1.74
262.032	-1.02
262.293	-1.47
262.555	-1.48
262.816	-2.85
263.077	-4.96
263.338	-8.06
263.6	-7.18
263.861	-7.37
264.122	-8.27
264.383	-5.01
264.645	-4.41
264.906	-5.15
265.167	-2.77
265.428	-3.41
265.689	-2.15
265.95	-3.82
266.211	-2.95
266.473	-4.92
266.734	-8.09
266.995	-10.11
267.256	-8.69
267.517	-6.65
267.778	-1.78
268.039	-0.44
268.3	-1.13
268.561	-3.11
268.822	-0.57
269.083	-1.39
269.344	-2.92
269.604	-1.17
269.865	-0.96
270.126	-4.09
270.387	-3.53
270.648	-2.07
270.909	-2.98
271.17	-2.56
271.43	-5.62
271.691	-6.9
271.952	-7.88
272.213	-4.86
272.473	-8.21
272.734	-7.66
272.995	-6.33
273.256	-8.11
273.516	-5.17
273.777	-8.35
274.038	-7.42
274.298	-8.65
274.559	-9.81
274.82	-5.35
275.08	-1.78
275.341	-0.36
275.601	-1.34
275.862	-4.33
276.122	-4.09
276.383	-4.87
276.643	-3.39
276.904	-3.9
277.164	-0.67
277.425	-0.79
277.685	2.23
277.946	2.97
278.206	4.45
278.467	5.87
278.727	5.25
278.987	4.99
279.248	3.7
279.508	6.38
279.768	8.08
280.029	8.65
280.289	4.19
280.549	3.56
280.81	4.89
281.07	3.81
281.33	6.44
281.59	2.92
281.851	5.49
282.111	6.38
282.371	3.95
282.631	7.36
282.891	5.48
283.151	3.1
283.412	1.05
283.672	0.39
283.932	1.31
284.192	2.91
284.452	1.08
284.712	-0.17
284.972	-1.26
285.232	-3.62
285.492	-0.54
285.752	-3.97
286.012	2.52
286.272	3.51
286.532	2.4
286.792	3.19
287.052	5.94
287.312	7.02
287.571	5.36
287.831	4.9
288.091	2.77
288.351	4.05
288.611	8.52
288.871	6.55
289.13	7.27
289.39	1.53
289.65	2.67
289.91	1.08
290.17	2.11
290.429	5.33
290.689	1.85
290.949	-1.3
291.208	0.82
291.468	4.61
291.728	5.73
291.987	6.88
292.247	5.2
292.506	8.47
292.766	10.9
293.026	8.28
293.285	8.98
293.545	12.29
293.804	13.16
294.064	7.44
294.323	4.71
294.583	4.27
294.842	5.14
295.102	4.03
295.361	4.59
295.621	5.85
295.88	6.07
296.139	6.23
296.399	6.35
296.658	1.36
296.917	2.14
297.177	-1.21
297.436	2.16
297.695	1.88
297.955	3.84
298.214	2.7
298.473	3.89
298.732	5.93
298.992	10.18
299.251	8.84
299.51	4.73
299.769	5.04
300.028	4.58
300.287	4.89
300.547	4.53
300.806	1.87
301.065	5.99
301.324	7.81
301.583	2.62
301.842	-1.19
302.101	-2.64
302.36	-2.62
302.619	-2.63
302.878	-1.88
303.137	-3.77
303.396	-2.93
303.655	-1.43
303.914	-3.89
304.173	-3.83
304.432	-3.68
304.691	-1.39
304.95	-3.11
305.208	1.72
305.467	2.19
305.726	1.29
305.985	1.77
306.244	4.26
306.503	4.82
306.761	3.51
307.02	0.31
307.279	2.03
307.537	3.17
307.796	0.79
308.055	-0.79
308.314	1.49
308.572	0.79
308.831	2.78
309.09	3.96
309.348	4.32
309.607	4.13
309.865	7.99
310.124	7.12
310.382	10.16
310.641	10.62
310.9	7.63
311.158	8.94
311.417	8.6
311.675	8.03
311.933	9.53
312.192	11.15
312.45	10.57
312.709	10.93
312.967	10.22
313.226	9.98
313.484	8.13
313.742	7.53
314.001	5.22
314.259	1.91
314.517	1.75
314.776	3.99
315.034	5.78
315.292	3.57
315.55	1.4
315.809	-0.15
316.067	0.96
316.325	-1.68
316.583	-2.49
316.841	-3.55
317.1	-6.04
317.358	-10.18
317.616	-9.74
317.874	-11.95
318.132	-11.31
318.39	-12.01
318.648	-11.88
318.906	-11.87
319.164	-11.83
319.422	-12.93
319.68	-14.25
319.938	-15.1
320.196	-14.3
320.454	-12.89
320.712	-13.86
320.97	-13.65
321.228	-15.14
321.486	-12.86
321.744	-11.74
322.002	-10.24
322.26	-11.3
322.517	-12.53
322.775	-15.52
323.033	-16.77
323.291	-14.48
323.549	-11.66
323.806	-9.03
324.064	-8.62
324.322	-6.77
324.58	-6.37
324.837	-4.88
325.095	-7.27
325.353	-4.52
325.61	-3.48
325.868	-2.93
326.126	0.54
326.383	-1.92
326.641	-4.06
326.898	-1.25
327.156	-0.41
327.413	-0.35
327.671	0.42
327.928	2.77
328.186	2.65
328.443	0.83
328.701	5.39
328.958	6.91
329.216	7.66
329.473	6.1
329.731	7.1
329.988	6.89
330.245	8.84
330.503	10.66
330.76	10.61
331.017	13.38
331.275	10.68
331.532	9.66
331.789	8.24
332.047	6.84
332.304	3.57
332.561	2.82
332.818	0.6
333.076	3.17
333.333	3.6
333.59	3.6
333.847	4.41
334.104	1.5
334.361	1.56
334.618	-0.12
334.876	-2.22
335.133	-2.77
335.39	-3.83
335.647	-2.43
335.904	-5.07
336.161	-7.26
336.418	-6.51
336.675	-11.42
336.932	-10.35
337.189	-11.81
337.446	-11.76
337.703	-14.59
337.96	-17.93
338.216	-17.05
338.473	-19.93
338.73	-18.92
338.987	-19.51
339.244	-16.97
339.501	-18.45
339.757	-17.36
340.014	-16.36
340.271	-14.38
340.528	-13.41
340.785	-9.59
341.041	-10
341.298	-12.67
341.555	-12.84
341.811	-12.85
342.068	-14.85
342.325	-13.65
342.581	-9.2
342.838	-8.97
343.094	-9.89
343.351	-10.12
343.608	-12.42
343.864	-10.48
344.121	-8.34
344.377	-9.08
344.634	-10.23
344.89	-12.04
345.147	-11.96
345.403	-12.81
345.66	-11.68
345.916	-10.77
346.172	-12.76
346.429	-13.83
346.685	-16.01
346.942	-17.01
347.198	-20.8
347.454	-19.29
347.711	-19.78
347.967	-21.87
348.223	-21.25
348.48	-21.14
348.736	-17.65
348.992	-18.4
349.248	-15.13
349.504	-15.06
349.761	-14.61
350.017	-14.85
350.273	-14.68
350.529	-15.81
350.785	-15.55
351.041	-15.8
351.297	-13.7
351.554	-14.62
351.81	-16.14
352.066	-18.77
352.322	-18.37
352.578	-17.5
352.834	-17.46
353.09	-17.06
353.346	-16.01
353.602	-17.54
353.858	-16.82
354.114	-17.39
354.369	-14.78
354.625	-11.3
354.881	-12.02
355.137	-8.69
355.393	-9.06
355.649	-8.76
355.905	-8.93
356.16	-8.76
356.416	-7.49
356.672	-14.04
356.928	-12.35
357.183	-13.94
357.439	-14.18
357.695	-15.78
357.951	-10.91
358.206	-12.57
358.462	-13.38
358.718	-16.1
358.973	-14.18
359.229	-14.11
359.484	-14.51
359.74	-12.31
359.996	-11.37
360.251	-8.93
360.507	-8.25
360.762	-8.17
361.018	-6.42
361.273	-8.13
361.529	-5.07
361.784	-5.33
362.04	-3.25
362.295	-4.73
362.55	-4.63
362.806	-2.35
363.061	-1.8
363.316	-2.24
363.572	-1.59
363.827	1.62
364.082	-1.9
364.338	-3.45
364.593	-2.76
364.848	-2.73
365.104	-2.95
365.359	-1.01
365.614	-1.32
365.869	-4.39
366.124	-3.38
366.38	-3.96
366.635	-0.88
366.89	-0.8
367.145	-0.75
367.4	3.64
367.655	4.45
367.91	4.39
368.165	3.72
368.42	0.86
368.675	1.72
368.93	1.69
369.185	-0.01
369.44	-0.86
369.695	1.22
369.95	-0.28
370.205	-1.82
370.46	-3.69
370.715	-5.21
370.97	-4.42
371.225	-3.42
371.48	-1.93
371.734	-2.94
371.989	-0.87
372.244	-1.3
372.499	1.38
372.754	-0.26
373.008	-2.96
373.263	-7.19
373.518	-4.65
373.773	-4.91
374.027	-6.35
374.282	-4.28
374.537	-3.55
374.791	-2.54
375.046	-4.17
375.301	-5.38
375.555	-7.87
375.81	-6.09
376.064	-5.88
376.319	-2.24
376.573	-3.38
376.828	-6.56
377.082	-1.39
377.337	-3.62
377.591	-5.61
377.846	-5.05
378.1	-1.77
378.355	-0.28
378.609	-0.92
378.863	-4.77
379.118	-3.92
379.372	-5.82
379.627	-7.58
379.881	-9.68
380.135	-8.75
380.389	-11.51
380.644	-10.49
380.898	-8.76
381.152	-6.57
381.407	-6.63
381.661	-4.4
381.915	-1.14
382.169	-1.36
382.423	-2.76
382.677	-6.55
382.932	-5.11
383.186	-5.33
383.44	-5.47
383.694	-3.35
383.948	-6.16
384.202	-8.03
384.456	-5.05
384.71	-4.24
384.964	-6.84
385.218	-5.21
385.472	-5.75
385.726	-6.04
385.98	-5.89
386.234	-7.49
386.488	-8.89
386.742	-7.94
386.996	-9.61
387.249	-9.19
387.503	-7.32
387.757	-6.12
388.011	-5.94
388.265	-4.99
388.518	-3.19
388.772	-0.97
389.026	0.85
389.28	-2.27
389.533	-3.63
389.787	-3.06
390.041	-4.21
390.295	-3.37
390.548	-2.11
390.802	0.66
391.055	-0.26
391.309	-0.56
391.563	-2.5
391.816	0.05
392.07	0.26
392.323	0.09
392.577	1.84
392.83	2
393.084	7.63
393.337	10.93
393.591	11.77
393.844	11.92
394.098	15.31
394.351	18.89
394.604	21.95
394.858	24.11
395.111	24.18
395.364	22.49
395.618	25.5
395.871	22.83
396.124	21.54
396.378	20.81
396.631	21
396.884	17.05
397.137	18.43
397.391	18.85
397.644	17.27
397.897	18.07
398.15	19.39
398.403	21.31
398.657	19.11
398.91	19
399.163	20.21
399.416	19.91
399.669	18.01
399.922	17.17
400.175	15.77
400.428	15.75
400.681	17.6
400.934	12.63
401.187	12.06
401.44	11.77
401.693	9.49
401.946	6.5
402.199	1.4
402.452	-1.24
402.704	-4.71
402.957	-6.1
403.21	-2.99
403.463	-3.96
403.716	-2.36
403.969	-0.21
404.221	-2.58
404.474	-1.61
404.727	0.34
404.98	1.89
405.232	0.3
405.485	1.11
405.738	3.13
405.99	2.09
406.243	2.22
406.496	3.45
406.748	2.43
407.001	1.84
407.253	2.75
407.506	1.78
407.759	1.99
408.011	-0.76
408.264	-1.41
408.516	-2.14
408.769	-2.69
409.021	-2.41
409.274	-2.25
409.526	0.75
409.778	0.74
410.031	4.55
410.283	5.54
410.536	9.46
410.788	8.79
411.04	7.9
411.293	8.25
411.545	9.41
411.797	9.08
412.049	8.77
412.302	8.25
412.554	11.12
412.806	8.65
413.058	8.24
413.311	8.09
413.563	4.97
413.815	4.01
414.067	2.15
414.319	1.69
414.571	3.52
414.823	1.41
415.075	-0.17
415.328	2.02
415.58	6.18
415.832	8.08
416.084	9.05
416.336	8.13
416.588	10.76
416.84	9.42
417.091	12.36
417.343	7.83
417.595	10.47
417.847	11.43
418.099	11.79
418.351	10.84
418.603	14.43
418.855	14.88
419.106	15.39
419.358	14.72
419.61	13.31
419.862	15.71
420.114	13.42
420.365	12.31
420.617	13.7
420.869	13.17
421.12	13.34
421.372	15.79
421.624	16.15
421.875	17.73
422.127	14.35
422.379	15.76
422.63	19.44
422.882	18.95
423.133	18.25
423.385	15.92
423.636	17.41
423.888	18.79
424.139	20.26
424.391	18.11
424.642	16.58
424.894	13.94
425.145	15.02
425.396	11.8
425.648	13.26
425.899	11.67
426.151	12.85
426.402	11.48
426.653	10.47
426.905	9.41
427.156	7.41
427.407	7.79
427.658	6.77
427.91	5.88
428.161	4.17
428.412	6.11
428.663	7.21
428.914	7.18
429.166	7.93
429.417	8.37
429.668	6.17
429.919	4.19
430.17	1.64
430.421	1.07
430.672	3.35
430.923	3.65
431.174	3.58
431.425	2.71
431.676	1.67
431.927	-1.4
432.178	0.25
432.429	0.76
432.68	-0.22
432.931	3.43
433.182	6.48
433.433	5.33
433.683	7.24
433.934	5.83
434.185	4.95
434.436	4.13
434.687	4.88
434.937	8.94
435.188	7.95
435.439	7.1
435.69	9.03
435.94	8.99
436.191	9.64
436.442	10.28
436.692	8.25
436.943	5.5
437.194	3.51
437.444	7.38
437.695	11.1
437.945	12.51
438.196	11.25
438.447	10.66
438.697	12.63
438.948	11.87
439.198	9.43
439.449	5.99
439.699	8.39
439.949	8.07
440.2	8.34
440.45	9.99
440.701	7.49
440.951	5.88
441.201	5.86
441.452	5.19
441.702	4.98
441.952	5.1
442.203	5.19
442.453	4.8
442.703	3.44
442.953	4.54
443.204	5.79
443.454	4.24
443.704	4.55
443.954	1.28
444.204	1.49
444.455	3.5
444.705	6.11
444.955	6.3
445.205	4.09
445.455	3.22
445.705	2.08
445.955	1.47
446.205	1.49
446.455	0.22
446.705	1.34
446.955	2.68
447.205	4.77
447.455	5.7
447.705	2.92
447.955	2.09
448.205	2.13
448.454	2.9
448.704	5
448.954	2.82
449.204	2.7
449.454	1.93
449.704	0.66
449.953	0.92
450.203	1.58
450.453	-0.2
450.703	1.64
450.952	1.1
451.202	1.82
451.452	2.19
451.701	4.47
451.951	7.21
452.201	7.49
452.45	6.43
452.7	8.52
452.949	7.68
453.199	7.35
453.448	9.7
453.698	11.54
453.947	10.56
454.197	10.46
454.446	9.49
454.696	12.44
454.945	13.35
455.195	11.52
455.444	12.68
455.693	15.94
455.943	14.49
456.192	14.05
456.442	14.16
456.691	15.38
456.94	14.74
457.189	15.74
457.439	18.42
457.688	19.78
457.937	18.87
458.186	20.03
458.436	19.35
458.685	20.76
458.934	19.16
459.183	17.82
459.432	20.37
459.681	20.39
459.93	19.77
460.179	19.33
460.429	17.19
460.678	20.33
460.927	22.87
461.176	22.37
461.425	21.95
461.674	23.99
461.923	23.95
462.172	23.13
462.42	22.79
462.669	23.23
462.918	23.33
463.167	23.72
463.416	21.25
463.665	22.76
463.914	22.86
464.162	20.7
464.411	20.91
464.66	22
464.909	19.7
465.158	20.89
465.406	21.69
465.655	23.58
465.904	26.51
466.152	27.19
466.401	27.74
466.65	30.42
466.898	29.98
467.147	26.02
467.395	25.59
467.644	26.49
467.893	25.68
468.141	25.68
468.39	23.76
468.638	21.54
468.887	19.63
469.135	18.19
469.384	17.66
469.632	18.44
469.88	18.77
470.129	19
470.377	15.69
470.626	17.6
470.874	19.77
471.122	21.07
471.371	20.25
471.619	19.73
471.867	21.47
472.115	21.66
472.364	21.24
472.612	24.61
472.86	21.94
473.108	21.45
473.356	21.53
473.605	19.53
473.853	17.08
474.101	15.55
474.349	15.03
474.597	17.68
474.845	17.49
475.093	15.77
475.341	13.42
475.589	13.75
475.837	14.46
476.085	16.07
476.333	15.17
476.581	16.23
476.829	15.84
477.077	17.29
477.325	16.35
477.573	18.33
477.821	16
478.069	18.2
478.317	18.58
478.564	20.78
478.812	18.97
479.06	17.22
479.308	16.18
479.555	17.16
479.803	15.1
480.051	15.69
480.299	15.53
480.546	16.29
480.794	14.14
481.042	15.11
481.289	14.96
481.537	16.03
481.784	16.05
482.032	18.71
482.28	17.33
482.527	17.3
482.775	17.24
483.022	19.49
483.27	22.02
483.517	27.02
483.765	25.73
484.012	25.99
484.259	24.24
484.507	27.55
484.754	28.27
485.002	27.57
485.249	24.47
485.496	27.74
485.744	26.48
485.991	25.6
486.238	22.7
486.486	25.27
486.733	27.08
486.98	30.06
487.227	27.64
487.474	29.47
487.722	32.77
487.969	29.45
488.216	29.39
488.463	29.93
488.71	28.16
488.957	27.39
489.204	26.29
489.451	26.42
489.699	24.61
489.946	22.65
490.193	22.06
490.44	21.87
490.687	22.22
490.934	18.84
491.18	14.19
491.427	15.23
491.674	17.31
491.921	18.13
492.168	16.89
492.415	14.66
492.662	16.84
492.909	19.5
493.155	19.18
493.402	18.57
493.649	17.23
493.896	18.44
494.142	14.79
494.389	14.41
494.636	12.73
494.883	11.62
495.129	10.82
495.376	7.84
495.623	10.68
495.869	12.79
496.116	14.01
496.362	13.62
496.609	16.85
496.855	23.31
497.102	23.25
497.348	24.07
497.595	25.64
497.841	27.98
498.088	26.65
498.334	26.02
498.581	25.16
498.827	25.59
499.074	26.47
499.32	27.95
499.566	32.38
499.813	31.76
500.059	29.77
500.305	28.6
500.552	28.11
500.798	25.97
501.044	30.27
501.29	28.9
501.537	25.52
501.783	28.48
502.029	31.84
502.275	29.73
502.521	28.98
502.767	29.65
503.013	32.89
503.26	29.99
503.506	26.78
503.752	27.36
503.998	26.72
504.244	26.17
504.49	23.29
504.736	24.88
504.982	23.15
505.228	25.08
505.474	25.31
505.72	26.27
505.966	24.99
506.211	28.68
506.457	27.24
506.703	23.78
506.949	21.16
507.195	18.31
507.441	16.7
507.686	19.74
507.932	20.51
508.178	22.72
508.424	21.39
508.669	19.07
508.915	19.55
509.161	21.61
509.406	22.41
509.652	20.07
509.898	23.09
510.143	23.5
510.389	22.69
510.634	17.18
510.88	19.8
511.125	22.65
511.371	23.51
511.616	24.61
511.862	21.22
512.107	17.52
512.353	18.44
512.598	18.95
512.844	16.9
513.089	15.12
513.335	16.55
513.58	17.69
513.825	18.41
514.071	19.89
514.316	19.88
514.561	21.41
514.806	20.65
515.052	22.96
515.297	20.89
515.542	20.34
515.787	19.95
516.033	21.72
516.278	21.17
516.523	21.9
516.768	22.25
517.013	20.04
517.258	20.39
517.503	19.83
517.748	19.75
517.993	18.47
518.238	19.93
518.483	19.13
518.728	16.64
518.973	15.14
519.218	14.6
519.463	16.14
519.708	15.96
519.953	13.68
520.198	13.75
520.443	15.63
520.688	17.25
520.933	16.47
521.177	16.14
521.422	12.67
521.667	15.07
521.912	14.15
522.157	10.72
522.401	13.4
522.646	13.78
522.891	14.66
523.135	15.96
523.38	15.74
523.625	14.55
523.869	17.82
524.114	18.54
524.358	16.81
524.603	16.07
524.848	14.27
525.092	13.76
525.337	16.38
525.581	19.08
525.826	20.69
526.07	20.74
526.315	22.8
526.559	20.71
526.803	18.81
527.048	21.48
527.292	21.93
527.537	22.34
527.781	22.7
528.025	21.59
528.269	24.03
528.514	25.11
528.758	23.59
529.002	23.62
529.247	25.74
529.491	25.8
529.735	31.26
529.979	30.34
530.223	30.5
530.467	28.94
530.712	27.4
530.956	26.31
531.2	28.49
531.444	25.48
531.688	26.7
531.932	27.39
532.176	28.51
532.42	30.01
532.664	31.56
532.908	29.95
533.152	28.84
533.396	28.55
533.64	28.97
533.884	26.41
534.128	26.66
534.371	28.54
534.615	29.73
534.859	29.63
535.103	29.27
535.347	28.11
535.59	28.33
535.834	24.22
536.078	24.29
536.322	25.72
536.565	28.65
536.809	25.98
537.053	29.15
537.296	26.85
537.54	26.79
537.784	26.58
538.027	27.32
538.271	26.33
538.514	24.75
538.758	22.95
539.001	22.59
539.245	21.4
539.488	21.44
539.732	24.01
539.975	23.54
540.219	25.8
540.462	25.32
540.706	26.26
540.949	26.26
541.192	26.28
541.436	32.76
541.679	38.12
541.922	40.19
542.166	35.74
542.409	35.48
542.652	34.72
542.895	36.97
543.139	37.87
543.382	43.34
543.625	42.82
543.868	42.58
544.111	41.73
544.354	39.45
544.598	37.7
544.841	38.39
545.084	38.08
545.327	37.81
545.57	40.19
545.813	41.13
546.056	42.07
546.299	42.84
546.542	43.85
546.785	46.66
547.028	47.51
547.271	45.63
547.514	45.39
547.756	41.93
547.999	43.13
548.242	43.77
548.485	41.05
548.728	41.07
548.971	34.47
549.213	34.57
549.456	32.01
549.699	32.93
549.942	34.29
550.184	34.69
550.427	32.96
550.67	32.71
550.912	27.49
551.155	28.46
551.398	27.76
551.64	25.99
551.883	27.43
552.125	26.73
552.368	26.03
552.61	23.81
552.853	25.8
553.095	23.54
553.338	23.86
553.58	24.71
553.823	23.95
554.065	25.89
554.308	22.79
554.55	20.8
554.792	19.58
555.035	19.47
555.277	19.17
555.519	19.32
555.762	18.72
556.004	19.88
556.246	16.07
556.488	18.25
556.731	14.28
556.973	16.79
557.215	15.26
557.457	15.91
557.699	19.93
557.941	17.44
558.183	17.88
558.426	20.56
558.668	17.66
558.91	18.21
559.152	18.64
559.394	19.23
559.636	22.14
559.878	24.06
560.12	23.76
560.362	24.65
560.604	25.09
560.845	25.1
561.087	24.17
561.329	25.95
561.571	24.03
561.813	25.69
562.055	24.83
562.297	24.43
562.538	23.95
562.78	26.18
563.022	24.27
563.264	24.59
563.505	25.52
563.747	28.41
563.989	25.88
564.23	25.39
564.472	22.93
564.714	27
564.955	26.84
565.197	21.9
565.438	25.57
565.68	27.17
565.921	25.02
566.163	27.76
566.404	26.93
566.646	30.24
566.887	31.27
567.129	30.52
567.37	27.06
567.612	28.58
567.853	24.65
568.094	25.67
568.336	25.06
568.577	26.35
568.818	27.03
569.06	24.36
569.301	21.14
569.542	21.44
569.783	23.48
570.025	23.7
570.266	23.77
570.507	25.42
570.748	25.61
570.989	26.66
571.23	28.55
571.472	29.13
571.713	28.24
571.954	29.26
572.195	27.38
572.436	29.04
572.677	31.43
572.918	31.46
573.159	30.02
573.4	28.04
573.641	27.06
573.882	28.15
574.123	24.9
574.364	20.48
574.604	20.74
574.845	19.76
575.086	20.11
575.327	21.15
575.568	20.59
575.809	20.79
576.049	19.31
576.29	15.27
576.531	20.54
576.771	22.86
577.012	25.27
577.253	26.2
577.494	25.6
577.734	24.4
577.975	24.04
578.215	23.84
578.456	21.85
578.697	20.74
578.937	24.12
579.178	24.69
579.418	22.91
579.659	21.3
579.899	17.93
580.14	17.82
580.38	17.05
580.62	17.25
580.861	21.87
581.101	21.69
581.342	21.51
581.582	18.28
581.822	22.05
582.063	21.48
582.303	23.07
582.543	22.31
582.783	24.33
583.024	24.72
583.264	26.2
583.504	24.46
583.744	28.67
583.984	25.62
584.224	25.91
584.465	24.26
584.705	24.07
584.945	25.68
585.185	26.24
585.425	27.42
585.665	27.22
585.905	26.46
586.145	27.76
586.385	25.25
586.625	28.34
586.865	29.01
587.105	28.98
587.345	29.48
587.585	29.57
587.824	28.41
588.064	28.11
588.304	25.32
588.544	25.3
588.784	24.28
589.024	26.97
589.263	25.54
589.503	24.25
589.743	27.84
589.982	26.86
590.222	26.61
590.462	24.31
590.701	22.13
590.941	25.6
591.181	23.82
591.42	23.05
591.66	25.77
591.899	28.93
592.139	28.02
592.378	28.46
592.618	27.69
592.857	27
593.097	27.15
593.336	28.34
593.576	27.71
593.815	28.75
594.055	27.91
594.294	27.67
594.533	26.87
594.773	26.87
595.012	27.65
595.251	29.71
595.491	33.04
595.73	35.03
595.969	36.56
596.208	37.05
596.447	42.38
596.687	42.32
596.926	42.9
597.165	38.7
597.404	41.83
597.643	38.56
597.882	38.95
598.121	40.18
598.36	40.43
598.599	41.5
598.838	41.81
599.077	38.86
599.316	39.15
599.555	38.95
599.794	39.63
600.033	42.29
600.272	43.4
600.511	40.68
600.75	40.5
600.989	41.15
601.228	39.94
601.466	38.3
601.705	38.43
601.944	40
602.183	42.8
602.422	41.15
602.66	39.87
602.899	37.88
603.138	38.39
603.376	36.21
603.615	37.81
603.854	34.62
604.092	35.85
604.331	37.7
604.569	40.26
604.808	38.54
605.047	41.02
605.285	39.85
605.524	40.68
605.762	37.05
606	38.51
606.239	40.3
606.477	40.18
606.716	36.16
606.954	34.56
607.193	32.35
607.431	28.01
607.669	26.49
607.908	27.04
608.146	29.88
608.384	28.12
608.622	28.17
608.861	28.55
609.099	28.92
609.337	27.89
609.575	25.73
609.813	27.95
610.052	28.61
610.29	22.39
610.528	21.4
610.766	21.85
611.004	21.34
611.242	20.34
611.48	19.8
611.718	17.11
611.956	16.21
612.194	15.9
612.432	15.29
612.67	16.23
612.908	16.94
613.146	17.01
613.384	15.57
613.621	14.01
613.859	13.98
614.097	13.81
614.335	16.03
614.573	16.59
614.811	19.3
615.048	19.18
615.286	19.9
615.524	19.03
615.761	17.29
615.999	17.91
616.237	17.82
616.474	20.06
616.712	21.75
616.95	20.96
617.187	19.4
617.425	19.33
617.662	22.91
617.9	20.18
618.137	17.98
618.375	16.47
618.612	14.71
618.85	15.79
619.087	18.72
619.325	17.71
619.562	16.2
619.799	15.53
620.037	15.4
620.274	13.44
620.511	15.27
620.749	13.71
620.986	12.27
621.223	10.16
621.461	11.03
621.698	11.83
621.935	11.46
622.172	7.87
622.409	9.9
622.647	9.18
622.884	6.14
623.121	7.93
623.358	6.91
623.595	6.82
623.832	6.5
624.069	5.18
624.306	7.95
624.543	8.89
624.78	10.61
625.017	9.65
625.254	12.64
625.491	15.42
625.728	17.7
625.965	18.44
626.202	17.64
626.438	15.62
626.675	14.28
626.912	17.19
627.149	18.1
627.386	17.3
627.622	17.83
627.859	17.27
628.096	18.03
628.333	18.35
628.569	19.44
628.806	20.12
629.043	19.85
629.279	21.01
629.516	24.99
629.752	21.28
629.989	21.63
630.225	21.07
630.462	22.28
630.699	21.38
630.935	20.78
631.171	18.37
631.408	19.07
631.644	15.81
631.881	14
632.117	11.1
632.354	12.94
632.59	11.61
632.826	10.06
633.063	9.39
633.299	9.92
633.535	8.39
633.771	7.93
634.008	12.26
634.244	10.16
634.48	8.38
634.716	11.15
634.953	9.97
635.189	10.56
635.425	10.98
635.661	14.41
635.897	13.19
636.133	14.01
636.369	12.24
636.605	8.5
636.841	7.02
637.077	9.35
637.313	10.45
637.549	10.67
637.785	9.55
638.021	10.97
638.257	11.4
638.493	12.5
638.729	10.19
638.965	13.72
639.2	14.46
639.436	12.51
639.672	12.26
639.908	9.4
640.144	14.06
640.379	15.13
640.615	13.28
640.851	15.81
641.086	17.49
641.322	14.79
641.558	15.33
641.793	16.73
642.029	14.71
642.264	14.09
642.5	14.43
642.736	10.9
642.971	10.71
643.207	10.1
643.442	7.47
643.678	8.39
643.913	9.68
644.148	8.81
644.384	10.9
644.619	10.77
644.855	11.47
645.09	12.01
645.325	12.22
645.561	12.56
645.796	11.06
646.031	14.04
646.266	11.32
646.502	10.07
646.737	14.38
646.972	14.63
647.207	15.35
647.442	11.17
647.678	7.95
647.913	11.38
648.148	11.4
648.383	10.19
648.618	10.57
648.853	11.11
649.088	13.94
649.323	17.31
649.558	17.64
649.793	17.51
650.028	18.26
650.263	14.53
650.498	16.58
650.733	17.01
650.968	15.57
651.202	18.15
651.437	16.63
651.672	12.68
651.907	11.43
652.142	13.38
652.376	13.62
652.611	15.2
652.846	16.33
653.081	17.17
653.315	16.22
653.55	15.93
653.785	15.67
654.019	15.84
654.254	13.9
654.488	15.75
654.723	13.9
654.958	13.68
655.192	10.58
655.427	6.4
655.661	6.97
655.896	9.47
656.13	12.04
656.364	6.83
656.599	2.49
656.833	7.11
657.068	9.18
657.302	10.84
657.536	9.96
657.771	11.29
658.005	12.12
658.239	14.06
658.474	11.04
658.708	12.87
658.942	14.12
659.176	12.3
659.41	9.42
659.645	8.99
659.879	7.89
660.113	3.72
660.347	1.96
660.581	0.28
660.815	0.17
661.049	-0.2
661.283	-4.63
661.517	-6.33
661.751	-8.31
661.985	-8.78
662.219	-7.43
662.453	-7.56
662.687	-4.01
662.921	-6.55
663.155	-8.99
663.389	-15.91
663.622	-15.79
663.856	-13.84
664.09	-18.67
664.324	-20.36
664.558	-20.65
664.791	-21.79
665.025	-22.6
665.259	-22.88
665.492	-25.71
665.726	-23.56
665.96	-25.17
666.193	-28.11
666.427	-26.51
666.661	-26.24
666.894	-28.38
667.128	-28.66
667.361	-25.79
667.595	-27.25
667.828	-28.04
668.062	-28.26
668.295	-28.67
668.529	-25.84
668.762	-24.68
668.995	-24.48
669.229	-20.17
669.462	-18.72
669.695	-17.67
669.929	-20.81
670.162	-18.84
670.395	-19.09
670.629	-15.73
670.862	-14.71
671.095	-17.34
671.328	-16.08
671.561	-18.37
671.795	-18.41
672.028	-16.78
672.261	-15.28
672.494	-13.42
672.727	-13.27
672.96	-11.4
673.193	-11.73
673.426	-6.2
673.659	-6.03
673.892	-6.02
674.125	-6.41
674.358	-7.25
674.591	-9.06
674.824	-8.11
675.057	-7.24
675.29	-7.41
675.523	-6.14
675.755	-7.87
675.988	-6.99
676.221	-4.12
676.454	-5.45
676.687	-5.17
676.919	-6.23
677.152	-5.42
677.385	-6.46
677.617	-5.91
677.85	-5.64
678.083	-5.06
678.315	-3.23
678.548	-5.07
678.78	-4.69
679.013	-4.5
679.246	-4.02
679.478	-4.85
679.711	-6.69
679.943	-5.11
680.175	-8.84
680.408	-4.35
680.64	-9.08
680.873	-7.79
681.105	-7.49
681.338	-3.33
681.57	-3.17
681.802	-0.37
682.034	-0.5
682.267	2.75
682.499	3.91
682.731	2.8
682.964	2.01
683.196	0.85
683.428	-1.36
683.66	-4.03
683.892	-0.69
684.124	2.62
684.356	5.41
684.589	6.02
684.821	3.95
685.053	2.96
685.285	2.73
685.517	5.54
685.749	8
685.981	8.72
686.213	8.6
686.445	9.55
686.676	7.03
686.908	7.49
687.14	7.81
687.372	9.14
687.604	5.98
687.836	7
688.068	6
688.299	5.44
688.531	3.21
688.763	6.28
688.995	3.33
689.226	7.64
689.458	4.4
689.69	2.11
689.921	0.74
690.153	0.98
690.384	1.45
690.616	1.41
690.848	2.67
691.079	-2.14
691.311	-5.44
691.542	-6.98
691.774	-9.27
692.005	-5.57
692.237	-2.28
692.468	-4.03
692.699	-5.18
692.931	-7
693.162	-8.99
693.393	-10.49
693.625	-11.42
693.856	-9.2
694.087	-9.83
694.319	-10.46
694.55	-10.96
694.781	-11.64
695.012	-11.75
695.243	-13.36
695.475	-13.49
695.706	-13.55
695.937	-14.22
696.168	-14.32
696.399	-17.04
696.63	-16.97
696.861	-15.67
697.092	-9.51
697.323	-6.77
697.554	-5.12
697.785	-5.07
698.016	-3.21
698.247	-5.21
698.478	-3.38
698.709	-2.91
698.94	0.15
699.171	-0.86
699.401	-4.61
699.632	-0.69
699.863	-4.16
700.094	-4.9
700.325	-2.12
700.555	0.89
700.786	1.75
701.017	0.47
701.247	0.79
701.478	1.97
701.709	2.78
701.939	1.15
702.17	4.39
702.401	6.78
702.631	7.7
702.862	6.58
703.092	4.13
703.323	6.99
703.553	8.08
703.784	8.4
704.014	7.1
704.244	0.59
704.475	-0.49
704.705	-0.66
704.936	-0.54
705.166	-1.62
705.396	1.56
705.627	1.26
705.857	1.48
706.087	1.3
706.317	-1.03
706.548	-2.46
706.778	-4.66
707.008	-3.03
707.238	-2.04
707.468	-3.37
707.698	-6.35
707.928	-6.43
708.158	-8.3
708.389	-8.14
708.619	-10.33
708.849	-13.25
709.079	-11.29
709.309	-13.48
709.539	-15.8
709.768	-15.96
709.998	-13.3
710.228	-13.43
710.458	-14.59
710.688	-16.56
710.918	-16.6
711.148	-16.95
711.378	-13.89
711.607	-13.87
711.837	-12.81
712.067	-11.98
712.297	-13.43
712.526	-13.5
712.756	-12.98
712.986	-15.7
713.215	-19.21
713.445	-17.86
713.674	-15.11
713.904	-15.7
714.134	-14.79
714.363	-15.77
714.593	-15.99
714.822	-15.37
715.052	-15.87
715.281	-13.05
715.511	-14.81
715.74	-14.42
715.969	-13.48
716.199	-13.66
716.428	-14.53
716.657	-13.11
716.887	-9.94
717.116	-12.96
717.345	-11.07
717.575	-10.96
717.804	-10.1
718.033	-12.16
718.262	-11.79
718.492	-13.27
718.721	-13.67
718.95	-14.38
719.179	-16.77
719.408	-14.44
719.637	-17.21
719.866	-19.24
720.095	-17.91
720.324	-17.29
720.553	-21.24
720.782	-23.06
721.011	-22.44
721.24	-23.87
721.469	-24.22
721.698	-24.76
721.927	-23.86
722.156	-24.67
722.385	-24.9
722.613	-21.9
722.842	-21.17
723.071	-17.59
723.3	-17.22
723.529	-16.14
723.757	-16.43
723.986	-21.92
724.215	-22.44
724.443	-22.45
724.672	-20.38
724.901	-19.78
725.129	-16.85
725.358	-12.4
725.586	-14.6
725.815	-14.36
726.043	-16.29
726.272	-18.73
726.5	-19.88
726.729	-19.36
726.957	-21.65
727.186	-24.22
727.414	-22.29
727.642	-20.56
727.871	-19.25
728.099	-18.89
728.327	-17.39
728.556	-14.67
728.784	-13.95
729.012	-15.17
729.241	-12.86
729.469	-14.3
729.697	-18.12
729.925	-17.43
730.153	-20.67
730.381	-20.51
730.61	-21.5
730.838	-23.52
731.066	-20.53
731.294	-19.87
731.522	-22.31
731.75	-26.99
731.978	-28.27
732.206	-29.45
732.434	-33.4
732.662	-30.44
732.89	-32.61
733.118	-32.95
733.346	-31.87
733.573	-30.96
733.801	-30.84
734.029	-23.58
734.257	-20.79
734.485	-18.17
734.712	-16.29
734.94	-18.35
735.168	-16.61
735.396	-17.03
735.623	-18.91
735.851	-18.1
736.078	-16.69
736.306	-15.27
736.534	-15.63
736.761	-12.64
736.989	-16.07
737.216	-16.13
737.444	-18.79
737.671	-17.25
737.899	-11.94
738.126	-12.82
738.354	-13.33
738.581	-12
738.809	-9.44
739.036	-11.53
739.263	-11.3
739.491	-12.15
739.718	-12.54
739.945	-6.74
740.173	-5.32
740.4	-4.36
740.627	-7.01
740.854	-6.76
741.081	-10.44
741.309	-12.03
741.536	-16.14
741.763	-16.72
741.99	-13.42
742.217	-14.23
742.444	-14.44
742.671	-13.18
742.898	-13.27
743.125	-16.6
743.352	-21.86
743.579	-21.93
743.806	-22.8
744.033	-19.43
744.26	-17.85
744.487	-16
744.714	-16.1
744.941	-16.93
745.167	-13.57
745.394	-13.28
745.621	-14.52
745.848	-15.74
746.075	-12.68
746.301	-8.78
746.528	-4.19
746.755	-6.04
746.981	-7.46
747.208	-5.14
747.435	-2.02
747.661	-0.77
747.888	0.37
748.114	-1.76
748.341	1.15
748.567	3.1
748.794	0.89
749.02	-2.07
749.247	-5.51
749.473	-6.05
749.7	-6.15
749.926	-6.46
750.152	-2.12
750.379	-0.06
750.605	1.55
750.831	0.24
751.058	-1.06
751.284	-2.93
751.51	0.07
751.737	0.47
751.963	-2.17
752.189	-3.42
752.415	-3.46
752.641	-3.91
752.867	-3.16
753.094	-3.69
753.32	-5.43
753.546	-7.39
753.772	-5.99
753.998	-7.68
754.224	-9.29
754.45	-10.56
754.676	-10.56
754.902	-11.83
755.128	-10.61
755.354	-13.29
755.579	-12.13
755.805	-10.08
756.031	-11.07
756.257	-10.85
756.483	-12.15
756.709	-14.26
756.934	-14.45
757.16	-17
757.386	-18.52
757.612	-21.12
757.837	-21.69
758.063	-18.89
758.289	-15.41
758.514	-18.52
758.74	-22.65
758.965	-24.8
759.191	-24.81
759.416	-23.67
759.642	-20.91
759.868	-21.57
760.093	-20.02
760.318	-23.05
760.544	-23.52
760.769	-23.63
760.995	-25.04
761.22	-26.12
761.445	-24.87
761.671	-23.7
761.896	-20.06
762.121	-19.58
762.347	-18.7
762.572	-20.66
762.797	-21.65
763.022	-21.04
763.248	-15.19
763.473	-13.78
763.698	-13
763.923	-12.32
764.148	-12.99
764.373	-11.58
764.598	-9.2
764.823	-7.44
765.048	-11.45
765.273	-15.11
765.498	-15.3
765.723	-13.48
765.948	-10.35
766.173	-10.39
766.398	-10.5
766.623	-14.33
766.848	-13.94
767.073	-16.45
767.298	-16.62
767.522	-18.22
767.747	-16.73
767.972	-16.62
768.197	-15.59
768.421	-16.7
768.646	-19.18
768.871	-23.42
769.095	-23.05
769.32	-22.18
769.545	-22.66
769.769	-20.74
769.994	-19.02
770.218	-23.48
770.443	-22.84
770.667	-22.28
770.892	-23.27
771.116	-23.5
771.341	-22.62
771.565	-23.7
771.79	-23.71
772.014	-23.35
772.238	-23.91
772.463	-22.91
772.687	-21.92
772.911	-23.82
773.136	-26.76
773.36	-26.48
773.584	-24.27
773.808	-26.49
774.033	-25.52
774.257	-24.28
774.481	-23.33
774.705	-23.98
774.929	-23.77
775.153	-22.81
775.377	-21.48
775.602	-21.13
775.826	-19.19
776.05	-18.02
776.274	-18.84
776.498	-19.71
776.722	-20.16
776.945	-19.2
777.169	-18.77
777.393	-20.06
777.617	-21.25
777.841	-19.17
778.065	-17.05
778.289	-17.06
778.512	-17.47
778.736	-17.2
778.96	-17.63
779.184	-15.5
779.407	-15.55
779.631	-16.33
779.855	-16.69
780.078	-15.8
780.302	-16.39
780.526	-19.05
780.749	-18.72
780.973	-16.56
781.196	-16.64
781.42	-18.97
781.643	-20.17
781.867	-17.67
782.09	-21.33
782.314	-23.18
782.537	-23.16
782.76	-24.58
782.984	-23.19
783.207	-22.89
783.431	-22.39
783.654	-23.02
783.877	-26.09
784.1	-26.98
784.324	-27.18
784.547	-26.85
784.77	-31.74
784.993	-33.81
785.216	-34.19
785.44	-33.3
785.663	-35.5
785.886	-33.7
786.109	-35.24
786.332	-35.29
786.555	-34.43
786.778	-32.39
787.001	-30.25
787.224	-29.78
787.447	-27.38
787.67	-25.96
787.893	-26.6
788.116	-25.77
788.339	-24.45
788.561	-24.98
788.784	-29.75
789.007	-30.65
789.23	-31.93
789.453	-32.52
789.675	-33.4
789.898	-35.46
790.121	-37.41
790.344	-36.09
790.566	-35.2
790.789	-33.92
791.012	-33.67
791.234	-30.15
791.457	-26.74
791.679	-23.9
791.902	-22.98
792.124	-23.54
792.347	-24.41
792.569	-23.39
792.792	-26.67
793.014	-23.6
793.237	-22.82
793.459	-22.06
793.681	-22.2
793.904	-24.21
794.126	-24.36
794.348	-25.46
794.571	-23.49
794.793	-25.79
795.015	-25.39
795.237	-25.44
795.46	-23.85
795.682	-22.46
795.904	-19.48
796.126	-20.58
796.348	-20.77
796.57	-17.79
796.792	-18.45
797.014	-14.3
797.237	-12.6
797.459	-12.22
797.681	-10.97
797.903	-12.53
798.124	-13.7
798.346	-3.04
798.568	-2.53
798.79	1.14
799.012	2.12
799.234	2.43
799.456	4.65
799.678	8.38
799.899	5.42
800.121	2.39
800.343	0.65
800.565	0.71
800.786	1.5
801.008	2.63
801.23	3.03
801.451	3.36
801.673	2.57
801.895	2.27
802.116	4.43
802.338	6.12
802.559	5.58
802.781	3.36
803.002	6.92
803.224	8.98
803.445	6.1
803.667	8.67
803.888	5.88
804.109	6.03
804.331	5.35
804.552	4.32
804.773	6.32
804.995	3.61
805.216	-10.98
805.437	-13.03
805.658	-16.75
805.88	-18.39
806.101	-18.09
806.322	-18.11
806.543	-18.83
806.764	-19.49
806.985	-16.77
807.207	-14.95
807.428	-15.6
807.649	-18.32
807.87	-20.57
808.091	-19.24
808.312	-19.34
808.533	-14.37
808.754	-13.48
808.975	-15.07
809.195	-13
809.416	-11.89
809.637	-11.11
809.858	-13.92
810.079	-15.8
810.3	-12.79
810.52	-14.48
810.741	-16.13
810.962	-19.98
811.183	-20.18
811.403	-20.3
811.624	-21.03
811.845	-18.26
812.065	-16.35
812.286	-15
812.506	-14.56
812.727	-14.61
812.948	-14.26
813.168	-12.81
813.389	-15
813.609	-13.25
813.83	-13.88
814.05	-16.25
814.27	-15.15
814.491	-10.83
814.711	-12.31
814.931	-16.32
815.152	-17.5
815.372	-20.34
815.592	-20.79
815.813	-22.81
816.033	-25.45
816.253	-24.43
816.473	-24.94
816.694	-22.75
816.914	-21.46
817.134	-21.03
817.354	-24.05
817.574	-22.68
817.794	-22.29
818.014	-23.4
818.234	-23.56
818.454	-23.24
818.674	-25.79
818.894	-27.59
819.114	-24.64
819.334	-24.56
819.554	-20.13
819.774	-17.19
819.994	-19.66
820.214	-20.23
820.433	-20.74
820.653	-21.79
820.873	-19.44
821.093	-19.69
821.312	-22.08
821.532	-19.64
821.752	-15.82
821.972	-17.96
822.191	-15.56
822.411	-16.53
822.63	-13.84
822.85	-13.41
823.07	-15.42
823.289	-14.01
823.509	-14.92
823.728	-12.53
823.948	-15.85
824.167	-14.88
824.387	-14.53
824.606	-12.76
824.825	-13.42
825.045	-12.7
825.264	-14.76
825.483	-13.66
825.703	-12.16
825.922	-15.89
826.141	-15.8
826.361	-18.39
826.58	-21.92
826.799	-24.26
827.018	-22.92
827.237	-23.11
827.456	-20.45
827.676	-19.98
827.895	-19.77
828.114	-19.66
828.333	-19.39
828.552	-20.44
828.771	-18.23
828.99	-21.85
829.209	-21.95
829.428	-21.14
829.647	-21.43
829.866	-20.37
830.084	-20.7
830.303	-22.25
830.522	-23.83
830.741	-23.14
830.96	-22.44
831.179	-24.47
831.397	-25.86
831.616	-25.05
831.835	-24.67
832.053	-23.2
832.272	-21.86
832.491	-20.7
832.709	-20.33
832.928	-20.3
833.147	-21.14
833.365	-20.25
833.584	-17.32
833.802	-14.81
834.021	-13.02
834.239	-12.9
834.458	-15.51
834.676	-19.18
834.894	-18.45
835.113	-19.76
835.331	-20.17
835.55	-21.65
835.768	-19.86
835.986	-18.63
836.204	-20.4
836.423	-19.56
836.641	-20.2
836.859	-22.57
837.077	-20.79
837.296	-21.33
837.514	-22.43
837.732	-22.69
837.95	-21.11
838.168	-18.83
838.386	-19.65
838.604	-17.55
838.822	-16.24
839.04	-19.31
839.258	-19.53
839.476	-18.03
839.694	-17.85
839.912	-18.72
840.13	-19.42
840.348	-16.5
840.566	-18.9
840.783	-18.25
841.001	-20.6
841.219	-17.76
841.437	-15.8
841.655	-15.89
841.872	-15.17
842.09	-14.98
842.308	-12.6
842.525	-12.01
842.743	-10.92
842.961	-11.96
843.178	-14.6
843.396	-11.67
843.613	-9.78
843.831	-8.2
844.048	-8.61
844.266	-8.79
844.483	-9.85
844.701	-12.55
844.918	-12.37
845.136	-12.12
845.353	-15.42
845.57	-14.67
845.788	-10.41
846.005	-13.05
846.222	-15.3
846.439	-15.25
846.657	-14.01
846.874	-12.73
847.091	-15.94
847.308	-13.81
847.526	-15.41
847.743	-14.78
847.96	-16.71
848.177	-15.78
848.394	-17.12
848.611	-17.61
848.828	-18.65
849.045	-20.1
849.262	-21.41
849.479	-22.83
849.696	-22.99
849.913	-24.29
850.13	-28.42
850.347	-26.19
850.564	-28.4
850.78	-29.56
850.997	-30.07
851.214	-30.32
851.431	-28.62
851.647	-32.57
851.864	-32.05
852.081	-28.78
852.298	-31.82
852.514	-34.69
852.731	-33.26
852.948	-30.92
853.164	-29.27
853.381	-29.73
853.597	-30.96
853.814	-33.18
854.03	-36.57
854.247	-34.71
854.463	-34.94
854.68	-35.51
854.896	-36.6
855.113	-35.59
855.329	-34.95
855.545	-31.39
855.762	-33.09
855.978	-35.01
856.194	-37.42
856.411	-32.81
856.627	-30.96
856.843	-30.85
857.059	-28.45
857.275	-29.11
857.492	-28.37
857.708	-25.02
857.924	-24.14
858.14	-21.9
858.356	-21.76
858.572	-23.1
858.788	-25.67
859.004	-24.28
859.22	-24.63
859.436	-24.46
859.652	-26.37
859.868	-28.77
860.084	-29.39
860.3	-30.15
860.516	-29.78
860.731	-29.38
860.947	-32.09
861.163	-30.22
861.379	-29.64
861.595	-28.1
861.81	-27.02
862.026	-26.96
862.242	-28.26
862.457	-27.27
862.673	-27.63
862.889	-26.89
863.104	-28.95
863.32	-28.33
863.535	-26.98
863.751	-31.45
863.966	-28.37
864.182	-26.29
864.397	-28.29
864.613	-28.3
864.828	-30.85
865.044	-29.03
865.259	-25.18
865.474	-26.02
865.69	-24.17
865.905	-23.38
866.12	-25.56
866.336	-25.03
866.551	-23.69
866.766	-23.33
866.981	-24.05
867.196	-23.08
867.412	-22.87
867.627	-21.48
867.842	-21.56
868.057	-20.97
868.272	-21.57
868.487	-22.59
868.702	-25.04
868.917	-25.43
869.132	-24.01
869.347	-21.11
869.562	-21.04
869.777	-20.69
869.992	-21.18
870.207	-20.94
870.422	-22.22
870.636	-23.54
870.851	-25.6
871.066	-26.57
871.281	-27.11
871.495	-27.34
871.71	-24.5
871.925	-27.6
872.14	-27.91
872.354	-30.75
872.569	-31.97
872.783	-29.07
872.998	-28.63
873.213	-29.4
873.427	-27.24
873.642	-25.18
873.856	-25.19
874.071	-25.55
874.285	-27.68
874.5	-29.75
874.714	-32.56
874.928	-33.98
875.143	-34.55
875.357	-34.18
875.571	-36.62
875.786	-36.24
876	-34.28
876.214	-33.24
876.429	-36.27
876.643	-35.66
876.857	-34.01
877.071	-31.58
877.285	-33.35
877.499	-36.49
877.714	-34.2
877.928	-31.57
878.142	-33.07
878.356	-36.56
878.57	-35.29
878.784	-33.76
878.998	-34.16
879.212	-31.22
879.426	-33.39
879.639	-31.65
879.853	-33.61
880.067	-32.47
880.281	-33.18
880.495	-31.17
880.709	-28.62
880.922	-27.68
881.136	-26.79
881.35	-24.29
881.564	-23.17
881.777	-25.76
881.991	-23.24
882.205	-18.76
882.418	-19.39
882.632	-22.34
882.845	-22.75
883.059	-21.87
883.273	-22.27
883.486	-23.91
883.7	-22.29
883.913	-22.54
884.126	-20.02
884.34	-22.37
884.553	-24.68
884.767	-19.21
884.98	-18.3
885.193	-19.69
885.407	-20.77
885.62	-17.73
885.833	-18.44
886.046	-16.28
886.26	-18.52
886.473	-17.47
886.686	-18.69
886.899	-16.89
887.112	-18.74
887.326	-21.78
887.539	-21.49
887.752	-20.01
887.965	-21.39
888.178	-20.81
888.391	-19.4
888.604	-20.42
888.817	-22.96
889.03	-21.81
889.243	-22.97
889.455	-25.04
889.668	-24.86
889.881	-22.45
890.094	-23.39
890.307	-25.52
890.52	-23.17
890.732	-21.63
890.945	-21.62
891.158	-20.95
891.37	-24.2
891.583	-24.27
891.796	-22.29
892.008	-23.2
892.221	-24.35
892.434	-28.72
892.646	-29.78
892.859	-29.54
893.071	-27.04
893.284	-26.38
893.496	-28.16
893.709	-28.15
893.921	-24.64
894.133	-25.64
894.346	-26.76
894.558	-26.67
894.771	-26.95
894.983	-24.61
895.195	-25.06
895.407	-24.07
895.62	-26.39
895.832	-25.94
896.044	-22.77
896.256	-22.67
896.468	-24.63
896.681	-24.23
896.893	-23.9
897.105	-24.23
897.317	-25.05
897.529	-24.43
897.741	-24.06
897.953	-22.01
898.165	-21.63
898.377	-23.98
898.589	-22.79
898.801	-23.98
899.013	-20.46
899.224	-17.82
899.436	-16.45
899.648	-17.36
899.86	-18.97
900.072	-16.38
900.283	-15.53
900.495	-16.64
900.707	-15.07
900.919	-17.69
901.13	-16.27
901.342	-18.84
901.554	-19.86
901.765	-17.94
901.977	-19.87
902.188	-20.76
902.4	-21.12
902.611	-23.5
902.823	-25.57
903.034	-28.08
903.246	-27.37
903.457	-28.48
903.669	-29.81
903.88	-30.14
904.091	-29.68
904.303	-29.51
904.514	-30.4
904.725	-28.93
904.936	-28.07
905.148	-27.11
905.359	-24.38
905.57	-23.79
905.781	-26.5
905.992	-27.12
906.204	-27.08
906.415	-27.12
906.626	-29.82
906.837	-26.36
907.048	-27.94
907.259	-29.62
907.47	-31.31
907.681	-32.63
907.892	-28.79
908.103	-29.43
908.314	-32.36
908.525	-31.43
908.735	-30.22
908.946	-30.45
909.157	-30.15
909.368	-27.67
909.579	-26.64
909.789	-28.9
910	-29.91
910.211	-28.37
910.421	-29.66
910.632	-28.38
910.843	-29.99
911.053	-26.59
911.264	-24.64
911.475	-26.01
911.685	-25.89
911.896	-26.79
912.106	-27.7
912.317	-29.54
912.527	-27.43
912.737	-28.99
912.948	-28.52
913.158	-27.38
913.369	-31.55
913.579	-27.9
913.789	-26.13
914	-22.69
914.21	-23.42
914.42	-22.59
914.63	-24.07
914.841	-23.17
915.051	-20.89
915.261	-19.77
915.471	-16.6
915.681	-14.44
915.891	-14.17
916.101	-15.98
916.311	-15.94
916.521	-14.03
916.731	-12.16
916.941	-9.5
917.151	-10.46
917.361	-8.45
917.571	-12.92
917.781	-15.88
917.991	-16.83
918.201	-17.73
918.411	-21.09
918.621	-20.99
918.83	-18.72
919.04	-21.2
919.25	-17.63
919.46	-16.88
919.669	-19.99
919.879	-20.74
920.089	-23.01
920.298	-25.18
920.508	-24.05
920.717	-22.64
920.927	-25.16
921.136	-23.33
921.346	-23.77
921.555	-27.55
921.765	-29.06
921.974	-31.58
922.184	-35.96
922.393	-35.95
922.603	-35.39
922.812	-33.11
923.021	-33.92
923.23	-36.58
923.44	-39.67
923.649	-39.96
923.858	-41.22
924.067	-42.4
924.277	-44.14
924.486	-41.71
924.695	-41.83
924.904	-38.77
925.113	-39.31
925.322	-38.87
925.531	-39.06
925.74	-42.11
925.949	-42.44
926.158	-38.91
926.367	-38.79
926.576	-37.27
926.785	-36.43
926.994	-37.93
927.203	-35.89
927.412	-36.47
927.621	-37.22
927.83	-34.98
928.038	-34.74
928.247	-35.2
928.456	-34.1
928.665	-32.3
928.873	-31.21
929.082	-29.51
929.291	-28.48
929.499	-27.7
929.708	-28.94
929.916	-26.45
930.125	-27.62
930.333	-27.19
930.542	-22.84
930.75	-19.52
930.959	-19.62
931.167	-21.05
931.376	-21.8
931.584	-18.76
931.793	-18.85
932.001	-18.92
932.209	-21.82
932.418	-25.52
932.626	-27.69
932.834	-29.45
933.042	-32.28
933.251	-31.97
933.459	-31.92
933.667	-35.14
933.875	-35.37
934.083	-33.61
934.291	-33.45
934.499	-31.85
934.707	-31.23
934.915	-32.64
935.123	-30.06
935.331	-30.36
935.539	-32.41
935.747	-33.89
935.955	-33.82
936.163	-33.88
936.371	-33.81
936.579	-31.46
936.787	-32.33
936.995	-34.87
937.202	-37.37
937.41	-36.14
937.618	-34.81
937.826	-34.29
938.033	-38.69
938.241	-41.2
938.449	-38.71
938.656	-34.66
938.864	-32.93
939.071	-32.37
939.279	-29.39
939.486	-26.41
939.694	-27.5
939.901	-28.62
940.109	-28.07
940.316	-27.9
940.524	-29.01
940.731	-31.23
940.939	-30.67
941.146	-31.03
941.353	-31.03
941.561	-32.84
941.768	-33.82
941.975	-31.54
942.182	-31.83
942.39	-31.01
942.597	-26.57
942.804	-28.03
943.011	-28.3
943.218	-26.22
943.425	-26.95
943.632	-26.68
943.839	-28.77
944.046	-30.29
944.253	-31.21
944.46	-31.71
944.667	-26.75
944.874	-27.26
945.081	-26.55
945.288	-25.47
945.495	-23.98
945.702	-24.06
945.909	-27.23
946.115	-24.5
946.322	-24.54
946.529	-24.81
946.736	-23.99
946.942	-23.48
947.149	-22.91
947.356	-24.11
947.562	-25.78
947.769	-24.95
947.976	-24.87
948.182	-24.49
948.389	-25.48
948.595	-25.31
948.802	-25.45
949.008	-28.8
949.215	-27.29
949.421	-28.68
949.628	-30.74
949.834	-28.87
950.04	-28.53
950.247	-24.01
950.453	-22.29
950.659	-22.74
950.865	-19.84
951.072	-23.85
951.278	-22.75
951.484	-24.53
951.69	-26.8
951.896	-27.17
952.103	-27.99
952.309	-26.2
952.515	-27.89
952.721	-26.89
952.927	-24.51
953.133	-25.76
953.339	-24.71
953.545	-25.08
953.751	-23.13
953.957	-20.23
954.163	-22.47
954.369	-22.23
954.574	-23.3
954.78	-23.72
954.986	-22.19
955.192	-21.51
955.398	-22.02
955.603	-24.48
955.809	-21.79
956.015	-20.97
956.22	-20.98
956.426	-20.67
956.632	-24.98
956.837	-25.34
957.043	-25.85
957.248	-26.07
957.454	-25.48
957.66	-27.75
957.865	-27.5
958.07	-25.24
958.276	-26.56
958.481	-27.97
958.687	-28.43
958.892	-28.49
959.097	-26.9
959.303	-28.3
959.508	-28.05
959.713	-29.62
959.919	-29.52
960.124	-31.86
960.329	-32.24
960.534	-29.22
960.739	-27.86
960.945	-26.28
961.15	-26.58
961.355	-28.57
961.56	-32.88
961.765	-33.46
961.97	-32.63
962.175	-31.47
962.38	-34.18
962.585	-34.61
962.79	-37.03
962.995	-36.54
963.2	-36.93
963.404	-36.32
963.609	-39.52
963.814	-41.52
964.019	-43.89
964.224	-45.96
964.428	-44.48
964.633	-43.52
964.838	-41.07
965.042	-40.79
965.247	-42.39
965.452	-44
965.656	-41.26
965.861	-40.71
966.066	-41.38
966.27	-38.63
966.475	-34.26
966.679	-36.79
966.884	-36.12
967.088	-38.89
967.292	-39.77
967.497	-38.34
967.701	-38.35
967.906	-34.73
968.11	-31.15
968.314	-27.32
968.518	-29.66
968.723	-25.98
968.927	-24.81
969.131	-23.35
969.335	-21.35
969.539	-21.05
969.744	-18.87
969.948	-16.13
970.152	-13.94
970.356	-12.82
970.56	-12.25
970.764	-13.93
970.968	-11.09
971.172	-10.6
971.376	-11.36
971.58	-9.68
971.784	-7.98
971.988	-11.05
972.192	-7.67
972.395	-7.84
972.599	-11.21
972.803	-13.57
973.007	-11.71
973.21	-11.68
973.414	-12.03
973.618	-12.1
973.822	-12.62
974.025	-12.79
974.229	-14.24
974.432	-18.82
974.636	-21.33
974.84	-20.68
975.043	-21.49
975.247	-22.88
975.45	-23.57
975.654	-23.62
975.857	-22.89
976.06	-24.37
976.264	-25.83
976.467	-23.57
976.671	-23.15
976.874	-21.71
977.077	-22.66
977.28	-24.23
977.484	-26.66
977.687	-26.3
977.89	-24.59
978.093	-25.53
978.297	-24.64
978.5	-27.4
978.703	-26.05
978.906	-24.93
979.109	-24.9
979.312	-22.67
979.515	-24.04
979.718	-23.14
979.921	-23.17
980.124	-23.58
980.327	-23.92
980.53	-23.04
980.733	-20.68
980.936	-18.11
981.138	-18.61
981.341	-18.24
981.544	-19.48
981.747	-19.24
981.949	-19.81
982.152	-18.74
982.355	-19.76
982.558	-16.09
982.76	-21.22
982.963	-21.65
983.165	-21.63
983.368	-20.91
983.571	-22.84
983.773	-19.42
983.976	-19.69
984.178	-19
984.381	-19.25
984.583	-22.07
984.785	-21.65
984.988	-19.9
985.19	-18.11
985.392	-19.49
985.595	-24.11
985.797	-23.69
985.999	-21.13
986.202	-19.93
986.404	-20.83
986.606	-17.89
986.808	-17.95
987.01	-16.11
987.212	-16.82
987.415	-18.47
987.617	-18.92
987.819	-18.02
988.021	-16.06
988.223	-18.18
988.425	-18.26
988.627	-18.13
988.829	-22.16
989.031	-17.48
989.232	-17.61
989.434	-16.11
989.636	-16.21
989.838	-15.04
990.04	-15.03
990.242	-15.77
990.443	-18.1
990.645	-15.27
990.847	-11.48
991.048	-11.72
991.25	-13.44
991.452	-14.05
991.653	-14.69
991.855	-13.72
992.057	-14.88
992.258	-14.56
992.46	-15.22
992.661	-14.26
992.863	-15.96
993.064	-15.99
993.265	-17.43
993.467	-20.21
993.668	-18.48
993.87	-18.46
994.071	-18.08
994.272	-18.01
994.473	-17.59
994.675	-18.38
994.876	-18.11
995.077	-18.02
995.278	-18.41
995.48	-17.62
995.681	-19.47
995.882	-19.41
996.083	-21.65
996.284	-25.67
996.485	-24.82
996.686	-25.42
996.887	-28.09
997.088	-32.15
997.289	-34.31
997.49	-33.78
997.691	-33.44
997.892	-33.06
998.092	-26.96
998.293	-26.12
998.494	-27.29
998.695	-27
998.896	-25.28
999.096	-25.97
999.297	-25.03
999.498	-26.09
999.698	-27.74
999.899	-29.4
1000.1	-30.12
1000.3	-30.18
1000.501	-31.07
1000.701	-29.85
1000.902	-28.93
1001.102	-28.7
1001.303	-26.85
1001.503	-28.6
1001.704	-28.49
1001.904	-28.97
1002.105	-29.47
1002.305	-27.84
1002.505	-27.61
1002.706	-29.17
1002.906	-29.45
1003.106	-30.63
1003.306	-29.62
1003.507	-26.61
1003.707	-28.28
1003.907	-27.86
1004.107	-27.07
1004.307	-29.76
1004.507	-27.63
1004.707	-27.62
1004.907	-30.15
1005.107	-29.98
1005.308	-28.93
1005.507	-31.99
1005.707	-30.29
1005.907	-30.38
1006.107	-28.3
1006.307	-27.17
1006.507	-29.01
1006.707	-28.83
1006.907	-27.84
1007.106	-29.69
1007.306	-29.56
1007.506	-28.92
1007.706	-29.73
1007.905	-31.92
1008.105	-32.36
1008.305	-31.84
1008.504	-31.39
1008.704	-25.48
1008.903	-24.83
1009.103	-22.06
1009.303	-23.05
1009.502	-22.32
1009.702	-23.83
1009.901	-23.46
1010.1	-26.35
1010.3	-25.6
1010.499	-27.51
1010.699	-30.41
1010.898	-31.55
1011.097	-30.85
1011.296	-30.59
1011.496	-31.16
1011.695	-30.4
1011.894	-31.83
1012.093	-28.01
1012.293	-28.72
1012.492	-30.11
1012.691	-29.12
1012.89	-29.09
1013.089	-31.6
1013.288	-30.64
1013.487	-30.63
1013.686	-31.56
1013.885	-32.71
1014.084	-31.21
1014.283	-30.77
1014.482	-31.43
1014.681	-31.83
1014.88	-37.32
1015.078	-35.48
1015.277	-38.54
1015.476	-38.45
1015.675	-37.86
1015.873	-37.72
1016.072	-38.19
1016.271	-33.89
1016.47	-36.49
1016.668	-35.81
1016.867	-35.97
1017.065	-38.48
1017.264	-38.32
1017.463	-39.37
1017.661	-39.72
1017.86	-39.9
1018.058	-38.17
1018.256	-40.5
1018.455	-42.04
1018.653	-40.53
1018.852	-39.56
1019.05	-43.36
1019.248	-44.97
1019.447	-45.06
1019.645	-45.14
1019.843	-47.24
1020.041	-44.21
1020.24	-44.39
1020.438	-41.19
1020.636	-42.49
1020.834	-45.03
1021.032	-42.02
1021.23	-43.52
1021.428	-41.51
1021.626	-37.34
1021.824	-36.93
1022.022	-37.91
1022.22	-36.85
1022.418	-37.05
1022.616	-36.52
1022.814	-36.43
1023.012	-37.39
1023.21	-34.46
1023.408	-34.8
1023.606	-35.29
1023.803	-30.66
1024.001	-30.22
1024.199	-34.04
1024.397	-33.32
1024.594	-33.36
1024.792	-34.56
1024.99	-33.97
1025.187	-31.48
1025.385	-26.73
1025.582	-26.72
1025.78	-27.08
1025.977	-24.27
1026.175	-24.3
1026.372	-24.52
1026.57	-26.31
1026.767	-23.24
1026.965	-20.94
1027.162	-21.66
1027.359	-21.16
1027.557	-21.06
1027.754	-24.59
1027.951	-25.62
1028.148	-23.61
1028.346	-25.94
1028.543	-28.51
1028.74	-28.79
1028.937	-30.33
1029.134	-30.07
1029.331	-32.19
1029.528	-32.03
1029.725	-32.89
1029.923	-36.53
1030.12	-32.94
1030.317	-31.46
1030.513	-28.96
1030.71	-26.72
1030.907	-24.59
1031.104	-26.27
1031.301	-27.17
1031.498	-28.03
1031.695	-27.93
1031.892	-26.02
1032.088	-26.97
1032.285	-28.7
1032.482	-28.6
1032.678	-31.76
1032.875	-34.5
1033.072	-33.97
1033.268	-34.21
1033.465	-34.19
1033.662	-35.89
1033.858	-35.79
1034.055	-36.31
1034.251	-34.07
1034.448	-33.66
1034.644	-33.55
1034.84	-31.61
1035.037	-29.71
1035.233	-29.3
1035.43	-25.86
1035.626	-25.98
1035.822	-25.42
1036.019	-26.27
1036.215	-31.25
1036.411	-31.83
1036.607	-34.27
1036.803	-37.78
1037	-39.34
1037.196	-40.12
1037.392	-40.38
1037.588	-43.06
1037.784	-41.75
1037.98	-44.84
1038.176	-44.01
1038.372	-45.66
1038.568	-44.3
1038.764	-42.25
1038.96	-38.46
1039.156	-41.5
1039.352	-42.01
1039.547	-40.98
1039.743	-40.55
1039.939	-38.75
1040.135	-37.64
1040.331	-39.7
1040.526	-37
1040.722	-39.24
1040.918	-39.68
1041.113	-42.3
1041.309	-42.45
1041.505	-45.77
1041.7	-45.2
1041.896	-45.63
1042.091	-46.35
1042.287	-45.27
1042.482	-44.15
1042.678	-44.33
1042.873	-42.37
1043.069	-42.9
1043.264	-41.86
1043.459	-40.55
1043.655	-38.87
1043.85	-41.38
1044.045	-39.14
1044.24	-40.4
1044.436	-36.95
1044.631	-38.5
1044.826	-38.88
1045.021	-43.38
1045.216	-40.08
