Data from led_4000k_2_FLMT021711__17__17-34-39-838.txt Node

Date: Tue Nov 05 17:34:39 CET 2024
User: Etudiants TP
Spectrometer: FLMT02171
Trigger mode: 0
Integration Time (sec): 1,000000E-1
Scans to average: 5
Electric dark correction enabled: true
Nonlinearity correction enabled: true
Boxcar width: 15
XAxis mode: Wavelengths
Number of Pixels in Spectrum: 3648
>>>>>Begin Spectral Data<<<<<
194,658	-72,56
194,923	-70,85
195,188	-62,3
195,453	-61,19
195,717	-55,83
195,982	-53,69
196,247	-52,28
196,512	-54,31
196,777	-53,95
197,042	-51,54
197,307	-50,98
197,572	-46,5
197,837	-46,38
198,101	-43,42
198,366	-40,63
198,631	-38,93
198,896	-31,62
199,161	-23,71
199,425	-15,47
199,69	-5,14
199,955	-5,05
200,22	-8,07
200,484	-8,49
200,749	-8,84
201,014	-7,67
201,278	-7,08
201,543	-4,82
201,807	-6,27
202,072	-5,66
202,337	-7,21
202,601	-6,96
202,866	-9,1
203,13	-6,34
203,395	-9,71
203,659	-9,05
203,924	-9,3
204,189	-9,43
204,453	-8,68
204,717	-6,27
204,982	-3,96
205,246	-3,68
205,511	-1,3
205,775	-1,68
206,04	3,53
206,304	4,13
206,568	5,2
206,833	5,61
207,097	6,91
207,361	9,41
207,626	13,42
207,89	12,59
208,154	14,6
208,419	15,85
208,683	15,85
208,947	17,93
209,211	15,98
209,476	15,28
209,74	14,1
210,004	14,91
210,268	16,21
210,532	20,83
210,796	21,19
211,061	21,69
211,325	21,69
211,589	21,1
211,853	20,49
212,117	19,01
212,381	19,92
212,645	19,7
212,909	20,77
213,173	18,57
213,437	19,9
213,701	19
213,965	19,25
214,229	14,64
214,493	13,94
214,757	15,05
215,021	15,55
215,285	19,67
215,549	21,29
215,813	18,13
216,077	19,7
216,34	20,3
216,604	19,69
216,868	21,53
217,132	23,03
217,396	22,62
217,659	23,36
217,923	19,96
218,187	20,28
218,451	19,19
218,714	15,7
218,978	15,85
219,242	18,9
219,505	18,79
219,769	20,52
220,033	21,63
220,296	23,69
220,56	25,5
220,824	24,96
221,087	24,04
221,351	24,55
221,614	22,79
221,878	24,15
222,142	22,63
222,405	21,33
222,669	23,7
222,932	18,66
223,196	15,11
223,459	11,42
223,722	12,9
223,986	12,99
224,249	10,66
224,513	10,66
224,776	12,13
225,04	11,36
225,303	8,89
225,566	9,89
225,83	11,42
226,093	13,94
226,356	12
226,62	10,4
226,883	12,53
227,146	13,57
227,409	12,25
227,673	9,85
227,936	8,41
228,199	8,83
228,462	6,44
228,725	4,05
228,989	3,86
229,252	5,38
229,515	9,57
229,778	9,17
230,041	8,34
230,304	6,03
230,567	8,43
230,83	6,37
231,093	8,75
231,356	9,77
231,619	16,64
231,882	14,62
232,145	16,51
232,408	15,4
232,671	13,9
232,934	12,18
233,197	10,13
233,46	10,63
233,723	11,24
233,986	9,85
234,249	8,19
234,512	10,02
234,775	13,76
235,037	13,05
235,3	12,63
235,563	12,89
235,826	15,58
236,089	17,11
236,351	16,49
236,614	18,51
236,877	19,43
237,14	21,2
237,402	21,23
237,665	14,38
237,928	14,35
238,19	11,5
238,453	15,13
238,716	14,61
238,978	13,32
239,241	12,81
239,503	15,07
239,766	8,88
240,029	6,9
240,291	8,4
240,554	8,67
240,816	8,88
241,079	9,57
241,341	9,95
241,604	8,29
241,866	4,82
242,129	6,04
242,391	8,31
242,653	6,64
242,916	5,34
243,178	4,61
243,441	5,33
243,703	4,68
243,965	0,7
244,228	1,35
244,49	0,38
244,752	1,88
245,015	2,13
245,277	2,65
245,539	1,2
245,801	3,61
246,064	2,62
246,326	2,82
246,588	2
246,85	3,73
247,112	4,77
247,374	7,06
247,637	10,51
247,899	11,21
248,161	12,04
248,423	6,93
248,685	8,59
248,947	9,25
249,209	9,94
249,471	11,32
249,733	13,18
249,995	13,53
250,257	13,57
250,519	11,51
250,781	15,56
251,043	13,91
251,305	14,3
251,567	15,88
251,829	16,64
252,091	17,23
252,353	14,01
252,615	15,31
252,876	12,43
253,138	10,8
253,4	8,6
253,662	10,16
253,924	12,75
254,185	13,68
254,447	15,2
254,709	14,98
254,971	15,95
255,232	18,13
255,494	14,4
255,756	11,07
256,017	11,46
256,279	11,49
256,541	13,41
256,802	13,1
257,064	13,54
257,326	11,56
257,587	11,26
257,849	11,8
258,11	14,22
258,372	14,81
258,633	16,82
258,895	14,38
259,156	13,18
259,418	11,14
259,679	6,74
259,941	3,75
260,202	6,93
260,464	8,82
260,725	7,92
260,987	7,13
261,248	6,59
261,509	7,42
261,771	6,6
262,032	6,54
262,293	6,75
262,555	5,29
262,816	3,04
263,077	0,64
263,338	-2,58
263,6	-0,79
263,861	-1,62
264,122	-3,09
264,383	-0,65
264,645	-0,24
264,906	-1,91
265,167	-2,12
265,428	-1,98
265,689	-0,29
265,95	-3,08
266,211	-1,92
266,473	-2,71
266,734	-6,28
266,995	-8,71
267,256	-7,49
267,517	-4,15
267,778	-0,26
268,039	2,65
268,3	1,67
268,561	-0,57
268,822	2,96
269,083	0,17
269,344	-1,03
269,604	-2,97
269,865	-3,48
270,126	-6,6
270,387	-5,07
270,648	-2,97
270,909	-2,47
271,17	-2,65
271,43	-5,14
271,691	-8,69
271,952	-9,66
272,213	-7,58
272,473	-10,91
272,734	-8,53
272,995	-7,05
273,256	-6,56
273,516	-4,87
273,777	-7,51
274,038	-5,68
274,298	-8,44
274,559	-8,59
274,82	-3,11
275,08	-0,01
275,341	1,27
275,601	0,01
275,862	-2,84
276,122	-3,98
276,383	-4,33
276,643	-2,17
276,904	-4,23
277,164	0,78
277,425	1,34
277,685	6,08
277,946	6,46
278,206	8,74
278,467	10,33
278,727	10,06
278,987	10,01
279,248	9,99
279,508	12,05
279,768	15,35
280,029	16,76
280,289	12,87
280,549	12,38
280,81	10,92
281,07	9,15
281,33	9,79
281,59	9,26
281,851	12,05
282,111	11,99
282,371	11,19
282,631	11,89
282,891	9,06
283,151	6,74
283,412	5,3
283,672	4,66
283,932	4,94
284,192	6,66
284,452	5,37
284,712	2,38
284,972	1,34
285,232	-1,25
285,492	0,9
285,752	-1,62
286,012	4,45
286,272	5,79
286,532	3,41
286,792	3,45
287,052	6,38
287,312	6,35
287,571	5,41
287,831	5,11
288,091	1,53
288,351	3,04
288,611	6,87
288,871	6,71
289,13	7,28
289,39	5,3
289,65	6,97
289,91	4,84
290,17	7,83
290,429	10,75
290,689	8,23
290,949	5,97
291,208	8,67
291,468	12,48
291,728	14,37
291,987	16,1
292,247	15,18
292,506	16,92
292,766	19,53
293,026	19,09
293,285	19,23
293,545	21,57
293,804	22,09
294,064	18,65
294,323	16,24
294,583	15,7
294,842	14,86
295,102	12,72
295,361	12,3
295,621	14,44
295,88	15,57
296,139	17,68
296,399	19,67
296,658	14,83
296,917	15,14
297,177	13,09
297,436	13,96
297,695	11,62
297,955	11,92
298,214	9,24
298,473	11,07
298,732	14,15
298,992	16,94
299,251	15,36
299,51	11,12
299,769	10,59
300,028	10,48
300,287	9,67
300,547	9,25
300,806	7,5
301,065	10,01
301,324	12,62
301,583	9,63
301,842	6,21
302,101	4
302,36	4,67
302,619	4,91
302,878	7,32
303,137	5,86
303,396	6,81
303,655	6,95
303,914	3,92
304,173	3,5
304,432	1,42
304,691	4,09
304,95	1,69
305,208	5,71
305,467	4,96
305,726	4,69
305,985	6,41
306,244	8,14
306,503	6,29
306,761	4,47
307,02	1,5
307,279	2,61
307,537	2,94
307,796	0,43
308,055	-2,1
308,314	-0,56
308,572	-1,2
308,831	0,1
309,09	-0,14
309,348	0,16
309,607	-0,58
309,865	2,42
310,124	3,03
310,382	4,91
310,641	5,59
310,9	3,82
311,158	4,36
311,417	4,31
311,675	4,49
311,933	5,56
312,192	7,49
312,45	6,47
312,709	6,66
312,967	5,45
313,226	5,62
313,484	6,01
313,742	4,66
314,001	3,96
314,259	2,81
314,517	3,74
314,776	4,62
315,034	7,13
315,292	4,84
315,55	4,11
315,809	4,83
316,067	6
316,325	4
316,583	3,92
316,841	3,23
317,1	1,9
317,358	-0,51
317,616	-1,28
317,874	-1,66
318,132	-4,18
318,39	-6,22
318,648	-7,92
318,906	-9,42
319,164	-8,82
319,422	-10,49
319,68	-12,74
319,938	-11,56
320,196	-11,54
320,454	-9,01
320,712	-9,19
320,97	-7,14
321,228	-9,44
321,486	-7,72
321,744	-6,23
322,002	-4,68
322,26	-6,26
322,517	-4,92
322,775	-7,63
323,033	-9,73
323,291	-7,38
323,549	-5,53
323,806	-4,9
324,064	-4,99
324,322	-3,56
324,58	-4,3
324,837	-1,64
325,095	-4
325,353	-2,17
325,61	-0,06
325,868	-0,38
326,126	2,77
326,383	2,16
326,641	1,78
326,898	3,89
327,156	3,52
327,413	6,27
327,671	8,04
327,928	8,16
328,186	7,38
328,443	6,3
328,701	9,99
328,958	10,97
329,216	11,73
329,473	9,59
329,731	10,76
329,988	9,65
330,245	12,32
330,503	11,63
330,76	13,25
331,017	17,41
331,275	14,75
331,532	13,91
331,789	12,08
332,047	10,93
332,304	8,3
332,561	9,28
332,818	7,65
333,076	11,04
333,333	10,95
333,59	10,67
333,847	11,95
334,104	10,65
334,361	10,26
334,618	9,69
334,876	7,72
335,133	6,93
335,39	2,84
335,647	3,51
335,904	1,15
336,161	0,01
336,418	1,56
336,675	-2,71
336,932	-2,9
337,189	-2,77
337,446	-1,68
337,703	-2,16
337,96	-6,59
338,216	-7,06
338,473	-9,07
338,73	-9,66
338,987	-10,64
339,244	-6,75
339,501	-8,3
339,757	-6,9
340,014	-4,92
340,271	-3,98
340,528	-3,95
340,785	0,46
341,041	0,6
341,298	-1,32
341,555	-0,19
341,811	-0,55
342,068	-2,91
342,325	-2,18
342,581	1,32
342,838	2,12
343,094	3,89
343,351	4,9
343,608	2,47
343,864	4,31
344,121	5,85
344,377	4,74
344,634	5,36
344,89	3,55
345,147	3,05
345,403	1,73
345,66	1,06
345,916	3,5
346,172	2,11
346,429	0,38
346,685	-1,3
346,942	-1,47
347,198	-4,93
347,454	-4,09
347,711	-3,56
347,967	-7,15
348,223	-5,07
348,48	-5,43
348,736	-2,12
348,992	-3,23
349,248	-1,46
349,504	-2,32
349,761	-4,22
350,017	-3,64
350,273	-3,67
350,529	-5,15
350,785	-3,91
351,041	-4,65
351,297	-2,35
351,554	-3
351,81	-5,57
352,066	-6,7
352,322	-7,81
352,578	-8,4
352,834	-8,25
353,09	-8,81
353,346	-8,36
353,602	-10,11
353,858	-10,36
354,114	-11,41
354,369	-9,41
354,625	-6,15
354,881	-8,74
355,137	-6,49
355,393	-5,59
355,649	-5,19
355,905	-3,95
356,16	-4,23
356,416	-3,59
356,672	-12,55
356,928	-13,07
357,183	-13,02
357,439	-13,27
357,695	-12,84
357,951	-8,68
358,206	-9,22
358,462	-9,33
358,718	-12,33
358,973	-11,89
359,229	-11,51
359,484	-10,81
359,74	-5,53
359,996	-6,12
360,251	-1,51
360,507	-2,72
360,762	-3,01
361,018	-0,54
361,273	-3,3
361,529	-1,76
361,784	-2,53
362,04	0,25
362,295	-0,84
362,55	-1,24
362,806	1,19
363,061	1,24
363,316	0,9
363,572	2,23
363,827	5,04
364,082	1,87
364,338	1,2
364,593	3,36
364,848	3,85
365,104	2,03
365,359	5,06
365,614	5,59
365,869	2,68
366,124	3,73
366,38	2,06
366,635	4,37
366,89	5,01
367,145	4,27
367,4	7,72
367,655	6
367,91	7,19
368,165	3,94
368,42	3,04
368,675	4,3
368,93	5,72
369,185	5,25
369,44	5,15
369,695	8,62
369,95	7,27
370,205	7,08
370,46	7,15
370,715	6,33
370,97	7,01
371,225	7,2
371,48	7,79
371,734	6,88
371,989	7,64
372,244	8
372,499	8,54
372,754	8,73
373,008	7,7
373,263	1,37
373,518	3,65
373,773	3,38
374,027	1,68
374,282	4,85
374,537	5,38
374,791	7,06
375,046	4,87
375,301	3,08
375,555	1,14
375,81	1,83
376,064	2,32
376,319	4,68
376,573	3,49
376,828	-2,3
377,082	2,35
377,337	1,52
377,591	-2,36
377,846	-1
378,1	1,57
378,355	2,33
378,609	1,43
378,863	-1,37
379,118	-0,6
379,372	-2,33
379,627	-3,37
379,881	-4,15
380,135	-3,95
380,389	-4,48
380,644	-4,65
380,898	-4
381,152	-0,19
381,407	-1,22
381,661	0,3
381,915	2,56
382,169	1,93
382,423	0,54
382,677	-3,74
382,932	-0,95
383,186	-0,58
383,44	-0,19
383,694	1,73
383,948	0,25
384,202	-0,35
384,456	2,52
384,71	5,03
384,964	3,92
385,218	6,51
385,472	8,13
385,726	6,86
385,98	7,07
386,234	6,36
386,488	4,11
386,742	4,36
386,996	2
387,249	3,11
387,503	4,88
387,757	7
388,011	9,12
388,265	9,56
388,518	10,28
388,772	11,43
389,026	11,57
389,28	9,83
389,533	7,79
389,787	10,13
390,041	8,92
390,295	9,65
390,548	11,99
390,802	13,93
391,055	14,03
391,309	13,91
391,563	11,55
391,816	12,87
392,07	11,42
392,323	11,06
392,577	12,08
392,83	11,43
393,084	14,88
393,337	18,93
393,591	19,03
393,844	18,39
394,098	21,72
394,351	26,45
394,604	29,14
394,858	30,4
395,111	28,89
395,364	24,92
395,618	25,67
395,871	22,28
396,124	22,23
396,378	21,01
396,631	21,65
396,884	18,84
397,137	18,66
397,391	20,24
397,644	15,94
397,897	16,37
398,15	16,86
398,403	19,6
398,657	17,34
398,91	15,26
399,163	16,98
399,416	16,51
399,669	14,61
399,922	13,87
400,175	12,96
400,428	11,97
400,681	13,72
400,934	9,67
401,187	6,51
401,44	7,37
401,693	5,57
401,946	1,79
402,199	-3,71
402,452	-5,36
402,704	-7,21
402,957	-6,5
403,21	-2,47
403,463	-3,57
403,716	-3,76
403,969	-3,24
404,221	-2,69
404,474	-1,25
404,727	2,4
404,98	4,76
405,232	4,76
405,485	6,41
405,738	8,26
405,99	9,62
406,243	7,92
406,496	11,72
406,748	11,15
407,001	8,61
407,253	9
407,506	8,99
407,759	11,49
408,011	9,26
408,264	10,91
408,516	10,1
408,769	7,95
409,021	10,18
409,274	9,56
409,526	10,92
409,778	11,24
410,031	14,81
410,283	15,84
410,536	20,46
410,788	18,91
411,04	18,02
411,293	19,83
411,545	22,13
411,797	22,04
412,049	20,71
412,302	21,17
412,554	23,01
412,806	21,56
413,058	20,2
413,311	20,87
413,563	19,03
413,815	18,08
414,067	16,69
414,319	14,09
414,571	16,08
414,823	14,37
415,075	14,37
415,328	15,5
415,58	17,67
415,832	19,37
416,084	19,26
416,336	17,12
416,588	21,84
416,84	19,81
417,091	22,62
417,343	20,29
417,595	21,44
417,847	22,95
418,099	22,99
418,351	22,22
418,603	24,33
418,855	24,66
419,106	25,26
419,358	24,96
419,61	25,24
419,862	26,88
420,114	24,32
420,365	21,98
420,617	22,41
420,869	22,29
421,12	21,38
421,372	23,49
421,624	23,25
421,875	23,34
422,127	19,91
422,379	19,69
422,63	23,39
422,882	21,74
423,133	21,59
423,385	20,89
423,636	21,38
423,888	22,64
424,139	25,77
424,391	22,6
424,642	21,05
424,894	19,9
425,145	20,46
425,396	17,18
425,648	18,98
425,899	17,57
426,151	17,01
426,402	15,57
426,653	16,6
426,905	13,69
427,156	11,73
427,407	10,1
427,658	9,15
427,91	6,93
428,161	7,07
428,412	8,11
428,663	8,07
428,914	10,13
429,166	9,03
429,417	9,93
429,668	8,85
429,919	6,52
430,17	5,81
430,421	5,89
430,672	9,74
430,923	9,37
431,174	8,22
431,425	8,88
431,676	9,1
431,927	6,51
432,178	6,68
432,429	6,85
432,68	5,36
432,931	8,3
433,182	11,26
433,433	7,52
433,683	9,55
433,934	8,14
434,185	7,86
434,436	5,59
434,687	7,85
434,937	10,32
435,188	8,99
435,439	8,82
435,69	9,57
435,94	8,67
436,191	9,49
436,442	8,99
436,692	7,18
436,943	5,05
437,194	2,19
437,444	5,59
437,695	11,42
437,945	12,65
438,196	10,95
438,447	8,67
438,697	9,37
438,948	8,5
439,198	5,52
439,449	1,41
439,699	1,32
439,949	2,12
440,2	1,49
440,45	3,08
440,701	1,71
440,951	0,94
441,201	2,37
441,452	0,11
441,702	0,34
441,952	2,08
442,203	3,18
442,453	1,59
442,703	1,34
442,953	2,94
443,204	3,82
443,454	2,91
443,704	3,45
443,954	0,99
444,204	1,81
444,455	3,37
444,705	6,17
444,955	5,81
445,205	2,47
445,455	0,09
445,705	1,76
445,955	2,56
446,205	2,93
446,455	3,48
446,705	3,79
446,955	4,81
447,205	5,69
447,455	7,92
447,705	5,97
447,955	4,32
448,205	4,18
448,454	4,25
448,704	5,81
448,954	5,27
449,204	5,92
449,454	6,92
449,704	4,96
449,953	4,38
450,203	6,73
450,453	4,78
450,703	7,35
450,952	6,73
451,202	9,69
451,452	9,57
451,701	12,39
451,951	16,42
452,201	15,45
452,45	14,22
452,7	16,45
452,949	17,47
453,199	16,64
453,448	16,9
453,698	17,95
453,947	16,57
454,197	15,87
454,446	14,96
454,696	19,77
454,945	20,83
455,195	18,9
455,444	20,89
455,693	25,77
455,943	25,12
456,192	26,67
456,442	26,27
456,691	25,74
456,94	25,32
457,189	24,28
457,439	26,29
457,688	27,1
457,937	25,48
458,186	26,54
458,436	25,36
458,685	27,55
458,934	25,38
459,183	23,93
459,432	26,29
459,681	26,26
459,93	25,06
460,179	24,89
460,429	23,64
460,678	26,12
460,927	28,64
461,176	26,63
461,425	26,06
461,674	29,48
461,923	29,33
462,172	28,2
462,42	24,34
462,669	26,43
462,918	27,4
463,167	26,22
463,416	24,19
463,665	25,08
463,914	24,38
464,162	22,21
464,411	22,43
464,66	25,56
464,909	24,34
465,158	24,95
465,406	24,45
465,655	26,74
465,904	27,77
466,152	28,79
466,401	27,43
466,65	30,53
466,898	28,57
467,147	24,55
467,395	23,08
467,644	25,49
467,893	24,85
468,141	24,96
468,39	23,67
468,638	21,61
468,887	19,49
469,135	18,44
469,384	17,93
469,632	17,86
469,88	19,85
470,129	21,94
470,377	17,76
470,626	20,23
470,874	22,43
471,122	23,15
471,371	21,18
471,619	19,06
471,867	22,37
472,115	23,38
472,364	19,64
472,612	22,26
472,86	20,42
473,108	21,62
473,356	21,46
473,605	21,68
473,853	17,39
474,101	17,43
474,349	16,73
474,597	21,53
474,845	19,35
475,093	18,95
475,341	16,62
475,589	17,15
475,837	18,26
476,085	18,76
476,333	17,11
476,581	20,12
476,829	20,56
477,077	21,54
477,325	22,53
477,573	23,75
477,821	21,23
478,069	22,34
478,317	22,01
478,564	23,11
478,812	21,86
479,06	20,43
479,308	20,42
479,555	20,83
479,803	18,13
480,051	19,82
480,299	20,74
480,546	21,07
480,794	19,35
481,042	18,23
481,289	18,17
481,537	21,56
481,784	19,9
482,032	21,15
482,28	19,64
482,527	19
482,775	18,49
483,022	19,19
483,27	20,45
483,517	22,81
483,765	22,52
484,012	23,92
484,259	21,91
484,507	24,34
484,754	24,18
485,002	22,74
485,249	20,94
485,496	23,7
485,744	23,68
485,991	21,78
486,238	20,09
486,486	23,02
486,733	24,51
486,98	28,87
487,227	26,5
487,474	29,73
487,722	32,24
487,969	30,02
488,216	29,88
488,463	29,82
488,71	28,79
488,957	26,69
489,204	26,08
489,451	27,82
489,699	26,92
489,946	23,57
490,193	24,56
490,44	23,54
490,687	24,44
490,934	22,95
491,18	19,8
491,427	22,05
491,674	25,6
491,921	26,26
492,168	24,9
492,415	23,3
492,662	26,17
492,909	28,66
493,155	28,66
493,402	27,24
493,649	25,19
493,896	25,38
494,142	21,99
494,389	21,3
494,636	17,58
494,883	15,24
495,129	13,87
495,376	11,04
495,623	11,44
495,869	13,06
496,116	14,16
496,362	15,23
496,609	18,26
496,855	22,93
497,102	23,46
497,348	23,4
497,595	25,82
497,841	28,62
498,088	27,5
498,334	27,09
498,581	25,62
498,827	26,28
499,074	25,71
499,32	25,04
499,566	27,61
499,813	27,9
500,059	27,22
500,305	27,01
500,552	26,2
500,798	23,89
501,044	28,05
501,29	27,54
501,537	25,34
501,783	27,6
502,029	31,05
502,275	29,09
502,521	29,65
502,767	30,42
503,013	33,92
503,26	32,31
503,506	28,84
503,752	30,52
503,998	29,54
504,244	30,21
504,49	26,67
504,736	27,4
504,982	26,37
505,228	29,66
505,474	31,52
505,72	32,68
505,966	31,14
506,211	34,13
506,457	35,29
506,703	33,44
506,949	31,15
507,195	28,71
507,441	25,98
507,686	28,19
507,932	27,81
508,178	28,03
508,424	26,57
508,669	25,23
508,915	27,9
509,161	30,76
509,406	32,18
509,652	31,02
509,898	35,44
510,143	36,3
510,389	34,32
510,634	30,32
510,88	34,16
511,125	37,98
511,371	37,93
511,616	39,04
511,862	35,78
512,107	33,82
512,353	35,54
512,598	36,97
512,844	33,06
513,089	30,41
513,335	34,13
513,58	35,14
513,825	35,96
514,071	34,68
514,316	33,08
514,561	35,89
514,806	35,95
515,052	38,62
515,297	38,52
515,542	41,07
515,787	43,4
516,033	47,44
516,278	48,23
516,523	46,7
516,768	47,13
517,013	44,98
517,258	45,99
517,503	45,96
517,748	47,87
517,993	49,59
518,238	50,76
518,483	50,14
518,728	50,2
518,973	49,38
519,218	49,61
519,463	52,83
519,708	53,52
519,953	51,8
520,198	52,59
520,443	57,09
520,688	62,52
520,933	61,16
521,177	62,52
521,422	61,36
521,667	65,48
521,912	67,51
522,157	64,49
522,401	69,23
522,646	70,56
522,891	71,64
523,135	71,02
523,38	71,88
523,625	70,83
523,869	73,5
524,114	77,73
524,358	76,48
524,603	77,75
524,848	76,36
525,092	76,23
525,337	77,52
525,581	80,17
525,826	83,73
526,07	85,79
526,315	88,31
526,559	88,21
526,803	88,33
527,048	93,11
527,292	94,78
527,537	96,22
527,781	96,81
528,025	95,17
528,269	95,33
528,514	96,57
528,758	96,16
529,002	97,27
529,247	99,61
529,491	100,51
529,735	105,38
529,979	105,11
530,223	106,82
530,467	104,16
530,712	103,84
530,956	103,06
531,2	104,66
531,444	103,48
531,688	105,23
531,932	105,38
532,176	107,7
532,42	109,7
532,664	111,78
532,908	111,03
533,152	110,8
533,396	110,72
533,64	109,59
533,884	107,32
534,128	108,95
534,371	110,27
534,615	111,09
534,859	110,87
535,103	110,33
535,347	110,89
535,59	112,74
535,834	109,19
536,078	111,56
536,322	113,47
536,565	116,99
536,809	115,64
537,053	117,89
537,296	117,25
537,54	117,43
537,784	116,71
538,027	120,86
538,271	119,59
538,514	120,94
538,758	122,04
539,001	120,73
539,245	118,84
539,488	120,73
539,732	122,63
539,975	122,52
540,219	125,16
540,462	125,68
540,706	127,39
540,949	127,54
541,192	128,75
541,436	133,9
541,679	138,56
541,922	140,63
542,166	136,41
542,409	136,4
542,652	138,15
542,895	139,8
543,139	140,47
543,382	144,59
543,625	144,27
543,868	144,86
544,111	143,71
544,354	142,7
544,598	141,83
544,841	142,38
545,084	143,38
545,327	143,51
545,57	144,67
545,813	147,8
546,056	146,29
546,299	146,6
546,542	148,53
546,785	152,25
547,028	153,96
547,271	151,99
547,514	153,08
547,756	150,03
547,999	151,77
548,242	152,07
548,485	149,49
548,728	148,34
548,971	145,01
549,213	145,77
549,456	145,9
549,699	146,3
549,942	147,55
550,184	147,7
550,427	147,28
550,67	147,16
550,912	144,42
551,155	145,67
551,398	146,34
551,64	146,12
551,883	146,98
552,125	147,22
552,368	148,6
552,61	144,14
552,853	146,46
553,095	144,52
553,338	144,39
553,58	146,14
553,823	145,18
554,065	148,12
554,308	144,84
554,55	142,39
554,792	141,01
555,035	140,09
555,277	139,13
555,519	141,13
555,762	139,35
556,004	142,03
556,246	140,46
556,488	142,17
556,731	138,77
556,973	138,98
557,215	137,36
557,457	138,67
557,699	141,26
557,941	139,04
558,183	139,15
558,426	140,76
558,668	137,63
558,91	137
559,152	137,2
559,394	137,54
559,636	138,87
559,878	139,56
560,12	140,39
560,362	141,55
560,604	142,69
560,845	142,67
561,087	141,65
561,329	144,9
561,571	143,01
561,813	143,31
562,055	144,82
562,297	146,48
562,538	147,38
562,78	151,44
563,022	147,67
563,264	149,38
563,505	148,61
563,747	149,82
563,989	147,41
564,23	146,27
564,472	145,42
564,714	150,17
564,955	151,71
565,197	148,12
565,438	151,59
565,68	155,14
565,921	154,66
566,163	156,04
566,404	156,41
566,646	159,51
566,887	161,61
567,129	163,69
567,37	163,49
567,612	167,39
567,853	165,07
568,094	167,28
568,336	167,74
568,577	169,39
568,818	169,53
569,06	167,46
569,301	166,15
569,542	166,18
569,783	168,48
570,025	170,87
570,266	171,5
570,507	174,58
570,748	174,5
570,989	176,83
571,23	181,09
571,472	181,8
571,713	183,25
571,954	184,61
572,195	181,73
572,436	184,07
572,677	187,85
572,918	188,29
573,159	186,46
573,4	185,01
573,641	186,54
573,882	187,68
574,123	185,58
574,364	181,34
574,604	183,41
574,845	181,62
575,086	181,8
575,327	183,66
575,568	181,84
575,809	181,55
576,049	179,41
576,29	178,2
576,531	184,37
576,771	189,26
577,012	192,19
577,253	192,63
577,494	190,67
577,734	189,5
577,975	190,35
578,215	191,42
578,456	189,83
578,697	188,13
578,937	190,75
579,178	190,04
579,418	189,47
579,659	190,42
579,899	187,05
580,14	186,84
580,38	187,67
580,62	187,64
580,861	191,19
581,101	190,23
581,342	190,39
581,582	187,05
581,822	189,21
582,063	185,95
582,303	187,46
582,543	186,58
582,783	187,92
583,024	190,05
583,264	192,69
583,504	193,74
583,744	195,41
583,984	193,77
584,224	193,15
584,465	190,51
584,705	191,64
584,945	193,18
585,185	193,79
585,425	195,22
585,665	195,18
585,905	195,47
586,145	196,18
586,385	194,72
586,625	197,35
586,865	197,12
587,105	197,01
587,345	198,33
587,585	197,11
587,824	195,23
588,064	195,62
588,304	191,97
588,544	192,63
588,784	190,52
589,024	192,52
589,263	193,2
589,503	193,13
589,743	196,5
589,982	197,1
590,222	195,89
590,462	193,96
590,701	192,81
590,941	194,38
591,181	192,86
591,42	191,93
591,66	194,79
591,899	199,54
592,139	197,98
592,378	197,52
592,618	197,12
592,857	195,24
593,097	196,48
593,336	196,34
593,576	196,19
593,815	197,11
594,055	196,63
594,294	197,65
594,533	198,72
594,773	197,79
595,012	199,44
595,251	200,74
595,491	203,97
595,73	208,52
595,969	208,44
596,208	210,67
596,447	216,4
596,687	216,27
596,926	215,82
597,165	211,48
597,404	213,07
597,643	212,29
597,882	210,64
598,121	210,85
598,36	211,16
598,599	213,66
598,838	212,98
599,077	209,81
599,316	209,07
599,555	208,86
599,794	211,03
600,033	213,76
600,272	215,97
600,511	214,06
600,75	215,78
600,989	217,89
601,228	217,93
601,466	218,42
601,705	219,7
601,944	221,07
602,183	223,72
602,422	222,98
602,66	222,66
602,899	221,25
603,138	221,88
603,376	221,72
603,615	222,28
603,854	220,4
604,092	222,22
604,331	224,23
604,569	225,62
604,808	225,27
605,047	225,79
605,285	226,97
605,524	227,08
605,762	224,94
606	225,25
606,239	225,29
606,477	224,58
606,716	220,52
606,954	219,91
607,193	216,23
607,431	211,7
607,669	207,69
607,908	206,79
608,146	207,81
608,384	205,93
608,622	205,3
608,861	204,81
609,099	202,6
609,337	199,56
609,575	198,73
609,813	198,53
610,052	197,42
610,29	192,14
610,528	188,63
610,766	187,37
611,004	186,76
611,242	184,21
611,48	183,03
611,718	179,61
611,956	179,4
612,194	177,43
612,432	177,35
612,67	175,7
612,908	176,39
613,146	175,47
613,384	174,06
613,621	173,1
613,859	172,79
614,097	171,56
614,335	170,74
614,573	171,78
614,811	173,84
615,048	173,72
615,286	173,57
615,524	173,08
615,761	169,9
615,999	170,25
616,237	169,11
616,474	170,69
616,712	173,5
616,95	170,17
617,187	167,99
617,425	168,73
617,662	170,27
617,9	169,33
618,137	166,76
618,375	164,02
618,612	162,44
618,85	162,06
619,087	163,85
619,325	162,23
619,562	160,56
619,799	157,64
620,037	156,6
620,274	153,84
620,511	155,54
620,749	152,03
620,986	149,64
621,223	147,16
621,461	147,16
621,698	147,95
621,935	147,51
622,172	143,85
622,409	145,46
622,647	143,63
622,884	140,61
623,121	142,44
623,358	138,94
623,595	137,9
623,832	137,33
624,069	132,41
624,306	133,96
624,543	135,08
624,78	135,37
625,017	134,65
625,254	136,43
625,491	140,49
625,728	142,57
625,965	141,57
626,202	140,04
626,438	139,82
626,675	139,16
626,912	141,53
627,149	142,46
627,386	142,22
627,622	141,31
627,859	139,04
628,096	138,94
628,333	139,85
628,569	141,34
628,806	142,76
629,043	142,2
629,279	142,17
629,516	143,58
629,752	140,84
629,989	141,49
630,225	139,73
630,462	138,98
630,699	139,21
630,935	139
631,171	134,87
631,408	135,39
631,644	132,49
631,881	129,28
632,117	127,02
632,354	127,68
632,59	125,79
632,826	122,05
633,063	121,14
633,299	121,77
633,535	119,99
633,771	117,22
634,008	119,31
634,244	116,4
634,48	114,62
634,716	115,44
634,953	113,34
635,189	112,85
635,425	114,19
635,661	116,69
635,897	114,77
636,133	115,28
636,369	113,47
636,605	109,25
636,841	108,27
637,077	108,58
637,313	107,86
637,549	106,94
637,785	106,22
638,021	107,66
638,257	105,78
638,493	109,89
638,729	108,07
638,965	111,02
639,2	112,15
639,436	110,12
639,672	108,36
639,908	104,87
640,144	109,2
640,379	111,07
640,615	108,44
640,851	110,95
641,086	112,37
641,322	110,29
641,558	110,27
641,793	111,55
642,029	110,04
642,264	109,61
642,5	109,67
642,736	105,79
642,971	105,18
643,207	102,24
643,442	99,72
643,678	99,92
643,913	100,92
644,148	99,55
644,384	101,2
644,619	100,77
644,855	102,52
645,09	102,47
645,325	99,55
645,561	99,68
645,796	95,83
646,031	98,9
646,266	95,43
646,502	94,84
646,737	97,17
646,972	97,74
647,207	98,24
647,442	94,81
647,678	90,14
647,913	92,87
648,148	93,1
648,383	91,14
648,618	90,16
648,853	90,65
649,088	90,59
649,323	92,68
649,558	93,51
649,793	94
650,028	94,67
650,263	90,66
650,498	93,18
650,733	91,03
650,968	88,87
651,202	90,98
651,437	88,61
651,672	84,33
651,907	84,97
652,142	85,45
652,376	85,11
652,611	88,74
652,846	89,99
653,081	88,84
653,315	85,13
653,55	84,4
653,785	83,6
654,019	83,97
654,254	81,18
654,488	81,38
654,723	77,64
654,958	75,38
655,192	73,13
655,427	69,09
655,661	69,53
655,896	71,43
656,13	72,86
656,364	70,28
656,599	66,27
656,833	69,17
657,068	70,88
657,302	71,33
657,536	69,55
657,771	69,96
658,005	71,14
658,239	71,5
658,474	68,27
658,708	69,3
658,942	69,41
659,176	66,16
659,41	62,61
659,645	61,12
659,879	57,61
660,113	52,88
660,347	51,16
660,581	50,75
660,815	50,48
661,049	49,04
661,283	46,32
661,517	44,9
661,751	44,22
661,985	44,21
662,219	45,65
662,453	43,71
662,687	44,16
662,921	41,14
663,155	39,74
663,389	32,98
663,622	31,29
663,856	32,8
664,09	28,33
664,324	26,25
664,558	25,46
664,791	24,45
665,025	23,68
665,259	22,64
665,492	22,25
665,726	24,78
665,96	25,22
666,193	23,34
666,427	24,57
666,661	24,45
666,894	23,76
667,128	23,85
667,361	27,23
667,595	27,96
667,828	27,57
668,062	27,36
668,295	27,58
668,529	26,95
668,762	27,84
668,995	27,08
669,229	30,55
669,462	31,45
669,695	34,05
669,929	33,08
670,162	33,69
670,395	31,4
670,629	34,17
670,862	37,18
671,095	33,66
671,328	34,61
671,561	31,57
671,795	33,42
672,028	36,42
672,261	36,63
672,494	37,63
672,727	35,79
672,96	36
673,193	33,75
673,426	38,75
673,659	38,61
673,892	37,97
674,125	35,95
674,358	35,49
674,591	33,23
674,824	32,53
675,057	32,34
675,29	31,73
675,523	33,75
675,755	32,88
675,988	33,5
676,221	36,71
676,454	33,69
676,687	34,61
676,919	32,27
677,152	31,88
677,385	30,27
677,617	31,91
677,85	31,72
678,083	29,01
678,315	32,97
678,548	31,73
678,78	30,73
679,013	29,75
679,246	27,8
679,478	28,21
679,711	25,88
679,943	28,07
680,175	25,51
680,408	29,46
680,64	24,47
680,873	25,12
681,105	25,98
681,338	30,25
681,57	29,39
681,802	29,72
682,034	29,79
682,267	30,84
682,499	31,53
682,731	28,73
682,964	28,47
683,196	27,23
683,428	24,08
683,66	23,27
683,892	25,31
684,124	27,13
684,356	29,6
684,589	31,5
684,821	28,59
685,053	29,39
685,285	30,94
685,517	31,08
685,749	30,99
685,981	33,06
686,213	33,1
686,445	34,06
686,676	31,49
686,908	33,73
687,14	31,91
687,372	31,9
687,604	28,94
687,836	30,75
688,068	30,31
688,299	28,84
688,531	26,02
688,763	30,05
688,995	28,49
689,226	32,8
689,458	30,65
689,69	29,1
689,921	27,88
690,153	27,31
690,384	28,42
690,616	26,77
690,848	27,08
691,079	23,3
691,311	20,94
691,542	17,6
691,774	15,72
692,005	19,45
692,237	20,44
692,468	16,88
692,699	17,6
692,931	16,52
693,162	14,24
693,393	11,69
693,625	11,13
693,856	12,88
694,087	12,09
694,319	13,81
694,55	12,9
694,781	12,15
695,012	11,28
695,243	8,31
695,475	8,24
695,706	8,02
695,937	5,94
696,168	6,27
696,399	1,96
696,63	2,31
696,861	2,5
697,092	7,18
697,323	10,54
697,554	9,85
697,785	10,84
698,016	12,82
698,247	11,44
698,478	13,33
698,709	14,84
698,94	17,23
699,171	16,2
699,401	12,83
699,632	16,32
699,863	11,15
700,094	12,59
700,325	16,61
700,555	19,22
700,786	19,68
701,017	19,04
701,247	18,22
701,478	17,06
701,709	18,73
701,939	17,62
702,17	20,2
702,401	23,24
702,631	24,62
702,862	23,16
703,092	20,34
703,323	22,96
703,553	25,19
703,784	25,82
704,014	26,34
704,244	21,23
704,475	20,35
704,705	21,67
704,936	22,11
705,166	19,57
705,396	22,1
705,627	20,8
705,857	20,15
706,087	20,12
706,317	17,55
706,548	15,77
706,778	14,37
707,008	16,51
707,238	16,15
707,468	12,32
707,698	9,33
707,928	8,92
708,158	6,6
708,389	5,44
708,619	4,9
708,849	2,4
709,079	4,09
709,309	1,42
709,539	-1,06
709,768	-1
709,998	2,56
710,228	3,13
710,458	0,21
710,688	-3,07
710,918	-3,01
711,148	-3,83
711,378	-4,02
711,607	-6,33
711,837	-6,42
712,067	-5,26
712,297	-3,83
712,526	-4,9
712,756	-3,19
712,986	-5,54
713,215	-8,34
713,445	-6,11
713,674	-4,26
713,904	-4,2
714,134	-1,43
714,363	-1,36
714,593	-1,5
714,822	-0,42
715,052	-1,33
715,281	0,99
715,511	-0,27
715,74	-0,34
715,969	-1,2
716,199	-3,13
716,428	-2,71
716,657	-2,77
716,887	-0,72
717,116	-3,58
717,345	-2,13
717,575	-1,35
717,804	-0,39
718,033	-1,97
718,262	-3,73
718,492	-2,72
718,721	-2,24
718,95	-2,8
719,179	-6,24
719,408	-6,29
719,637	-9,05
719,866	-11,93
720,095	-8,96
720,324	-8,71
720,553	-12,51
720,782	-13,14
721,011	-13,25
721,24	-16,14
721,469	-17,27
721,698	-16,45
721,927	-17,17
722,156	-18,06
722,385	-18,03
722,613	-14,42
722,842	-13,88
723,071	-9,86
723,3	-7,55
723,529	-8,54
723,757	-6,35
723,986	-10,6
724,215	-11,38
724,443	-10,62
724,672	-8,66
724,901	-8,29
725,129	-6,15
725,358	-2,26
725,586	-4,24
725,815	-3,2
726,043	-4,21
726,272	-3,71
726,5	-3,51
726,729	-2,12
726,957	-4,64
727,186	-7,15
727,414	-6,19
727,642	-4,17
727,871	-3,35
728,099	-3,58
728,327	-3,87
728,556	-1,07
728,784	-1,57
729,012	-2,73
729,241	-0,03
729,469	-1,08
729,697	-3,96
729,925	-4,08
730,153	-6,42
730,381	-7,09
730,61	-7,22
730,838	-10,63
731,066	-8,99
731,294	-8,54
731,522	-11,07
731,75	-13,96
731,978	-13,48
732,206	-13,59
732,434	-15,53
732,662	-12,78
732,89	-16,42
733,118	-18,02
733,346	-18,56
733,573	-18,61
733,801	-17,38
734,029	-9,9
734,257	-9,26
734,485	-7,15
734,712	-5,37
734,94	-7,41
735,168	-5,37
735,396	-5,22
735,623	-6,92
735,851	-4,54
736,078	-2,76
736,306	-3,08
736,534	-3,27
736,761	-2,25
736,989	-3,46
737,216	-3,61
737,444	-5,89
737,671	-5,33
737,899	-0,58
738,126	-1,56
738,354	-1,84
738,581	-0,44
738,809	1,38
739,036	-1,97
739,263	-2,24
739,491	-3,43
739,718	-3,75
739,945	2,47
740,173	5,64
740,4	7,18
740,627	6,86
740,854	5,59
741,081	2,41
741,309	0,3
741,536	-2,85
741,763	-4,05
741,99	-2,12
742,217	-1,44
742,444	-1,34
742,671	-0,41
742,898	-2,25
743,125	-4,69
743,352	-7,67
743,579	-8,93
743,806	-9,14
744,033	-6,63
744,26	-5,13
744,487	-4,52
744,714	-3,89
744,941	-4,39
745,167	-1,56
745,394	-2,42
745,621	-3,71
745,848	-4,26
746,075	-0,38
746,301	3,09
746,528	6,89
746,755	3,98
746,981	2,85
747,208	5,75
747,435	7,48
747,661	7,44
747,888	10,59
748,114	7,9
748,341	11,35
748,567	13,66
748,794	11,2
749,02	10,17
749,247	6,04
749,473	5,34
749,7	4,12
749,926	4,09
750,152	7,77
750,379	8,52
750,605	9,79
750,831	9,06
751,058	7,73
751,284	4,8
751,51	7,4
751,737	9,56
751,963	7,8
752,189	6,77
752,415	6,82
752,641	6,64
752,867	5,22
753,094	2,83
753,32	0,76
753,546	-0,61
753,772	2,78
753,998	0,64
754,224	-1,22
754,45	-3,14
754,676	-3,21
754,902	-7,44
755,128	-6,07
755,354	-6,34
755,579	-4,6
755,805	-2,92
756,031	-3,84
756,257	-2,31
756,483	-2,41
756,709	-3,75
756,934	-3,09
757,16	-5,14
757,386	-4,53
757,612	-5,74
757,837	-6,32
758,063	-4,69
758,289	-1,87
758,514	-4,1
758,74	-7,22
758,965	-8,68
759,191	-7,56
759,416	-5,6
759,642	-4,2
759,868	-2,62
760,093	-0,66
760,318	-2,24
760,544	-2,57
760,769	-3,5
760,995	-2,57
761,22	-3,75
761,445	-1,72
761,671	0,3
761,896	5,04
762,121	5,29
762,347	5,3
762,572	1,72
762,797	2,35
763,022	3,63
763,248	7,48
763,473	6,75
763,698	5,83
763,923	6,2
764,148	6,18
764,373	5,94
764,598	6,78
764,823	8,86
765,048	7,06
765,273	5,48
765,498	4,74
765,723	3,71
765,948	4,12
766,173	3,44
766,398	3,56
766,623	1,75
766,848	0,43
767,073	-1,35
767,298	-0,55
767,522	-0,34
767,747	0,64
767,972	-0,85
768,197	-0,1
768,421	-1,9
768,646	-6,49
768,871	-10,34
769,095	-10,43
769,32	-8,94
769,545	-10,11
769,769	-9,05
769,994	-7,6
770,218	-11,14
770,443	-10,08
770,667	-8,31
770,892	-7,37
771,116	-7,85
771,341	-6,31
771,565	-6,75
771,79	-6,46
772,014	-8,12
772,238	-11,07
772,463	-7,83
772,687	-6,41
772,911	-6,37
773,136	-8,44
773,36	-7,24
773,584	-5,86
773,808	-7,34
774,033	-5,75
774,257	-6,13
774,481	-7,92
774,705	-8,69
774,929	-7,94
775,153	-9,29
775,377	-6,72
775,602	-6,26
775,826	-5,37
776,05	-2,79
776,274	-5,11
776,498	-4,01
776,722	-5,97
776,945	-6,59
777,169	-5,81
777,393	-6,17
777,617	-7,45
777,841	-8,27
778,065	-7,52
778,289	-9,16
778,512	-8,91
778,736	-9,31
778,96	-10,61
779,184	-7,06
779,407	-8,42
779,631	-9,4
779,855	-10,69
780,078	-9,11
780,302	-11,69
780,526	-14,4
780,749	-14,29
780,973	-13,63
781,196	-12,91
781,42	-14,07
781,643	-14,96
781,867	-14,81
782,09	-16,57
782,314	-18,34
782,537	-18,15
782,76	-19,24
782,984	-19,58
783,207	-20,1
783,431	-19,28
783,654	-19,89
783,877	-22,57
784,1	-23,67
784,324	-24,58
784,547	-24,1
784,77	-27,95
784,993	-29,69
785,216	-30,4
785,44	-31,73
785,663	-33,1
785,886	-28,8
786,109	-29,97
786,332	-29,67
786,555	-28,35
786,778	-25,4
787,001	-24,94
787,224	-23,25
787,447	-21,39
787,67	-18,89
787,893	-19,78
788,116	-19,58
788,339	-18,02
788,561	-17,95
788,784	-20,32
789,007	-21,27
789,23	-22,44
789,453	-22,51
789,675	-23,74
789,898	-25,12
790,121	-26,48
790,344	-26,39
790,566	-25,81
790,789	-25,38
791,012	-24,89
791,234	-22,22
791,457	-19,4
791,679	-16,32
791,902	-16,02
792,124	-14,52
792,347	-14,13
792,569	-14,45
792,792	-17,28
793,014	-13,65
793,237	-12
793,459	-11,02
793,681	-12,29
793,904	-14,15
794,126	-15,22
794,348	-15,91
794,571	-16
794,793	-16,29
795,015	-16,21
795,237	-16,44
795,46	-15,31
795,682	-16,02
795,904	-13,43
796,126	-15,73
796,348	-16,07
796,57	-11,44
796,792	-12,13
797,014	-7,55
797,237	-5,76
797,459	-2,92
797,681	-1,31
797,903	-3,51
798,124	-2,85
798,346	8,83
798,568	9,13
798,79	12,8
799,012	13,29
799,234	14,09
799,456	15,72
799,678	15,95
799,899	12,67
800,121	9,17
800,343	8,37
800,565	9,66
800,786	11,32
801,008	13,65
801,23	13,2
801,451	14,72
801,673	12,78
801,895	11,66
802,116	13,44
802,338	15,09
802,559	16,38
802,781	15,13
803,002	18,05
803,224	19,78
803,445	15,89
803,667	18,03
803,888	15,51
804,109	14,5
804,331	12,8
804,552	12,67
804,773	16,4
804,995	13,57
805,216	-0,66
805,437	-2,71
805,658	-5,58
805,88	-7,45
806,101	-6,78
806,322	-6,3
806,543	-5,87
806,764	-7,74
806,985	-5,66
807,207	-5,65
807,428	-5,42
807,649	-8,56
807,87	-11,78
808,091	-11,45
808,312	-11,38
808,533	-6,41
808,754	-4,8
808,975	-6,44
809,195	-5,42
809,416	-5,33
809,637	-5,76
809,858	-7,55
810,079	-8,58
810,3	-5,92
810,52	-6,23
810,741	-8,04
810,962	-9,1
811,183	-9,91
811,403	-8,74
811,624	-10,22
811,845	-8,32
812,065	-6,59
812,286	-5,8
812,506	-6,05
812,727	-5,7
812,948	-5,58
813,168	-3,24
813,389	-4,59
813,609	-2,42
813,83	-4,45
814,05	-5,67
814,27	-6,33
814,491	-3,66
814,711	-4,08
814,931	-5,96
815,152	-7,21
815,372	-8,86
815,592	-10,11
815,813	-11,84
816,033	-12,93
816,253	-12,33
816,473	-12,88
816,694	-11,58
816,914	-10,62
817,134	-10,62
817,354	-12,63
817,574	-12,44
817,794	-13,78
818,014	-15,54
818,234	-16,96
818,454	-18,2
818,674	-20,52
818,894	-22,86
819,114	-20,98
819,334	-19,97
819,554	-17,75
819,774	-15,04
819,994	-19,17
820,214	-19,41
820,433	-17,48
820,653	-16,96
820,873	-14,97
821,093	-13,72
821,312	-15,06
821,532	-13,83
821,752	-10,58
821,972	-12,3
822,191	-11,77
822,411	-12,67
822,63	-11,97
822,85	-12,83
823,07	-14,29
823,289	-12,89
823,509	-13,64
823,728	-11,29
823,948	-13,29
824,167	-13,42
824,387	-12,91
824,606	-9,74
824,825	-9,73
825,045	-8,91
825,264	-9,75
825,483	-8,53
825,703	-7,06
825,922	-8,02
826,141	-10,16
826,361	-10,54
826,58	-15,34
826,799	-15,81
827,018	-14,07
827,237	-14,98
827,456	-13,33
827,676	-13,07
827,895	-13,93
828,114	-12,9
828,333	-11,38
828,552	-12,25
828,771	-10,66
828,99	-13,76
829,209	-13,4
829,428	-10,59
829,647	-11,33
829,866	-9,58
830,084	-10,1
830,303	-11,13
830,522	-12,8
830,741	-13
830,96	-12,02
831,179	-11,58
831,397	-13,29
831,616	-12,18
831,835	-12,62
832,053	-11,74
832,272	-10,89
832,491	-10,99
832,709	-12,99
832,928	-10,84
833,147	-10,88
833,365	-8,2
833,584	-5,83
833,802	-3,14
834,021	-2,49
834,239	-1,44
834,458	-3,34
834,676	-7,45
834,894	-8,33
835,113	-10,77
835,331	-11,5
835,55	-11,23
835,768	-9,68
835,986	-7,53
836,204	-9,96
836,423	-8,96
836,641	-10,83
836,859	-12,08
837,077	-10,39
837,296	-10,45
837,514	-10,97
837,732	-12,84
837,95	-14,53
838,168	-13
838,386	-13,99
838,604	-11,17
838,822	-9,95
839,04	-11,15
839,258	-9,43
839,476	-7,7
839,694	-7,99
839,912	-10,22
840,13	-11,66
840,348	-8,76
840,566	-12,45
840,783	-12,62
841,001	-15,11
841,219	-13,94
841,437	-11,67
841,655	-10,84
841,872	-9,91
842,09	-9,34
842,308	-9,53
842,525	-10,02
842,743	-10,01
842,961	-9,93
843,178	-12,09
843,396	-8,02
843,613	-7,11
843,831	-7,26
844,048	-8,29
844,266	-7,51
844,483	-7,87
844,701	-8,31
844,918	-7,88
845,136	-8,69
845,353	-12,02
845,57	-11,24
845,788	-8,74
846,005	-11,47
846,222	-12,52
846,439	-10,73
846,657	-9,96
846,874	-8,98
847,091	-12
847,308	-9,7
847,526	-10,07
847,743	-9,53
847,96	-10,63
848,177	-9,37
848,394	-10,3
848,611	-11,69
848,828	-12,9
849,045	-14,22
849,262	-13,5
849,479	-13,95
849,696	-14,69
849,913	-15,56
850,13	-19,79
850,347	-16,73
850,564	-16,68
850,78	-18,09
850,997	-20,53
851,214	-19,9
851,431	-19,64
851,647	-23,95
851,864	-22,09
852,081	-19,31
852,298	-23,46
852,514	-24,93
852,731	-23,96
852,948	-20,15
853,164	-20,85
853,381	-20,97
853,597	-22,36
853,814	-24,23
854,03	-28,14
854,247	-27,24
854,463	-26,04
854,68	-27,02
854,896	-26,66
855,113	-25,31
855,329	-24,72
855,545	-22,31
855,762	-23,47
855,978	-26,95
856,194	-29,96
856,411	-26,13
856,627	-25,36
856,843	-24,86
857,059	-23,25
857,275	-24
857,492	-22,19
857,708	-17,86
857,924	-16,72
858,14	-12,33
858,356	-13,27
858,572	-13,73
858,788	-15,55
859,004	-13,91
859,22	-15,92
859,436	-15,08
859,652	-18,93
859,868	-19,82
860,084	-20,02
860,3	-20,36
860,516	-19,89
860,731	-18,66
860,947	-21,55
861,163	-21,91
861,379	-19,69
861,595	-19,17
861,81	-18,38
862,026	-17,97
862,242	-17,73
862,457	-16,77
862,673	-14,07
862,889	-13,26
863,104	-14,98
863,32	-12,89
863,535	-13
863,751	-17,13
863,966	-15,19
864,182	-13,06
864,397	-14,74
864,613	-16
864,828	-18,07
865,044	-15,83
865,259	-14,18
865,474	-15,39
865,69	-13,04
865,905	-11,44
866,12	-13,45
866,336	-14,21
866,551	-13,5
866,766	-13,73
866,981	-14,95
867,196	-14,87
867,412	-13,55
867,627	-12,74
867,842	-13,43
868,057	-14,92
868,272	-16,2
868,487	-17,58
868,702	-17,36
868,917	-19,31
869,132	-17,62
869,347	-17,86
869,562	-18,91
869,777	-18,55
869,992	-19,51
870,207	-19,71
870,422	-20,05
870,636	-20,93
870,851	-23,56
871,066	-24,79
871,281	-24,24
871,495	-26,7
871,71	-23,76
871,925	-26,21
872,14	-26,47
872,354	-30,2
872,569	-31,42
872,783	-29,99
872,998	-28,3
873,213	-28,88
873,427	-26,01
873,642	-24,37
873,856	-23,22
874,071	-24,49
874,285	-25,03
874,5	-25,34
874,714	-27,13
874,928	-27,19
875,143	-27,5
875,357	-28,18
875,571	-29,28
875,786	-29,75
876	-26,39
876,214	-23,89
876,429	-26,29
876,643	-25,17
876,857	-22,86
877,071	-22,75
877,285	-23,9
877,499	-26,52
877,714	-24,52
877,928	-23,45
878,142	-24,82
878,356	-27,69
878,57	-26,77
878,784	-25,33
878,998	-24,47
879,212	-21,75
879,426	-22,37
879,639	-21,37
879,853	-22,37
880,067	-22,99
880,281	-22,4
880,495	-21,04
880,709	-18,75
880,922	-18,21
881,136	-16,42
881,35	-13,64
881,564	-15,68
881,777	-17,91
881,991	-16,89
882,205	-13,09
882,418	-13,66
882,632	-16,49
882,845	-17,04
883,059	-16,77
883,273	-18,31
883,486	-19,92
883,7	-16,6
883,913	-17,17
884,126	-15,46
884,34	-18,23
884,553	-20,11
884,767	-14,59
884,98	-13,8
885,193	-14,77
885,407	-15,09
885,62	-13,4
885,833	-13,1
886,046	-12,63
886,26	-14,59
886,473	-14,47
886,686	-15,91
886,899	-14,95
887,112	-16,62
887,326	-18,89
887,539	-17,47
887,752	-18,54
887,965	-20,59
888,178	-18,2
888,391	-16,95
888,604	-17,97
888,817	-20,22
889,03	-17,66
889,243	-18,81
889,455	-21,04
889,668	-20,02
889,881	-17,16
890,094	-17,8
890,307	-19,47
890,52	-17,06
890,732	-15,55
890,945	-15,31
891,158	-14,54
891,37	-16,65
891,583	-15,95
891,796	-14
892,008	-15,8
892,221	-16,7
892,434	-21,54
892,646	-22,98
892,859	-22,94
893,071	-20,59
893,284	-17,94
893,496	-19,45
893,709	-18,74
893,921	-17,87
894,133	-19,89
894,346	-18,86
894,558	-18,08
894,771	-17,28
894,983	-16,1
895,195	-14,67
895,407	-13,18
895,62	-15,66
895,832	-14,07
896,044	-11,47
896,256	-12,01
896,468	-14,06
896,681	-12,18
896,893	-11,49
897,105	-12,24
897,317	-13,76
897,529	-12,07
897,741	-11,55
897,953	-9,93
898,165	-11,57
898,377	-13,05
898,589	-11,04
898,801	-11,66
899,013	-7,36
899,224	-3,52
899,436	-1,27
899,648	-3,34
899,86	-5,78
900,072	-2,05
900,283	-2,64
900,495	-1,51
900,707	-0,61
900,919	-4,54
901,13	-4,25
901,342	-7,06
901,554	-7,7
901,765	-7,79
901,977	-10,9
902,188	-12,26
902,4	-13,05
902,611	-13,87
902,823	-15,61
903,034	-17,35
903,246	-19,09
903,457	-22,07
903,669	-22,79
903,88	-22,65
904,091	-22,59
904,303	-21,82
904,514	-23,93
904,725	-22,67
904,936	-22,37
905,148	-22,15
905,359	-19,15
905,57	-19,85
905,781	-21,6
905,992	-21,86
906,204	-21,67
906,415	-21,54
906,626	-24,82
906,837	-22,01
907,048	-22,18
907,259	-24,44
907,47	-24,74
907,681	-25,91
907,892	-21,23
908,103	-21,76
908,314	-23,76
908,525	-21,38
908,735	-19,82
908,946	-21,42
909,157	-21,94
909,368	-20,09
909,579	-18,97
909,789	-20,73
910	-22,22
910,211	-20,06
910,421	-20,38
910,632	-19,52
910,843	-22,73
911,053	-19,4
911,264	-17,33
911,475	-17,75
911,685	-18,31
911,896	-19,31
912,106	-19,62
912,317	-21,92
912,527	-20,99
912,737	-21,54
912,948	-20,66
913,158	-20,09
913,369	-23,37
913,579	-21,91
913,789	-19,42
914	-15,32
914,21	-14,23
914,42	-15,4
914,63	-15,73
914,841	-15,04
915,051	-13,03
915,261	-13,51
915,471	-10,77
915,681	-11,05
915,891	-10,8
916,101	-11,54
916,311	-10,55
916,521	-9,08
916,731	-9,12
916,941	-6,39
917,151	-8,32
917,361	-4,49
917,571	-9,13
917,781	-10,7
917,991	-12,15
918,201	-12,82
918,411	-14,28
918,621	-13,1
918,83	-12,1
919,04	-14,6
919,25	-11,73
919,46	-10,6
919,669	-13,29
919,879	-13,81
920,089	-16,23
920,298	-16,79
920,508	-16,83
920,717	-16,54
920,927	-20,83
921,136	-18,83
921,346	-20,21
921,555	-24,11
921,765	-23,41
921,974	-25,91
922,184	-28,24
922,393	-28,96
922,603	-30,45
922,812	-27,98
923,021	-27,29
923,23	-29,08
923,44	-32,53
923,649	-32,32
923,858	-33,15
924,067	-32,13
924,277	-34,57
924,486	-32,6
924,695	-33,12
924,904	-30,91
925,113	-32,21
925,322	-31,22
925,531	-29,84
925,74	-33,19
925,949	-34,32
926,158	-31,13
926,367	-30,68
926,576	-29,72
926,785	-30,16
926,994	-32,16
927,203	-32,39
927,412	-30,86
927,621	-32,4
927,83	-28,89
928,038	-28,77
928,247	-30,25
928,456	-29,22
928,665	-28,22
928,873	-27,61
929,082	-24,41
929,291	-23,47
929,499	-22,04
929,708	-22,78
929,916	-21,03
930,125	-22,21
930,333	-22,37
930,542	-19,67
930,75	-16,23
930,959	-15,72
931,167	-15,11
931,376	-17,4
931,584	-16,03
931,793	-15,63
932,001	-16,76
932,209	-18,43
932,418	-20,73
932,626	-23,05
932,834	-24,48
933,042	-26,6
933,251	-26,73
933,459	-25,68
933,667	-26,1
933,875	-26,01
934,083	-25,63
934,291	-26,2
934,499	-24,81
934,707	-24,56
934,915	-24,33
935,123	-21,79
935,331	-21,62
935,539	-24,3
935,747	-26,26
935,955	-27,08
936,163	-26,25
936,371	-26,36
936,579	-23,22
936,787	-25,25
936,995	-26,94
937,202	-30,03
937,41	-30,02
937,618	-30,05
937,826	-28,27
938,033	-32,16
938,241	-33,71
938,449	-29,87
938,656	-26,12
938,864	-25,58
939,071	-24,36
939,279	-22,01
939,486	-18,76
939,694	-19,28
939,901	-21,26
940,109	-20,38
940,316	-20,17
940,524	-19,99
940,731	-20,15
940,939	-19,21
941,146	-18,25
941,353	-18,51
941,561	-18,25
941,768	-19,05
941,975	-16,87
942,182	-18,24
942,39	-17,95
942,597	-15,24
942,804	-15,53
943,011	-16,96
943,218	-16,03
943,425	-16,67
943,632	-14,9
943,839	-16,14
944,046	-17,48
944,253	-17,99
944,46	-17,97
944,667	-14,62
944,874	-17,32
945,081	-16,01
945,288	-15,02
945,495	-13,59
945,702	-13,17
945,909	-15,76
946,115	-14,66
946,322	-15,35
946,529	-17,1
946,736	-15,61
946,942	-13,89
947,149	-15,12
947,356	-16,42
947,562	-18,53
947,769	-19,65
947,976	-22,08
948,182	-20,73
948,389	-21,81
948,595	-20,08
948,802	-20,49
949,008	-21,52
949,215	-20,51
949,421	-21,12
949,628	-22,45
949,834	-21,7
950,04	-22,65
950,247	-19,41
950,453	-17,14
950,659	-19,41
950,865	-16,39
951,072	-19,64
951,278	-17,58
951,484	-18,95
951,69	-20,76
951,896	-23,23
952,103	-23,47
952,309	-21,63
952,515	-20,96
952,721	-19,13
952,927	-17,26
953,133	-19,63
953,339	-21,2
953,545	-22,38
953,751	-21,9
953,957	-18,8
954,163	-19,72
954,369	-17,36
954,574	-19,97
954,78	-19,45
954,986	-18,97
955,192	-16,2
955,398	-18,06
955,603	-20,71
955,809	-18,76
956,015	-17,09
956,22	-15,93
956,426	-14,74
956,632	-18,59
956,837	-18,75
957,043	-17,75
957,248	-17,57
957,454	-17,68
957,66	-20,19
957,865	-20,9
958,07	-19,79
958,276	-20,59
958,481	-22,7
958,687	-24,2
958,892	-24,87
959,097	-24,88
959,303	-25,84
959,508	-26,48
959,713	-27,07
959,919	-26,84
960,124	-27,16
960,329	-27,65
960,534	-24,71
960,739	-24,21
960,945	-21,03
961,15	-21,86
961,355	-22,97
961,56	-27,41
961,765	-28,8
961,97	-27,89
962,175	-24,81
962,38	-27,92
962,585	-27,47
962,79	-30,06
962,995	-30,62
963,2	-31,73
963,404	-31,9
963,609	-34,48
963,814	-35,74
964,019	-37,67
964,224	-39,73
964,428	-37,57
964,633	-36,01
964,838	-34,7
965,042	-34,91
965,247	-36,59
965,452	-36,53
965,656	-33,43
965,861	-31,54
966,066	-31,56
966,27	-28,62
966,475	-25,16
966,679	-29
966,884	-27,67
967,088	-30,38
967,292	-29,98
967,497	-28,63
967,701	-30,01
967,906	-29,42
968,11	-25,84
968,314	-21,76
968,518	-25,35
968,723	-22,72
968,927	-22,47
969,131	-20,22
969,335	-16,37
969,539	-17,61
969,744	-16,78
969,948	-13,31
970,152	-11,2
970,356	-9,14
970,56	-9,63
970,764	-11,69
970,968	-8,08
971,172	-8,32
971,376	-7,29
971,58	-5,8
971,784	-4,64
971,988	-6,56
972,192	-5,35
972,395	-6,68
972,599	-9,32
972,803	-11
973,007	-7,92
973,21	-8,7
973,414	-9,43
973,618	-11,65
973,822	-12,09
974,025	-10,81
974,229	-9,93
974,432	-12,76
974,636	-15,36
974,84	-13,68
975,043	-13,56
975,247	-15,02
975,45	-15,57
975,654	-16
975,857	-13,49
976,06	-13,41
976,264	-15,55
976,467	-14,94
976,671	-15,28
976,874	-13,14
977,077	-13,33
977,28	-15,61
977,484	-17,6
977,687	-18,71
977,89	-17,7
978,093	-18,29
978,297	-18,82
978,5	-20,26
978,703	-18,17
978,906	-17,86
979,109	-18,81
979,312	-18,25
979,515	-18,73
979,718	-17,81
979,921	-17,63
980,124	-19,68
980,327	-21,56
980,53	-20,58
980,733	-19,68
980,936	-17,39
981,138	-19,9
981,341	-19,2
981,544	-19,63
981,747	-21,24
981,949	-23,05
982,152	-21,67
982,355	-23,59
982,558	-21,7
982,76	-23,41
982,963	-23,96
983,165	-23,55
983,368	-23,19
983,571	-23,35
983,773	-20,26
983,976	-19,47
984,178	-18,95
984,381	-19,62
984,583	-21,1
984,785	-19,69
984,988	-17,94
985,19	-15,69
985,392	-17,43
985,595	-21,09
985,797	-21,09
985,999	-18,35
986,202	-16,17
986,404	-16,35
986,606	-11,82
986,808	-12,65
987,01	-11,35
987,212	-13,66
987,415	-14,95
987,617	-14,51
987,819	-15,33
988,021	-14,48
988,223	-15,51
988,425	-18,56
988,627	-17,87
988,829	-22,31
989,031	-20,83
989,232	-21,56
989,434	-19,7
989,636	-20,75
989,838	-20,97
990,04	-19,57
990,242	-20,39
990,443	-22,38
990,645	-20,46
990,847	-17,56
991,048	-18,12
991,25	-21,14
991,452	-21,45
991,653	-22,48
991,855	-21,2
992,057	-22,73
992,258	-23,6
992,46	-25,43
992,661	-24,63
992,863	-27,24
993,064	-27,63
993,265	-28,99
993,467	-30,39
993,668	-27,63
993,87	-28,15
994,071	-28,4
994,272	-27,17
994,473	-25,65
994,675	-23,01
994,876	-21,28
995,077	-19,54
995,278	-19,1
995,48	-18,71
995,681	-21,59
995,882	-18,81
996,083	-20,19
996,284	-24,11
996,485	-23,86
996,686	-23,33
996,887	-24,83
997,088	-29,03
997,289	-31,27
997,49	-31,08
997,691	-32,26
997,892	-31,95
998,092	-29,24
998,293	-28,85
998,494	-29,36
998,695	-28,43
998,896	-25,27
999,096	-25,33
999,297	-24,49
999,498	-25,49
999,698	-26,77
999,899	-30,66
1000,1	-31,84
1000,3	-31,33
1000,501	-32,11
1000,701	-31,23
1000,902	-31,94
1001,102	-33,27
1001,303	-32,26
1001,503	-34,71
1001,704	-34,31
1001,904	-33,5
1002,105	-35,48
1002,305	-34,69
1002,505	-35,15
1002,706	-36,05
1002,906	-38,05
1003,106	-38,17
1003,306	-35,82
1003,507	-33,98
1003,707	-33,42
1003,907	-31,33
1004,107	-29,22
1004,307	-30,21
1004,507	-27,98
1004,707	-27,1
1004,907	-27,84
1005,107	-29
1005,308	-27,44
1005,507	-29,5
1005,707	-27,52
1005,907	-26,63
1006,107	-22,6
1006,307	-20,65
1006,507	-20,34
1006,707	-19,05
1006,907	-19,01
1007,106	-19,87
1007,306	-19,82
1007,506	-18,36
1007,706	-18,23
1007,905	-19,6
1008,105	-20,21
1008,305	-19,11
1008,504	-18,21
1008,704	-13,41
1008,903	-12,77
1009,103	-9,25
1009,303	-10,4
1009,502	-10,21
1009,702	-9,71
1009,901	-9,64
1010,1	-12,61
1010,3	-10,74
1010,499	-11,41
1010,699	-13,3
1010,898	-14,32
1011,097	-15,19
1011,296	-15,62
1011,496	-17,38
1011,695	-16,82
1011,894	-18,21
1012,093	-16,01
1012,293	-16,62
1012,492	-17,84
1012,691	-18,05
1012,89	-19,55
1013,089	-21,45
1013,288	-20,94
1013,487	-20,42
1013,686	-22,56
1013,885	-22,65
1014,084	-20,78
1014,283	-21,96
1014,482	-23,57
1014,681	-24,21
1014,88	-28,21
1015,078	-26,84
1015,277	-30,24
1015,476	-31,54
1015,675	-30,24
1015,873	-30,49
1016,072	-32,26
1016,271	-29,38
1016,47	-33,78
1016,668	-32,33
1016,867	-33,27
1017,065	-36,62
1017,264	-36,98
1017,463	-36,41
1017,661	-37,18
1017,86	-37,05
1018,058	-35,42
1018,256	-36,83
1018,455	-37,53
1018,653	-36,16
1018,852	-35
1019,05	-35,73
1019,248	-36,68
1019,447	-36,88
1019,645	-36,93
1019,843	-37,68
1020,041	-36,9
1020,24	-37,8
1020,438	-32,53
1020,636	-33,01
1020,834	-35,74
1021,032	-32,16
1021,23	-35,16
1021,428	-32,43
1021,626	-28,62
1021,824	-29,66
1022,022	-30,95
1022,22	-28,96
1022,418	-27,72
1022,616	-27,95
1022,814	-27,99
1023,012	-28,62
1023,21	-25,89
1023,408	-25,56
1023,606	-27,84
1023,803	-20,85
1024,001	-19,85
1024,199	-23,89
1024,397	-22,56
1024,594	-23,13
1024,792	-25,68
1024,99	-25,29
1025,187	-25,43
1025,385	-22,23
1025,582	-22,28
1025,78	-22,56
1025,977	-21,24
1026,175	-20,31
1026,372	-19,71
1026,57	-23,67
1026,767	-20,89
1026,965	-19,85
1027,162	-19,69
1027,359	-18
1027,557	-18,14
1027,754	-21,86
1027,951	-22,89
1028,148	-20,89
1028,346	-22,47
1028,543	-24,45
1028,74	-23,9
1028,937	-26,62
1029,134	-26,41
1029,331	-26,63
1029,528	-26,66
1029,725	-25,87
1029,923	-31,42
1030,12	-27,97
1030,317	-26,05
1030,513	-25,06
1030,71	-23,78
1030,907	-21,68
1031,104	-22,56
1031,301	-22,72
1031,498	-21,84
1031,695	-22
1031,892	-21,38
1032,088	-20,31
1032,285	-22,82
1032,482	-24,48
1032,678	-26,28
1032,875	-29,3
1033,072	-27,09
1033,268	-28,35
1033,465	-28,72
1033,662	-30,88
1033,858	-29,22
1034,055	-29,79
1034,251	-27,21
1034,448	-28,33
1034,644	-29,59
1034,84	-25,4
1035,037	-22,16
1035,233	-22,26
1035,43	-22,14
1035,626	-22,44
1035,822	-22,47
1036,019	-22,1
1036,215	-26,58
1036,411	-26,98
1036,607	-29,32
1036,803	-31,07
1037	-31,83
1037,196	-33,71
1037,392	-35,07
1037,588	-38,3
1037,784	-37,73
1037,98	-39,67
1038,176	-40,82
1038,372	-40,23
1038,568	-37,92
1038,764	-35,24
1038,96	-32,89
1039,156	-34,33
1039,352	-35,61
1039,547	-33,94
1039,743	-33,24
1039,939	-30,79
1040,135	-31,21
1040,331	-33,57
1040,526	-30
1040,722	-31,23
1040,918	-32,26
1041,113	-36,71
1041,309	-37,82
1041,505	-38,3
1041,7	-37,5
1041,896	-36,63
1042,091	-36,86
1042,287	-35,75
1042,482	-34,71
1042,678	-34,22
1042,873	-33,67
1043,069	-34,03
1043,264	-32,82
1043,459	-30,09
1043,655	-28,8
1043,85	-29,46
1044,045	-27,06
1044,24	-26,92
1044,436	-25,18
1044,631	-26,56
1044,826	-27,85
1045,021	-29,31
1045,216	-28,96
