Data from mesure_FLMT021711__21__43.txt Node

Date: Mon Nov 04 11:53:04 CET 2024
User: jordan.swietlicki
Spectrometer: FLMT02171
Trigger mode: 0
Integration Time (sec): 1.000000E-1
Scans to average: 15
Electric dark correction enabled: true
Nonlinearity correction enabled: false
Boxcar width: 15
XAxis mode: Wavelengths
Number of Pixels in Spectrum: 3648
>>>>>Begin Spectral Data<<<<<
194.7	-42.674
194.9	-40.788
195.2	-36.494
195.5	-35.673
195.7	-32.082
196	-31.092
196.2	-30.427
196.5	-31.939
196.8	-30.52
197	-29.681
197.3	-29.744
197.6	-26.554
197.8	-26.703
198.1	-25.144
198.4	-23.478
198.6	-21.743
198.9	-17.406
199.2	-12.929
199.4	-8.061
199.7	-0.955
200	-1.924
200.2	-3.754
200.5	-4.825
200.7	-4.84
201	-4.278
201.3	-4.591
201.5	-3.444
201.8	-3.995
202.1	-2.324
202.3	-2.724
202.6	-3.052
202.9	-4.395
203.1	-3.618
203.4	-4.723
203.7	-5.526
203.9	-6.386
204.2	-6.009
204.5	-5.368
204.7	-3.995
205	-3.742
205.2	-2.784
205.5	-1.487
205.8	-2.064
206	0.553
206.3	0.433
206.6	1.213
206.8	0.64
207.1	1.33
207.4	2.816
207.6	5.196
207.9	5.015
208.2	6.312
208.4	7.516
208.7	7.753
208.9	9.526
209.2	8.847
209.5	8.534
209.7	8.104
210	8.04
210.3	8.217
210.5	10.299
210.8	10.016
211.1	11.193
211.3	11.917
211.6	10.748
211.9	12
212.1	12.309
212.4	12.852
212.6	12.995
212.9	12.743
213.2	11.691
213.4	11.845
213.7	11.992
214	12.038
214.2	9.873
214.5	9.575
214.8	9.002
215	8.892
215.3	11.012
215.5	11.721
215.8	9.68
216.1	10.284
216.3	11.106
216.6	10.427
216.9	11.366
217.1	10.702
217.4	10.487
217.7	11.015
217.9	8.715
218.2	8.617
218.5	8.949
218.7	6.78
219	6.95
219.2	8.047
219.5	7.723
219.8	8.413
220	8.409
220.3	8.764
220.6	8.402
220.8	7.244
221.1	8.492
221.4	8.183
221.6	8.002
221.9	8.123
222.1	7.27
222.4	7.146
222.7	9.043
222.9	6.328
223.2	5.615
223.5	3.507
223.7	4.095
224	3.307
224.2	2.537
224.5	2.322
224.8	2.59
225	2.322
225.3	1.745
225.6	2.153
225.8	3.299
226.1	5.373
226.4	5.166
226.6	3.635
226.9	5.781
227.1	5.781
227.4	5.377
227.7	4.091
227.9	3.578
228.2	3.393
228.5	2.168
228.7	1.338
229	1.526
229.3	1.625
229.5	5.2
229.8	4.551
230	5.385
230.3	3.985
230.6	4.476
230.8	2.948
231.1	4.811
231.4	4.016
231.6	7.957
231.9	7.055
232.1	8.658
232.4	7.761
232.7	7.312
232.9	7.097
233.2	6.226
233.5	6.271
233.7	6.814
234	5.615
234.2	3.759
234.5	4.332
234.8	6.524
235	4.853
235.3	4.974
235.6	4.589
235.8	5.898
236.1	7.998
236.4	8.262
236.6	9.537
236.9	10.582
237.1	12.147
237.4	11.966
237.7	7.957
237.9	7.421
238.2	4.498
238.5	6.271
238.7	5.388
239	5.837
239.2	5.305
239.5	7.595
239.8	3.812
240	2.96
240.3	4.83
240.6	5.619
240.8	4.695
241.1	5.079
241.3	4.713
241.6	4.299
241.9	2.809
242.1	3.82
242.4	5.06
242.7	4.766
242.9	4.815
243.2	5.14
243.4	5.833
243.7	5.626
244	3.684
244.2	3.235
244.5	2.933
244.8	3.167
245	3.91
245.3	4.977
245.5	4.276
245.8	5.238
246.1	5.355
246.3	5.867
246.6	5.615
246.9	7.259
247.1	6.882
247.4	8.424
247.6	9.22
247.9	9.586
248.2	9.876
248.4	7.022
248.7	6.641
248.9	7.565
249.2	6.939
249.5	7.632
249.7	8.353
250	6.954
250.3	6.263
250.5	6.192
250.8	7.806
251	6.045
251.3	6.965
251.6	8.066
251.8	7.938
252.1	8.149
252.4	5.947
252.6	5.49
252.9	4.306
253.1	3.68
253.4	1.081
253.7	1.726
253.9	3.107
254.2	3.786
254.4	4.645
254.7	4.819
255	5.826
255.2	7.338
255.5	5.935
255.8	4.076
256	3.816
256.3	4.397
256.5	4.234
256.8	3.759
257.1	3.589
257.3	3.446
257.6	4.189
257.8	4.868
258.1	7.319
258.4	8.191
258.6	8.975
258.9	8.394
259.2	7.995
259.4	7.455
259.7	4.876
259.9	4.645
260.2	5.645
260.5	6.988
260.7	6.765
261	6.89
261.2	5.6
261.5	5.743
261.8	4.981
262	5.238
262.3	4.544
262.6	3.635
262.8	2.454
263.1	1.138
263.3	-0.744
263.6	0.188
263.9	0.271
264.1	0.308
264.4	1.44
264.6	1.975
264.9	1.7
265.2	2.616
265.4	2.518
265.7	2.59
266	1.383
266.2	1.843
266.5	1.398
266.7	-1.37
267	-4.168
267.3	-3.486
267.5	-1.755
267.8	0.523
268	0.787
268.3	0.142
268.6	-1.053
268.8	1.304
269.1	-0.167
269.3	-0.672
269.6	-0.94
269.9	-0.604
270.1	-2.856
270.4	-1.491
270.6	-0.227
270.9	-0.027
271.2	-0.684
271.4	-2.275
271.7	-4.142
272	-4.715
272.2	-4.048
272.5	-6.25
272.7	-5.194
273	-4.587
273.3	-4.734
273.5	-3.648
273.8	-5.228
274	-4.097
274.3	-6.077
274.6	-6.216
274.8	-2.554
275.1	-0.069
275.3	1.304
275.6	-0.163
275.9	-1.872
276.1	-1.906
276.4	-1.061
276.6	0.523
276.9	-0.593
277.2	1.922
277.4	2.413
277.7	4.887
277.9	4.913
278.2	5.49
278.5	6.675
278.7	7.052
279	6.105
279.2	6.301
279.5	7.161
279.8	8.04
280	8.949
280.3	7.387
280.5	6.494
280.8	6.592
281.1	5.494
281.3	6.588
281.6	5.253
281.9	7.527
282.1	6.92
282.4	6.923
282.6	7.968
282.9	6.916
283.2	5.837
283.4	4.057
283.7	3.71
283.9	3.865
284.2	4.4
284.5	3.031
284.7	1.274
285	0.685
285.2	-1.781
285.5	-0.416
285.8	-1.498
286	2.311
286.3	3.631
286.5	1.296
286.8	0.938
287.1	2.669
287.3	2.669
287.6	2.42
287.8	3.375
288.1	1.41
288.4	1.938
288.6	5.053
288.9	4.702
289.1	5.686
289.4	2.673
289.7	3.997
289.9	1.553
290.2	3.111
290.4	4.917
290.7	2.601
290.9	0.719
291.2	1.632
291.5	3.205
291.7	4.759
292	5.807
292.2	5.332
292.5	6.791
292.8	8.606
293	7.568
293.3	9.088
293.5	9.903
293.8	9.122
294.1	7.274
294.3	5.649
294.6	6.086
294.8	6.067
295.1	6.26
295.4	6.818
295.6	7.644
295.9	7.599
296.1	7.41
296.4	7.802
296.7	4.151
296.9	3.808
297.2	2.183
297.4	4.17
297.7	2.194
298	4.234
298.2	3.393
298.5	4.031
298.7	5.875
299	7.27
299.3	7.493
299.5	6.022
299.8	5.883
300	6.188
300.3	6.154
300.5	6.573
300.8	5.011
301.1	7.199
301.3	8.149
301.6	6.365
301.8	4.834
302.1	2.847
302.4	3.412
302.6	3.129
302.9	3.669
303.1	2.579
303.4	3.156
303.7	4.091
303.9	2.59
304.2	3.212
304.4	2.496
304.7	4.732
304.9	3.488
305.2	6.094
305.5	6.045
305.7	6.022
306	5.498
306.2	6.267
306.5	5.886
306.8	5.143
307	4.084
307.3	3.982
307.5	4.419
307.8	2.681
308.1	1.161
308.3	2.07
308.6	0.538
308.8	1.417
309.1	1.877
309.3	2.002
309.6	1.628
309.9	4.321
310.1	4.133
310.4	5.404
310.6	6.297
310.9	4.431
311.2	4.348
311.4	3.985
311.7	3.857
311.9	4.412
312.2	6.339
312.5	6.52
312.7	6.75
313	6.222
313.2	5.705
313.5	5.087
313.7	5.223
314	4.555
314.3	2.665
314.5	3.126
314.8	3.959
315	5.532
315.3	4.099
315.6	3.118
315.8	2.647
316.1	2.654
316.3	1.398
316.6	2.232
316.8	2.062
317.1	0.851
317.4	-1.008
317.6	-1.864
317.9	-3.467
318.1	-3.324
318.4	-3.55
318.6	-4.761
318.9	-4.41
319.2	-4.361
319.4	-4.368
319.7	-5.356
319.9	-5.345
320.2	-6.65
320.5	-5.677
320.7	-6.296
321	-6.054
321.2	-7.468
321.5	-5.681
321.7	-4.798
322	-3.422
322.3	-3.678
322.5	-4.104
322.8	-4.949
323	-5.967
323.3	-4.874
323.5	-3.901
323.8	-2.962
324.1	-2.483
324.3	-1.072
324.6	-2.253
324.8	-1.366
325.1	-2.72
325.4	-1.728
325.6	0.761
325.9	1.229
326.1	2.307
326.4	1.557
326.6	1.519
326.9	2.956
327.2	3.288
327.4	3.31
327.7	3.68
327.9	5.415
328.2	6.082
328.4	4.781
328.7	7.459
329	8.67
329.2	9.348
329.5	7.64
329.7	8.33
330	8.217
330.2	10.216
330.5	11.445
330.8	10.642
331	12.347
331.3	10.933
331.5	10.514
331.8	9.296
332	8.545
332.3	6.509
332.6	7.636
332.8	6.818
333.1	8.53
333.3	8.481
333.6	8.119
333.8	8.462
334.1	7.508
334.4	6.822
334.6	6.708
334.9	4.713
335.1	4.649
335.4	3.639
335.6	4.476
335.9	1.364
336.2	-0.412
336.4	1.206
336.7	-1.525
336.9	-0.774
337.2	-1.34
337.4	-1.494
337.7	-2.83
338	-6.016
338.2	-6.258
338.5	-9.086
338.7	-7.917
339	-8.302
339.2	-6.013
339.5	-7.253
339.8	-6.333
340	-4.787
340.3	-3.855
340.5	-3.705
340.8	-1.159
341	-1.076
341.3	-2.799
341.6	-2.95
341.8	-2.599
342.1	-4.021
342.3	-3.889
342.6	-2.909
342.8	-1.185
343.1	-1.438
343.4	-1.774
343.6	-3.09
343.9	-0.423
344.1	1.07
344.4	0.267
344.6	0.146
344.9	-0.446
345.1	0.282
345.4	0.848
345.7	1.349
345.9	3.763
346.2	2.813
346.4	3.344
346.7	2.435
346.9	2.567
347.2	-0.008
347.5	1.489
347.7	1.941
348	0.293
348.2	0.388
348.5	-0.291
348.7	1.67
349	1.523
349.2	3.823
349.5	3.567
349.8	2.892
350	3.714
350.3	3.424
350.5	3.729
350.8	3.133
351	3.442
351.3	4.634
351.6	4.223
351.8	2.896
352.1	2.632
352.3	2.899
352.6	3.71
352.8	2.767
353.1	2.571
353.3	2.032
353.6	0.848
353.9	-0.148
354.1	-0.299
354.4	0.708
354.6	2.918
354.9	1.666
355.1	4.231
355.4	4.223
355.6	4.789
355.9	5.215
356.2	5.487
356.4	6.686
356.7	2.488
356.9	1.873
357.2	1.394
357.4	1.968
357.7	2.058
358	4.532
358.2	5.411
358.5	4.189
358.7	3.763
359	4.246
359.2	4.744
359.5	4.985
359.7	6.46
360	6.833
360.3	8.5
360.5	7.851
360.8	8.345
361	10.216
361.3	9.401
361.5	10.499
361.8	11.291
362	12.596
362.3	12.4
362.6	11.068
362.8	12.203
363.1	11.574
363.3	12.664
363.6	12.901
363.8	14.067
364.1	13.32
364.3	13.067
364.6	13.259
364.8	14.693
365.1	14.334
365.4	15.786
365.6	16.152
365.9	15.617
366.1	16.081
366.4	16.307
366.6	17.966
366.9	18.698
367.1	18.773
367.4	21.436
367.7	21.941
367.9	21.809
368.2	21.021
368.4	19.969
368.7	20.682
368.9	20.772
369.2	20.199
369.4	20.802
369.7	21.726
370	21.032
370.2	20.504
370.5	21.07
370.7	21.312
371	22.081
371.2	21.089
371.5	21.809
371.7	22.194
372	22.665
372.2	22.922
372.5	24.615
372.8	24.178
373	23.356
373.3	20.504
373.5	22.552
373.8	20.965
374	20.297
374.3	22.53
374.5	22.979
374.8	23.39
375	22.971
375.3	21.775
375.6	20.546
375.8	22.062
376.1	22.956
376.3	25.339
376.6	25.505
376.8	23.608
377.1	26.916
377.3	26.312
377.6	25.438
377.8	25.585
378.1	27.308
378.4	27.146
378.6	26.927
378.9	26.154
379.1	27.757
379.4	26.856
379.6	25.894
379.9	24.872
380.1	24.389
380.4	23.416
380.6	24.476
380.9	25.388
381.2	26.886
381.4	26.362
381.7	28.919
381.9	30.246
382.2	29.922
382.4	29.152
382.7	27.851
382.9	28.44
383.2	30.118
383.4	31.121
383.7	32.483
383.9	31.136
384.2	30.876
384.5	31.864
384.7	33.29
385	32.072
385.2	34.191
385.5	34.893
385.7	35.922
386	36.733
386.2	37.947
386.5	37.367
386.7	39.422
387	39.633
387.2	41.956
387.5	44.253
387.8	47.176
388	49.288
388.3	51.63
388.5	52.302
388.8	54.651
389	55.402
389.3	54.591
389.5	54.176
389.8	55.9
390	55.669
390.3	56.179
390.5	57.378
390.8	59.844
391.1	59.309
391.3	61.074
391.6	61.259
391.8	63.431
392.1	64.559
392.3	67.078
392.6	68.662
392.8	70.872
393.1	74.055
393.3	76.714
393.6	78.012
393.8	78.962
394.1	82.277
394.4	86.588
394.6	88.768
394.9	91.842
395.1	93.173
395.4	94.267
395.6	98.144
395.9	99.279
396.1	100.723
396.4	103.722
396.6	106.788
396.9	109.782
397.1	114.025
397.4	118.31
397.6	120.35
397.9	124.608
398.2	129.933
398.4	135.715
398.7	138.815
398.9	141.957
399.2	144.921
399.4	148.753
399.7	151.159
399.9	153.109
400.2	155.047
400.4	158.193
400.7	162.092
400.9	163.088
401.2	166.403
401.4	170.235
401.7	172.63
401.9	174.074
402.2	173.637
402.5	175.692
402.7	175.172
403	177.069
403.2	180.542
403.5	181.251
403.7	184.246
404	186.961
404.2	188.753
404.5	191.728
404.7	195.647
405	198.845
405.2	200.788
405.5	203.56
405.7	205.943
406	207.007
406.2	207.674
406.5	209.613
406.7	210.288
407	211.216
407.3	212.411
407.5	214.765
407.8	217.842
408	218.815
408.3	220.29
408.5	222.307
408.8	222.843
409	225.875
409.3	227.757
409.5	231.465
409.8	232.637
410	236.481
410.3	238.016
410.5	243.85
410.8	244.763
411	245.902
411.3	248.308
411.5	250.22
411.8	251.306
412	252.445
412.3	253.626
412.6	255.01
412.8	254.591
413.1	254.059
413.3	255.545
413.6	255.617
413.8	256.345
414.1	256.054
414.3	256.092
414.6	258.14
414.8	257.552
415.1	256.892
415.3	257.574
415.6	259.407
415.8	260.207
416.1	261.451
416.3	259.539
416.6	263.066
416.8	261.515
417.1	263.699
417.3	261.595
417.6	263.156
417.8	264.114
418.1	265.189
418.4	264.484
418.6	266.55
418.9	267.09
419.1	267.263
419.4	267.09
419.6	267.908
419.9	267.414
420.1	265.966
420.4	265.758
420.6	266.305
420.9	265.672
421.1	264.917
421.4	265.426
421.6	265.596
421.9	266.92
422.1	266.275
422.4	267.214
422.6	270.292
422.9	270.363
423.1	269.997
423.4	270.763
423.6	270.722
423.9	271.638
424.1	273.833
424.4	270.665
424.6	270.495
424.9	268.172
425.1	267.908
425.4	265.144
425.6	265.521
425.9	263.001
426.2	261.734
426.4	259.471
426.7	258.562
426.9	255.681
427.2	253.286
427.4	251.299
427.7	251.329
427.9	249.865
428.2	249.221
428.4	250.337
428.7	251.423
428.9	252.174
429.2	254.452
429.4	255.085
429.7	254.342
429.9	253.358
430.2	252.566
430.4	252.604
430.7	254.519
430.9	255.176
431.2	253.675
431.4	255.327
431.7	255.474
431.9	254.795
432.2	257.582
432.4	258.864
432.7	260.542
432.9	264.472
433.2	268.229
433.4	268.474
433.7	271.453
433.9	272.781
434.2	274.176
434.4	274.651
434.7	277.503
434.9	280.656
435.2	282.172
435.4	282.44
435.7	284.499
435.9	284.125
436.2	285.155
436.4	286.143
436.7	286.55
436.9	285.306
437.2	284.706
437.4	287.15
437.7	290.51
437.9	292.747
438.2	292.351
438.4	293.192
438.7	295.47
438.9	296.405
439.2	295.945
439.4	295.176
439.7	297.095
439.9	297.631
440.2	297.661
440.5	298.823
440.7	298.084
441	298.781
441.2	300.471
441.5	300.754
441.7	300.12
442	301.282
442.2	302.372
442.5	302.232
442.7	303.413
443	304.763
443.2	307.263
443.5	307.565
443.7	309.628
444	308.15
444.2	310.182
444.5	311.695
444.7	313.32
445	315.229
445.2	315.187
445.5	313.724
445.7	314.78
446	316.179
446.2	316.941
446.5	317.39
446.7	319.004
447	319.8
447.2	322.028
447.5	324.367
447.7	323.537
448	324.348
448.2	325.015
448.5	326.573
448.7	327.29
449	326.335
449.2	326.973
449.5	329.074
449.7	329.537
450	331.046
450.2	334.346
450.5	334.471
450.7	336.537
451	336.232
451.2	337.582
451.5	337.733
451.7	341.059
452	343.56
452.2	344.137
452.5	343.967
452.7	345.219
452.9	346.403
453.2	348.564
453.4	350.262
453.7	352.166
453.9	352.057
454.2	352.272
454.4	351.917
454.7	354.354
454.9	354.018
455.2	352.223
455.4	354.527
455.7	356.677
455.9	355.334
456.2	355.945
456.4	357.054
456.7	357.842
456.9	359.042
457.2	359.166
457.4	362.436
457.7	364.265
457.9	363.967
458.2	365.065
458.4	365.936
458.7	368.523
458.9	369.224
459.2	369.5
459.4	371.061
459.7	371.359
459.9	371.763
460.2	372.868
460.4	372.611
460.7	374.64
460.9	376.869
461.2	376.466
461.4	375.711
461.7	378.868
461.9	379.818
462.2	381.195
462.4	380.705
462.7	383.152
462.9	383.68
463.2	383.315
463.4	382.704
463.7	385.419
463.9	386.249
464.2	385.204
464.4	386.596
464.7	387.109
464.9	387.493
465.2	387.097
465.4	386.833
465.7	388.489
465.9	390.839
466.2	390.797
466.4	390.548
466.6	391.502
466.9	391.178
467.1	389.504
467.4	389.266
467.6	390.861
467.9	390.714
468.1	390.997
468.4	389.771
468.6	389.398
468.9	389.168
469.1	389.522
469.4	389.488
469.6	390.277
469.9	390.167
470.1	392.408
470.4	391.031
470.6	393.482
470.9	396.454
471.1	398.97
471.4	398.653
471.6	399.683
471.9	402.922
472.1	403.963
472.4	404.88
472.6	407.324
472.9	406.992
473.1	408.534
473.4	409.315
473.6	409.3
473.9	409.534
474.1	411.208
474.3	412.317
474.6	416.409
474.8	417.669
475.1	418.235
475.3	417.575
475.6	419.502
475.8	422.323
476.1	425.721
476.3	426.015
476.6	428.73
476.8	430.609
477.1	433.079
477.3	434.188
477.6	437.258
477.8	438.148
478.1	441.244
478.3	443.786
478.6	446.29
478.8	445.344
479.1	446.837
479.3	447.082
479.6	448.813
479.8	450.096
480.1	452.657
480.3	454.542
480.5	457.152
480.8	457.65
481	459.494
481.3	460.331
481.5	462.036
481.8	461.09
482	462.53
482.3	461.252
482.5	460.426
482.8	460.222
483	461.489
483.3	461.863
483.5	463.269
483.8	462.108
484	462.485
484.3	461.195
484.5	462.372
484.8	462.692
485	462.24
485.2	461.553
485.5	463.628
485.7	463.375
486	463.111
486.2	462.323
486.5	465.947
486.7	467.162
487	469.259
487.2	467.818
487.5	470.028
487.7	472.159
488	470.409
488.2	470.25
488.5	470.088
488.7	469.191
489	469.624
489.2	470.281
489.5	472.034
489.7	472.973
489.9	473.056
490.2	474.584
490.4	476.809
490.7	478.959
490.9	479.717
491.2	478.672
491.4	480.407
491.7	483.375
491.9	484.559
492.2	485.366
492.4	484.676
492.7	487.147
492.9	489.606
493.2	489.036
493.4	489.096
493.6	487.641
493.9	487.505
494.1	484.661
494.4	484.288
494.6	482.647
494.9	481.821
495.1	479.785
495.4	478.253
495.6	480.629
495.9	481.908
496.1	483.545
496.4	483.711
496.6	484.567
496.9	487.033
497.1	485.932
497.3	484.729
497.6	484.933
497.8	485.815
498.1	483.337
498.3	481.949
498.6	480.079
498.8	479.57
499.1	477.918
499.3	476.239
499.6	476.986
499.8	475.466
500.1	472.823
500.3	470.631
500.6	468.395
500.8	465.879
501	466.253
501.3	464.921
501.5	462.545
501.8	462.432
502	462.968
502.3	460.878
502.5	459.981
502.8	459.83
503	460.199
503.3	457.054
503.5	453.863
503.8	452.936
504	451.435
504.2	450.688
504.5	447.482
504.7	447.931
505	446.841
505.2	448.263
505.5	447.795
505.7	448.372
506	446.969
506.2	448.651
506.5	447.241
506.7	445.762
506.9	444.816
507.2	443.273
507.4	440.758
507.7	442.824
507.9	443.164
508.2	443.624
508.4	442.334
508.7	440.878
508.9	440.275
509.2	441.21
509.4	441.354
509.7	439.634
509.9	440.252
510.1	439.577
510.4	437.243
510.6	433.06
510.9	433.109
511.1	433.547
511.4	433
511.6	431.966
511.9	428.689
512.1	425.823
512.4	425.291
512.6	424.073
512.8	419.671
513.1	415.783
513.3	413.471
513.6	410.925
513.8	408.014
514.1	405.381
514.3	402.5
514.6	400.32
514.8	397.069
515.1	396.903
515.3	392.988
515.5	391.144
515.8	388.893
516	388.27
516.3	385.977
516.5	383.68
516.8	381.229
517	377.823
517.3	376.047
517.5	374.934
517.7	373.211
518	372.585
518.2	371.223
518.5	369.587
518.7	367.776
519	365.445
519.2	365.298
519.5	365.204
519.7	364.589
520	362.983
520.2	361.768
520.4	364.099
520.7	366.822
520.9	367.542
521.2	368.142
521.4	367.678
521.7	369.771
521.9	370.548
522.2	368.817
522.4	370.79
522.6	370.262
522.9	370.356
523.1	369.345
523.4	368.655
523.6	366.875
523.9	367.233
524.1	367.889
524.4	366.015
524.6	365.943
524.8	363.541
525.1	362.285
525.3	362.9
525.6	363.017
525.8	364.235
526.1	363.33
526.3	363.401
526.6	362.417
526.8	359.864
527	361.274
527.3	361.255
527.5	359.626
527.8	359.913
528	356.413
528.3	356.428
528.5	355.708
528.8	353.946
529	352.743
529.2	353.132
529.5	351.717
529.7	353.954
530	352.294
530.2	352.147
530.5	349.749
530.7	348.24
531	346.731
531.2	346.762
531.4	345.166
531.7	346.139
531.9	346.305
532.2	346.339
532.4	347.384
532.7	347.271
532.9	345.457
533.2	344.054
533.4	342.255
533.6	340.671
533.9	338.087
534.1	336.251
534.4	336.428
534.6	336.119
534.9	334.444
535.1	333.916
535.3	332.721
535.6	333.075
535.8	328.515
536.1	328.304
536.3	328.263
536.6	329.123
536.8	326.931
537.1	327.241
537.3	324.261
537.5	323.628
537.8	322.311
538	323.269
538.3	322.025
538.5	320.512
538.8	319.739
539	318.159
539.2	316.028
539.5	314.98
539.7	315.104
540	314.173
540.2	314.569
540.5	313.886
540.7	313.927
540.9	313.339
541.2	313.26
541.4	316.552
541.7	319.098
541.9	319.041
542.2	314.738
542.4	313.89
542.7	313.294
542.9	312.951
543.1	312.796
543.4	315.806
543.6	314.863
543.9	314.576
544.1	313.275
544.4	312.638
544.6	311.333
544.8	312.211
545.1	310.401
545.3	309.594
545.6	309.53
545.8	310.616
546.1	310.156
546.3	310.039
546.5	310.431
546.8	310.854
547	311.084
547.3	310.314
547.5	309.402
547.8	307.184
548	306.909
548.2	306.268
548.5	304.216
548.7	304.789
549	300.727
549.2	300.113
549.5	299.264
549.7	299.758
549.9	299.441
550.2	298.272
550.4	297.22
550.7	296.171
550.9	292.498
551.2	291.925
551.4	290.612
551.6	289.224
551.9	288.38
552.1	287.437
552.4	285.973
552.6	284.389
552.9	284.352
553.1	282.583
553.3	281.161
553.6	280.935
553.8	278.883
554.1	279.981
554.3	277.442
554.5	274.542
554.8	271.212
555	269.56
555.3	266.773
555.5	265.615
555.8	262.945
556	261.663
556.2	257.582
556.5	256.567
556.7	252.321
557	251.234
557.2	249.213
557.5	249.213
557.7	249.892
557.9	247.561
558.2	245.977
558.4	246.577
558.7	242.756
558.9	242.191
559.2	240.497
559.4	238.762
559.6	238.359
559.9	237.721
560.1	236.899
560.4	236.88
560.6	235.228
560.8	233.773
561.1	232.505
561.3	233.452
561.6	230.212
561.8	229.65
562.1	228.738
562.3	228.64
562.5	228.485
562.8	229.903
563	227.776
563.3	227.55
563.5	227.308
563.7	227.704
564	226.66
564.2	226.381
564.5	224.925
564.7	225.607
565	224.359
565.2	221.251
565.4	221.998
565.7	223.454
565.9	221.24
566.2	222.296
566.4	220.256
566.6	221.632
566.9	221.945
567.1	222.364
567.4	220.739
567.6	221.323
567.9	218.57
568.1	218.902
568.3	219.121
568.6	218.596
568.8	218.046
569.1	216.36
569.3	214.787
569.5	214.81
569.8	215.477
570	214.806
570.3	214.493
570.5	215.277
570.7	215.274
571	215.624
571.2	216.186
571.5	215.349
571.7	214.599
572	214.206
572.2	212.792
572.4	212.588
572.7	213.924
572.9	213.516
573.2	210.857
573.4	208.779
573.6	207.44
573.9	207.512
574.1	204.668
574.4	201.248
574.6	200.524
574.8	198.645
575.1	197.356
575.3	196.763
575.6	195.756
575.8	193.384
576	191.133
576.3	189.058
576.5	191.099
576.8	191.593
577	192.573
577.3	191.981
577.5	190.439
577.7	189.567
578	189.386
578.2	188.281
578.5	186.347
578.7	185.219
578.9	185.359
579.2	184.604
579.4	182.496
579.7	181.915
579.9	180.418
580.1	178.645
580.4	177.721
580.6	178.019
580.9	181.184
581.1	181.474
581.3	181.067
581.6	179.056
581.8	179.637
582.1	178.611
582.3	179.237
582.5	179.079
582.8	179.185
583	179.747
583.3	181.923
583.5	181.757
583.7	181.938
584	179.995
584.2	179.339
584.5	177.035
584.7	175.67
584.9	175.877
585.2	174.742
585.4	173.773
585.7	171.913
585.9	170.639
586.1	170.024
586.4	167.897
586.6	168.828
586.9	168.308
587.1	166.893
587.3	166.267
587.6	165.773
587.8	164.634
588.1	163.375
588.3	159.826
588.5	158.193
588.8	156.405
589	157.736
589.3	157.08
589.5	155.255
589.7	156.209
590	154.893
590.2	155.115
590.5	153.335
590.7	151.159
590.9	152.404
591.2	151.004
591.4	150.28
591.7	151.943
591.9	153.456
592.1	153.105
592.4	153.305
592.6	152.14
592.9	151.63
593.1	152.735
593.3	153.022
593.6	152.23
593.8	153.742
594.1	153.199
594.3	154.542
594.5	154.236
594.8	153.791
595	155.028
595.3	155.87
595.5	158.536
595.7	160.637
596	161.421
596.2	162.375
596.4	165.517
596.7	166.109
596.9	166.166
597.2	164.951
597.4	167.293
597.6	166.735
597.9	166.101
598.1	167.459
598.4	167.806
598.6	169.198
598.8	168.583
599.1	166.675
599.3	167.195
599.6	167.173
599.8	167.421
600	169.337
600.3	170.197
600.5	169.232
600.7	170.857
601	172.973
601.2	172.992
601.5	172.562
601.7	172.773
601.9	173.282
602.2	175.16
602.4	173.912
602.7	172.871
602.9	170.642
603.1	169.971
603.4	169.53
603.6	170.314
603.9	167.836
604.1	167.599
604.3	168.745
604.6	168.53
604.8	166.973
605	167.357
605.3	167.237
605.5	166
605.8	164.069
606	164.465
606.2	164.959
606.5	164.578
606.7	161.451
607	160.633
607.2	158.687
607.4	155.813
607.7	154.368
607.9	153.527
608.1	153.418
608.4	151.544
608.6	150.114
608.9	149.047
609.1	147.09
609.3	145.785
609.6	144.638
609.8	144.51
610.1	143.401
610.3	140.233
610.5	138.909
610.8	137.736
611	136.431
611.2	135.077
611.5	134.614
611.7	132.136
612	131.532
612.2	130.22
612.4	128.79
612.7	128.538
612.9	129.051
613.1	127.704
613.4	125.905
613.6	125.121
613.9	124.759
614.1	124.291
614.3	124.042
614.6	124.649
614.8	125.588
615	124.189
615.3	124.318
615.5	123.676
615.8	121.628
616	121.693
616.2	121.067
616.5	122.583
616.7	123.85
616.9	121.794
617.2	121.074
617.4	122.368
617.7	123.431
617.9	121.791
618.1	120.72
618.4	119.083
618.6	117.68
618.8	118.11
619.1	119.396
619.3	118.404
619.6	116.865
619.8	115.33
620	113.871
620.3	111.732
620.5	112.882
620.7	111.046
621	109.703
621.2	108.017
621.5	108.198
621.7	108.564
621.9	106.954
622.2	105.456
622.4	106.976
622.6	105.819
622.9	103.778
623.1	104.789
623.4	102.575
623.6	102.605
623.8	101.53
624.1	99.35
624.3	100.139
624.5	100.286
624.8	99.532
625	99.26
625.3	101.033
625.5	102.394
625.7	103.593
626	103.94
626.2	102.979
626.4	102.337
626.7	101.798
626.9	103.258
627.1	103.522
627.4	103.473
627.6	103.073
627.9	102.658
628.1	102.869
628.3	103.129
628.6	102.594
628.8	102.952
629	102.368
629.3	103.707
629.5	104.842
629.8	102.601
630	103.544
630.2	102.454
630.5	101.764
630.7	102.153
630.9	101.263
631.2	99.95
631.4	100.395
631.6	98.457
631.9	96.477
632.1	95.013
632.4	94.704
632.6	93.452
632.8	92.701
633.1	92.023
633.3	92.207
633.5	91.404
633.8	90.68
634	92.388
634.2	92.079
634.5	91.683
634.7	92.882
635	92.683
635.2	92.641
635.4	93.825
635.7	95.383
635.9	94.738
636.1	94.463
636.4	93.765
636.6	91.061
636.8	90.782
637.1	91.555
637.3	91.728
637.5	91.834
637.8	91.785
638	92.264
638.3	92.588
638.5	94.199
638.7	93.226
639	95.685
639.2	96.974
639.4	96.722
639.7	97.035
639.9	95.387
640.1	97.668
640.4	99.554
640.6	98.709
640.9	100.014
641.1	100.776
641.3	99.037
641.6	99.188
641.8	99.55
642	97.895
642.3	97.216
642.5	96.661
642.7	94.27
643	94.519
643.2	93.791
643.4	92.524
643.7	92.313
643.9	93.154
644.1	91.781
644.4	93.128
644.6	92.634
644.9	93.376
645.1	93.192
645.3	93.018
645.6	91.989
645.8	89.933
646	92.109
646.3	90.005
646.5	88.892
646.7	89.843
647	89.526
647.2	89.978
647.4	87.61
647.7	85.253
647.9	86.207
648.1	85.943
648.4	84.449
648.6	85.106
648.9	85.091
649.1	85.966
649.3	87.248
649.6	88.059
649.8	88.066
650	88.417
650.3	85.551
650.5	87.312
650.7	87.191
651	86.693
651.2	86.939
651.4	85.607
651.7	83.239
651.9	82.368
652.1	82.254
652.4	82.296
652.6	82.899
652.8	83.718
653.1	84.099
653.3	83.178
653.5	83.054
653.8	82.673
654	83.375
654.3	82.213
654.5	82.854
654.7	81.085
655	80.618
655.2	79.271
655.4	77.299
655.7	78.736
655.9	79.705
656.1	80.256
656.4	78.257
656.6	76.978
656.8	81.662
657.1	83.171
657.3	83.74
657.5	84.016
657.8	84.766
658	85.57
658.2	86.437
658.5	85.555
658.7	87.071
658.9	86.784
659.2	85.585
659.4	84.366
659.6	84.31
659.9	83.906
660.1	82.76
660.3	82.688
660.6	81.338
660.8	81.674
661	81.44
661.3	79.762
661.5	78.868
661.8	78.543
662	78.453
662.2	78.875
662.5	78.762
662.7	79.943
662.9	77.88
663.2	76.763
663.4	73.071
663.6	72.962
663.9	73.908
664.1	68.741
664.3	67.776
664.6	67.772
664.8	66.803
665	66.226
665.3	66.154
665.5	65.023
665.7	65.864
666	65.8
666.2	65.487
666.4	66.999
666.7	66.735
666.9	66.124
667.1	65.969
667.4	67.648
667.6	66.863
667.8	66.573
668.1	66.199
668.3	66.056
668.5	66.652
668.8	67.836
669	66.844
669.2	69.224
669.5	69.349
669.7	69.62
669.9	68.357
670.2	68.398
670.4	67.531
670.6	69.073
670.9	69.654
671.1	67.587
671.3	67.697
671.6	65.954
671.8	66.818
672	67.93
672.3	67.84
672.5	68.364
672.7	67.082
673	68.417
673.2	67.165
673.4	69.707
673.7	68.904
673.9	69.352
674.1	69.552
674.4	69.043
674.6	66.761
674.8	66.086
675.1	65.113
675.3	63.937
675.5	65.573
675.8	63.974
676	63.88
676.2	66.248
676.5	64.725
676.7	65.343
676.9	64.449
677.2	64.585
677.4	64.691
677.6	64.57
677.9	64.612
678.1	63.887
678.3	65.06
678.5	64.019
678.8	63.035
679	62.164
679.2	62.168
679.5	62.379
679.7	60.637
679.9	62.432
680.2	59.803
680.4	62.024
680.6	59.267
680.9	60.263
681.1	59.641
681.3	61.112
681.6	60.282
681.8	62.217
682	62.258
682.3	64.649
682.5	65.441
682.7	62.948
683	63.382
683.2	61.61
683.4	59.916
683.7	58.63
683.9	59.192
684.1	59.954
684.4	60.712
684.6	60.18
684.8	59.113
685.1	58.543
685.3	57.838
685.5	58.468
685.7	57.929
686	58.294
686.2	57.774
686.4	57.559
686.7	55.055
686.9	55.009
687.1	53.014
687.4	53.369
687.6	50.77
687.8	50.974
688.1	49.582
688.3	49.447
688.5	47.131
688.8	49.605
689	46.871
689.2	48.609
689.5	46.633
689.7	45.894
689.9	45.422
690.2	44.48
690.4	45.249
690.6	44.065
690.8	43.688
691.1	41.342
691.3	40.003
691.5	38.954
691.8	37.895
692	39.735
692.2	41.41
692.5	40.867
692.7	39.777
692.9	40.142
693.2	38.155
693.4	37.57
693.6	36.733
693.9	38.087
694.1	38.362
694.3	39.867
694.5	40.086
694.8	39.645
695	39.169
695.2	38.483
695.5	37.97
695.7	38.894
695.9	37.929
696.2	37.687
696.4	36.069
696.6	35.971
696.9	35.884
697.1	39.283
697.3	40.995
697.6	41.949
697.8	41.56
698	42.681
698.2	42.337
698.5	43.401
698.7	43.744
698.9	45.253
699.2	44.808
699.4	41.794
699.6	42.854
699.9	41.919
700.1	41.726
700.3	45.06
700.6	45.977
700.8	46.712
701	46.131
701.2	45.332
701.5	44.857
701.7	44.306
701.9	44.544
702.2	45.796
702.4	47.033
702.6	47.923
702.9	45.962
703.1	44.148
703.3	45.769
703.6	46.045
703.8	46.165
704	45.649
704.2	41.545
704.5	40.58
704.7	40.244
704.9	41.27
705.2	40.259
705.4	41.508
705.6	40.946
705.9	40.44
706.1	40.531
706.3	38.128
706.5	37.898
706.8	37.287
707	37.367
707.2	38.347
707.5	36.786
707.7	35.545
707.9	34.889
708.2	34.5
708.4	34.644
708.6	33.969
708.8	33.12
709.1	32.845
709.3	30.706
709.5	29.477
709.8	29.303
710	30.427
710.2	30.02
710.5	29.507
710.7	28.078
710.9	27.534
711.1	27.252
711.4	28.293
711.6	27.655
711.8	27.897
712.1	27.044
712.3	27.485
712.5	26.452
712.8	27.161
713	25.849
713.2	24.14
713.4	25.192
713.7	25.43
713.9	25.219
714.1	26.61
714.4	25.042
714.6	23.612
714.8	22.665
715.1	21.93
715.3	21.583
715.5	19.773
715.7	19.565
716	18.902
716.2	17.955
716.4	18.215
716.7	17.427
716.9	18.864
717.1	16.737
717.3	17.318
717.6	16.767
717.8	16.533
718	15.632
718.3	15.349
718.5	15.202
718.7	15.786
718.9	14.312
719.2	13.376
719.4	13.448
719.6	11.717
719.9	10.171
720.1	10.725
720.3	10.088
720.6	7.979
720.8	7.006
721	6.667
721.2	5.041
721.5	5.2
721.7	5.679
721.9	5.83
722.2	4.966
722.4	4.683
722.6	7.244
722.8	7.101
723.1	8.636
723.3	10.865
723.5	10.371
723.8	11.238
724	8.794
724.2	9.198
724.4	10.465
724.7	12.2
724.9	13.233
725.1	14.395
725.4	15.949
725.6	14.489
725.8	14.576
726	14.466
726.3	13.448
726.5	13.071
726.7	13.693
727	12
727.2	11.483
727.4	12.848
727.6	13.81
727.9	15.436
728.1	15.602
728.3	15.496
728.6	15.854
728.8	16.311
729	15.915
729.2	17.461
729.5	17.453
729.7	15.696
729.9	16.243
730.2	15.571
730.4	14.561
730.6	14.919
730.8	13.391
731.1	14.421
731.3	15.157
731.5	13.795
731.7	11.6
732	12.109
732.2	11.796
732.4	10.963
732.7	12.32
732.9	10.555
733.1	9.846
733.3	10.416
733.6	10.838
733.8	11.234
734	16.111
734.3	16.386
734.5	18.396
734.7	19.562
734.9	17.876
735.2	19.927
735.4	20.471
735.6	20.033
735.9	21.591
736.1	22.598
736.3	23.397
736.5	23.261
736.8	24.268
737	23.144
737.2	22.481
737.4	21.481
737.7	22.435
737.9	25.818
738.1	24.706
738.4	24.702
738.6	25.177
738.8	25.724
739	24.359
739.3	24.83
739.5	24.031
739.7	24.348
739.9	27.757
740.2	29.85
740.4	30.465
740.6	29.413
740.9	29.273
741.1	27.097
741.3	27.316
741.5	24.936
741.8	24.4
742	25.773
742.2	26.105
742.4	25.758
742.7	27.022
742.9	25.984
743.1	24.559
743.4	22.59
743.6	23.092
743.8	21.938
744	24.001
744.3	25.928
744.5	25.894
744.7	26.196
744.9	25.784
745.2	28.051
745.4	27.444
745.6	26.693
745.8	26.942
746.1	27.9
746.3	30.009
746.5	33.071
746.8	32.034
747	31.347
747.2	32.015
747.4	34.172
747.7	34.681
747.9	35.96
748.1	35.145
748.3	37.027
748.6	37.955
748.8	37.525
749	37.514
749.2	35.651
749.5	35.783
749.7	35.824
749.9	36.156
750.2	39.286
750.4	39.916
750.6	40.889
750.8	41.489
751.1	40.135
751.3	38.219
751.5	40.655
751.7	41.821
752	40.437
752.2	39.731
752.4	39.667
752.6	40.176
752.9	40.056
753.1	39.135
753.3	37.966
753.5	36.771
753.8	37.691
754	36.801
754.2	36.537
754.4	34.949
754.7	35.281
754.9	34.278
755.1	34.349
755.4	32.886
755.6	33.859
755.8	34.165
756	33.207
756.3	32.422
756.5	31.574
756.7	28.888
756.9	28.56
757.2	25.698
757.4	24.793
757.6	22.243
757.8	20.851
758.1	21.753
758.3	23.19
758.5	20.395
758.7	17.069
759	14.708
759.2	14.583
759.4	14.202
759.6	13.81
759.9	13.184
760.1	14.285
760.3	11.939
760.5	10.612
760.8	9.926
761	9.058
761.2	7.851
761.4	8.228
761.7	8.01
761.9	9.899
762.1	9.68
762.3	8.753
762.6	5.928
762.8	5.671
763	4.981
763.2	7.565
763.5	8.115
763.7	8.655
763.9	8.968
764.1	9.556
764.4	10.216
764.6	11.551
764.8	13.094
765	12.041
765.3	10.555
765.5	10.985
765.7	11.973
765.9	13.678
766.2	13.014
766.4	13.897
766.6	12.781
766.8	13.011
767.1	11.359
767.3	12.347
767.5	12.875
767.7	13.961
768	14.297
768.2	14.96
768.4	14.644
768.6	13.143
768.9	10.412
769.1	10.374
769.3	11.853
769.5	12.03
769.8	12.509
770	14.357
770.2	12.637
770.4	13.35
770.7	13.919
770.9	13.957
771.1	13.324
771.3	13.965
771.6	13.595
771.8	14.074
772	13.161
772.2	12.679
772.5	13.482
772.7	13.218
772.9	12.799
773.1	12.181
773.4	12.528
773.6	14.093
773.8	12.879
774	14.055
774.3	14.101
774.5	13.478
774.7	12.222
774.9	12.388
775.2	12.06
775.4	12.43
775.6	13.226
775.8	14.621
776	16.194
776.3	15.828
776.5	16.386
776.7	16.827
776.9	16.609
777.2	16.179
777.4	15.387
777.6	15.636
777.8	15.27
778.1	16.201
778.3	15.123
778.5	15.145
778.7	14.225
779	14.331
779.2	15.549
779.4	15.296
779.6	15.375
779.9	14.508
780.1	15.571
780.3	14.504
780.5	12.916
780.7	12.822
781	13.188
781.2	13.241
781.4	11.989
781.6	12.313
781.9	12.882
782.1	11.419
782.3	11.37
782.5	10.669
782.8	9.805
783	10.299
783.2	9.069
783.4	8.387
783.7	7.025
783.9	5.871
784.1	5.513
784.3	4.559
784.5	3.499
784.8	1.074
785	-0.152
785.2	-0.265
785.4	-0.902
785.7	-1.547
785.9	-0.016
786.1	-0.284
786.3	-0.091
786.6	0.237
786.8	1.236
787	0.716
787.2	2.266
787.4	2.745
787.7	3.963
787.9	4.091
788.1	4.28
788.3	5.057
788.6	4.649
788.8	2.13
789	1.247
789.2	-0.291
789.5	-0.114
789.7	-1.125
789.9	-3.757
790.1	-4.802
790.3	-5.141
790.6	-4.53
790.8	-4.319
791	-4.704
791.2	-3.58
791.5	-0.831
791.7	0.565
791.9	0.968
792.1	0.614
792.3	-0.012
792.6	-0.423
792.8	-2.539
793	-1.049
793.2	-0.533
793.5	-0.457
793.7	-0.125
793.9	-0.978
794.1	-2.071
794.3	-2.173
794.6	-1.17
794.8	-2.324
795	-1.645
795.2	-1.464
795.5	-1.072
795.7	-0.804
795.9	1.361
796.1	0.795
796.3	0.648
796.6	2.737
796.8	3.782
797	6.697
797.2	8.364
797.5	9.624
797.7	10.774
797.9	9.571
798.1	11.019
798.3	17.54
798.6	18.902
798.8	21.289
799	22.677
799.2	23.382
799.5	25.019
799.7	26.58
799.9	25.015
800.1	23.393
800.3	23.137
800.6	22.462
800.8	23.261
801	23.91
801.2	24.008
801.5	24.189
801.7	23.318
801.9	21.892
802.1	22.835
802.3	23.744
802.6	24.4
802.8	22.979
803	24.902
803.2	26.411
803.4	24.065
803.7	24.393
803.9	22.926
804.1	22.021
804.3	21.074
804.6	20.878
804.8	22.56
805	19.875
805.2	10.665
805.4	8.787
805.7	6.471
805.9	4.661
806.1	5.117
806.3	4.574
806.5	3.514
806.8	1.892
807	2.865
807.2	3.22
807.4	4.148
807.6	1.421
807.9	0.866
808.1	0.987
808.3	0.833
808.5	3.22
808.8	4.468
809	3.344
809.2	4.431
809.4	4.321
809.6	3.929
809.9	2.115
810.1	0.372
810.3	2.153
810.5	1.059
810.7	-0.646
811	-1.087
811.2	-1.849
811.4	-2.434
811.6	-2.913
811.8	-1.608
812.1	-0.661
812.3	-0.457
812.5	-0.785
812.7	-0.404
812.9	0.078
813.2	1.602
813.4	0.9
813.6	1.485
813.8	1.195
814	0.022
814.3	-0.567
814.5	2.609
814.7	0.742
814.9	-1.434
815.2	-2.324
815.4	-3.301
815.6	-4.176
815.8	-4.662
816	-6.269
816.3	-5.647
816.5	-6.688
816.7	-5.428
816.9	-4.515
817.1	-4.723
817.4	-5.413
817.6	-4.598
817.8	-4.553
818	-4.459
818.2	-5.285
818.5	-5.613
818.7	-7.683
818.9	-9.399
819.1	-7.51
819.3	-7.121
819.6	-6.065
819.8	-5.338
820	-7.578
820.2	-7.91
820.4	-7.235
820.7	-7.593
820.9	-6.126
821.1	-5.066
821.3	-5.575
821.5	-3.229
821.8	-1.468
822	-2.369
822.2	-2.154
822.4	-2.879
822.6	-2.679
822.9	-2.649
823.1	-4.402
823.3	-2.86
823.5	-4.127
823.7	-2.965
823.9	-4.202
824.2	-4.64
824.4	-5.247
824.6	-4.447
824.8	-5.334
825	-4.7
825.3	-4.972
825.5	-3.384
825.7	-2.52
825.9	-4.662
826.1	-5.432
826.4	-5.858
826.6	-7.947
826.8	-9.086
827	-8.457
827.2	-8.023
827.5	-6.974
827.7	-6.744
827.9	-6.997
828.1	-7.472
828.3	-7.962
828.6	-7.725
828.8	-6.703
829	-7.842
829.2	-7.649
829.4	-6.307
829.6	-7.005
829.9	-6.329
830.1	-5.764
830.3	-5.711
830.5	-6.824
830.7	-6.959
831	-5.99
831.2	-5.537
831.4	-6.435
831.6	-6.05
831.8	-7.038
832.1	-6.318
832.3	-6.326
832.5	-5.783
832.7	-5.33
832.9	-4.87
833.1	-5.1
833.4	-4.542
833.6	-1.921
833.8	-0.352
834	-0.827
834.2	-0.966
834.5	-2.056
834.7	-4.832
834.9	-5.141
835.1	-5.832
835.3	-6.262
835.5	-6.971
835.8	-6.25
836	-5.334
836.2	-6.752
836.4	-5.662
836.6	-6.024
836.9	-7.076
837.1	-6.186
837.3	-6.073
837.5	-6.446
837.7	-7.51
837.9	-7.031
838.2	-5.854
838.4	-6.68
838.6	-4.429
838.8	-4.745
839	-5.258
839.3	-5.058
839.5	-4.485
839.7	-4.127
839.9	-4.813
840.1	-5.462
840.3	-4.172
840.6	-6.405
840.8	-5.074
841	-6.371
841.2	-5.79
841.4	-4.089
841.7	-3.829
841.9	-4.021
842.1	-3.772
842.3	-2.701
842.5	-2.483
842.7	-2.381
843	-3.154
843.2	-4.583
843.4	-2.117
843.6	-2.532
843.8	-1.947
844	-2.256
844.3	-1.555
844.5	-1.453
844.7	-2.95
844.9	-2.89
845.1	-2.773
845.4	-4.636
845.6	-3.886
845.8	-2.105
846	-2.875
846.2	-4.391
846.4	-4.108
846.7	-4.044
846.9	-3.188
847.1	-5.107
847.3	-3.897
847.5	-5.492
847.7	-5.239
848	-6.224
848.2	-6.213
848.4	-6.744
848.6	-7.091
848.8	-7.838
849	-8.939
849.3	-9.686
849.5	-9.494
849.7	-9.637
849.9	-11.251
850.1	-14.114
850.3	-11.5
850.6	-12.364
850.8	-13.239
851	-14.759
851.2	-14.31
851.4	-13.265
851.6	-15.124
851.9	-14.34
852.1	-12.59
852.3	-15.124
852.5	-16.452
852.7	-16.256
852.9	-14.491
853.2	-13.495
853.4	-13.258
853.6	-14.468
853.8	-15.769
854	-17.308
854.2	-15.969
854.5	-15.841
854.7	-16.377
854.9	-16.407
855.1	-15.664
855.3	-15.177
855.5	-14.389
855.8	-15.136
856	-16.946
856.2	-18.941
856.4	-15.932
856.6	-14.216
856.8	-13.375
857.1	-12.292
857.3	-12.662
857.5	-11.809
857.7	-8.687
857.9	-8.03
858.1	-7.091
858.4	-7.148
858.6	-7.325
858.8	-9.335
859	-7.397
859.2	-8.419
859.4	-7.883
859.7	-8.928
859.9	-10.357
860.1	-10.919
860.3	-10.689
860.5	-10.444
860.7	-10.101
860.9	-12.085
861.2	-10.199
861.4	-9.456
861.6	-8.46
861.8	-8.683
862	-8.279
862.2	-7.906
862.5	-7.442
862.7	-6.25
862.9	-5.613
863.1	-7.186
863.3	-6.601
863.5	-6.865
863.8	-10.406
864	-9.448
864.2	-8.321
864.4	-9.607
864.6	-10.512
864.8	-11.353
865	-10.946
865.3	-9.52
865.5	-9.128
865.7	-8.573
865.9	-8.155
866.1	-9.271
866.3	-8.638
866.6	-8.113
866.8	-8.136
867	-8.162
867.2	-8.17
867.4	-7.638
867.6	-7.035
867.8	-8.506
868.1	-8.147
868.3	-8.973
868.5	-8.83
868.7	-10.222
868.9	-10.67
869.1	-9.848
869.3	-9.32
869.6	-9.675
869.8	-9.565
870	-10.501
870.2	-10.188
870.4	-10.131
870.6	-10.52
870.9	-12.164
871.1	-13.224
871.3	-12.703
871.5	-13.186
871.7	-11.085
871.9	-12.794
872.1	-13.107
872.4	-14.702
872.6	-14.71
872.8	-14.219
873	-14.487
873.2	-14.804
873.4	-12.971
873.6	-12.677
873.9	-12.352
874.1	-12.635
874.3	-13.408
874.5	-14.265
874.7	-15.607
874.9	-16.214
875.1	-16.818
875.4	-16.06
875.6	-16.848
875.8	-16.825
876	-14.581
876.2	-13.646
876.4	-15.328
876.6	-14.54
876.9	-13.684
877.1	-13.088
877.3	-14.359
877.5	-15.358
877.7	-13.872
877.9	-12.56
878.1	-13.865
878.4	-15.249
878.6	-14.728
878.8	-14.234
879	-14.299
879.2	-13.005
879.4	-13.801
879.6	-12.835
879.9	-13.608
880.1	-13.688
880.3	-14.502
880.5	-13.348
880.7	-12.458
880.9	-11.33
881.1	-10.365
881.3	-9.105
881.6	-9.064
881.8	-10.233
882	-9.78
882.2	-8.415
882.4	-8.687
882.6	-10.569
882.8	-11.372
883.1	-9.814
883.3	-10.75
883.5	-12.76
883.7	-11.493
883.9	-11.609
884.1	-11.195
884.3	-13.099
884.6	-14.887
884.8	-11.975
885	-12.141
885.2	-13.201
885.4	-13.989
885.6	-13.111
885.8	-12.929
886	-11.587
886.3	-13.299
886.5	-13.005
886.7	-14.167
886.9	-12.971
887.1	-14.464
887.3	-15.155
887.5	-15.091
887.8	-14.151
888	-16.011
888.2	-15.158
888.4	-14.265
888.6	-14.14
888.8	-15.162
889	-14.434
889.2	-15.381
889.5	-15.479
889.7	-15.981
889.9	-13.488
890.1	-12.79
890.3	-13.955
890.5	-12.481
890.7	-10.621
890.9	-10.67
891.2	-9.765
891.4	-11.131
891.6	-10.357
891.8	-8.494
892	-9.373
892.2	-9.531
892.4	-11.715
892.6	-12.877
892.9	-12.383
893.1	-12.285
893.3	-11.53
893.5	-12.092
893.7	-11.692
893.9	-11.014
894.1	-12.254
894.3	-13.099
894.6	-11.726
894.8	-11.896
895	-10.84
895.2	-11.413
895.4	-10.938
895.6	-12.665
895.8	-12.315
896	-11.527
896.3	-12.258
896.5	-13.827
896.7	-13.205
896.9	-13.02
897.1	-14.17
897.3	-15.336
897.5	-14.223
897.7	-14.725
898	-13.412
898.2	-14.906
898.4	-16.512
898.6	-14.672
898.8	-14.77
899	-14.136
899.2	-11.994
899.4	-11.014
899.6	-11.142
899.9	-11.391
900.1	-9.486
900.3	-8.837
900.5	-8.698
900.7	-7.608
900.9	-9.207
901.1	-8.894
901.3	-10.478
901.6	-10.512
901.8	-9.611
902	-10.742
902.2	-10.697
902.4	-11.398
902.6	-12.85
902.8	-13.631
903	-14.864
903.2	-15.8
903.5	-16.312
903.7	-17.014
903.9	-17.353
904.1	-18.032
904.3	-17.444
904.5	-19.39
904.7	-18.805
904.9	-18.903
905.1	-19.058
905.4	-17.979
905.6	-17.527
905.8	-18.96
906	-20.065
906.2	-20.257
906.4	-20.589
906.6	-21.962
906.8	-19.952
907	-20.386
907.3	-19.869
907.5	-20.929
907.7	-21.619
907.9	-19.02
908.1	-20.08
908.3	-21.532
908.5	-20.363
908.7	-19.654
908.9	-19.865
909.2	-19.684
909.4	-18.104
909.6	-17.123
909.8	-17.829
910	-19.017
910.2	-17.531
910.4	-18.115
910.6	-16.656
910.8	-17.791
911.1	-15.362
911.3	-13.533
911.5	-13.548
911.7	-13.031
911.9	-13.292
912.1	-12.816
912.3	-13.925
912.5	-12.771
912.7	-12.839
912.9	-11.723
913.2	-11.07
913.4	-13.556
913.6	-12.79
913.8	-13.74
914	-10.968
914.2	-11.413
914.4	-11.681
914.6	-11.824
914.8	-10.753
915.1	-9.939
915.3	-9.705
915.5	-8.358
915.7	-7.668
915.9	-7.291
916.1	-8.064
916.3	-8.121
916.5	-6.688
916.7	-6.031
916.9	-3.946
917.2	-4.757
917.4	-3.022
917.6	-5.36
917.8	-6.978
918	-8.762
918.2	-9.407
918.4	-10.685
918.6	-11.251
918.8	-10.184
919	-11.123
919.2	-9.362
919.5	-9.135
919.7	-11.229
919.9	-11.606
920.1	-12.183
920.3	-12.352
920.5	-12.217
920.7	-11.131
920.9	-12.269
921.1	-12.126
921.3	-13.224
921.6	-15.132
921.8	-15.226
922	-15.8
922.2	-17.802
922.4	-17.81
922.6	-17.904
922.8	-16.324
923	-16.807
923.2	-18.093
923.4	-20.416
923.6	-20.725
923.9	-21.943
924.1	-22.09
924.3	-22.596
924.5	-19.975
924.7	-19.797
924.9	-19.103
925.1	-19.775
925.3	-19.416
925.5	-19.164
925.7	-21.291
925.9	-22.064
926.2	-20.02
926.4	-19.563
926.6	-19.296
926.8	-19.315
927	-20.638
927.2	-20.371
927.4	-20.921
927.6	-20.672
927.8	-19.186
928	-19.959
928.2	-20.42
928.5	-20.141
928.7	-19.088
928.9	-18.787
929.1	-17.844
929.3	-16.939
929.5	-16.373
929.7	-17.131
929.9	-16.188
930.1	-16.81
930.3	-17.7
930.5	-15.339
930.8	-14.182
931	-14.593
931.2	-15.136
931.4	-16.218
931.6	-14.529
931.8	-14.363
932	-14.713
932.2	-15.336
932.4	-16.795
932.6	-18.089
932.8	-19.484
933	-20.834
933.3	-21.015
933.5	-20.948
933.7	-21.415
933.9	-21.019
934.1	-20.853
934.3	-20.819
934.5	-19.069
934.7	-19.413
934.9	-19.492
935.1	-17.795
935.3	-18.353
935.5	-19.42
935.7	-21.11
936	-21.593
936.2	-21.272
936.4	-21.249
936.6	-19.861
936.8	-19.571
937	-21.43
937.2	-23.135
937.4	-23.146
937.6	-24.161
937.8	-23.32
938	-25.462
938.2	-26.435
938.4	-25.089
938.7	-23.399
938.9	-23.071
939.1	-22.743
939.3	-20.748
939.5	-19.692
939.7	-19.526
939.9	-19.575
940.1	-19.137
940.3	-19.069
940.5	-19.899
940.7	-20.533
940.9	-20.586
941.1	-20.412
941.4	-21.076
941.6	-21.276
941.8	-21.804
942	-20.371
942.2	-20.71
942.4	-19.854
942.6	-17.489
942.8	-17.576
943	-18.436
943.2	-17.946
943.4	-18.311
943.6	-17.12
943.8	-17.712
944	-17.278
944.3	-16.799
944.5	-16.06
944.7	-13.842
944.9	-14.242
945.1	-13.808
945.3	-12.933
945.5	-11.402
945.7	-11.764
945.9	-12.918
946.1	-12.401
946.3	-13.39
946.5	-14.642
946.7	-15.008
946.9	-13.797
947.1	-14.314
947.4	-14.302
947.6	-15.302
947.8	-15.26
948	-15.675
948.2	-14.725
948.4	-15.966
948.6	-15.513
948.8	-15.298
949	-16.29
949.2	-15.321
949.4	-15.49
949.6	-16.03
949.8	-15.652
950	-16.188
950.2	-13.537
950.5	-12.081
950.7	-13.043
950.9	-13.178
951.1	-16.052
951.3	-14.913
951.5	-15.739
951.7	-17.976
951.9	-19.122
952.1	-19.537
952.3	-18.609
952.5	-18.304
952.7	-17.123
952.9	-16.286
953.1	-16.211
953.3	-17.172
953.5	-17.625
953.8	-17.44
954	-14.672
954.2	-15.396
954.4	-15.347
954.6	-16.399
954.8	-16.912
955	-16.067
955.2	-15.498
955.4	-16.173
955.6	-17.923
955.8	-16.463
956	-15.517
956.2	-15.045
956.4	-13.771
956.6	-16.384
956.8	-16.463
957	-16.241
957.2	-15.355
957.5	-15.302
957.7	-17.003
957.9	-17.553
958.1	-15.916
958.3	-17.104
958.5	-17.855
958.7	-18.828
958.9	-19.53
959.1	-19.247
959.3	-19.217
959.5	-19.733
959.7	-19.258
959.9	-19.345
960.1	-19.775
960.3	-19.782
960.5	-18.364
960.7	-17.938
960.9	-16.041
961.1	-14.925
961.4	-15.958
961.6	-18.202
961.8	-18.511
962	-18.311
962.2	-17.482
962.4	-19.582
962.6	-19.379
962.8	-21.347
963	-21.479
963.2	-22.649
963.4	-22.637
963.6	-24.274
963.8	-24.018
964	-24.685
964.2	-25.353
964.4	-24.187
964.6	-22.532
964.8	-21.219
965	-20.408
965.2	-21.506
965.5	-21.932
965.7	-20.574
965.9	-20.178
966.1	-20.563
966.3	-18.504
966.5	-15.551
966.7	-18.783
966.9	-18.176
967.1	-19.333
967.3	-21.129
967.5	-19.982
967.7	-20.405
967.9	-19.443
968.1	-17.682
968.3	-15.487
968.5	-16.701
968.7	-14.736
968.9	-13.608
969.1	-12.59
969.3	-10.731
969.5	-10.874
969.7	-9.675
969.9	-7.642
970.2	-7.676
970.4	-6.997
970.6	-6.782
970.8	-7.921
971	-6.88
971.2	-7.269
971.4	-6.88
971.6	-5.628
971.8	-4.998
972	-6.609
972.2	-4.847
972.4	-5.394
972.6	-7.978
972.8	-10.142
973	-8.54
973.2	-8.57
973.4	-8.86
973.6	-9.034
973.8	-10.459
974	-9.332
974.2	-9.671
974.4	-11.557
974.6	-12.979
974.8	-12.239
975	-13.446
975.2	-14.853
975.5	-15.637
975.7	-15.849
975.9	-14.495
976.1	-15.083
976.3	-16.84
976.5	-15.106
976.7	-15.381
976.9	-14.084
977.1	-14.725
977.3	-15.279
977.5	-16.939
977.7	-17.802
977.9	-16.637
978.1	-17.138
978.3	-16.286
978.5	-18.089
978.7	-17.666
978.9	-16.075
979.1	-16.271
979.3	-15.562
979.5	-16.15
979.7	-16.331
979.9	-15.358
980.1	-16.158
980.3	-16.633
980.5	-16.218
980.7	-15.63
980.9	-13.959
981.1	-15.011
981.3	-13.767
981.5	-13.435
981.7	-13.827
981.9	-14.664
982.2	-13.952
982.4	-15.008
982.6	-12.017
982.8	-14.238
983	-14.242
983.2	-14.193
983.4	-13.333
983.6	-14.019
983.8	-11.628
984	-11.349
984.2	-11.063
984.4	-11.01
984.6	-13.167
984.8	-12.979
985	-10.64
985.2	-9.886
985.4	-10.471
985.6	-12.36
985.8	-12.488
986	-10.093
986.2	-9.464
986.4	-9.78
986.6	-8.268
986.8	-9.807
987	-8.528
987.2	-9.637
987.4	-10.274
987.6	-9.558
987.8	-9.629
988	-8.728
988.2	-10.052
988.4	-10.685
988.6	-10.059
988.8	-13.552
989	-11.93
989.2	-12.828
989.4	-12.088
989.6	-12.269
989.8	-12.658
990	-12.85
990.2	-13.273
990.4	-14.585
990.6	-13.484
990.8	-11.817
991	-11.907
991.3	-13.887
991.5	-14.336
991.7	-14.974
991.9	-15.166
992.1	-15.788
992.3	-16.509
992.5	-17.014
992.7	-16.271
992.9	-17.512
993.1	-16.233
993.3	-17.059
993.5	-18.16
993.7	-16.735
993.9	-17.12
994.1	-17.836
994.3	-16.814
994.5	-14.992
994.7	-15.121
994.9	-14.913
995.1	-14.932
995.3	-15.008
995.5	-14.329
995.7	-15.758
995.9	-15.166
996.1	-15.004
996.3	-17.41
996.5	-17.855
996.7	-19.228
996.9	-20.423
997.1	-22.302
997.3	-23.546
997.5	-23.422
997.7	-23.429
997.9	-22.996
998.1	-19.582
998.3	-18.779
998.5	-19.254
998.7	-19.944
998.9	-18.953
999.1	-18.681
999.3	-18.771
999.5	-20.582
999.7	-21.691
999.9	-23.437
1000.1	-24.915
1000.3	-24.338
1000.5	-25.632
1000.7	-25.809
1000.9	-26.582
1001.1	-26.752
1001.3	-24.146
1001.5	-25.805
1001.7	-25.541
1001.9	-25.375
1002.1	-25.458
1002.3	-26.096
1002.5	-25.998
1002.7	-26.175
1002.9	-25.432
1003.1	-25.5
1003.3	-23.818
1003.5	-22.332
1003.7	-22.554
1003.9	-21.653
1004.1	-21.132
1004.3	-22.283
1004.5	-21.664
1004.7	-21.796
1004.9	-22.219
1005.1	-22.17
1005.3	-22.207
1005.5	-22.139
1005.7	-20.073
1005.9	-19.465
1006.1	-17.84
1006.3	-17.067
1006.5	-17.64
1006.7	-16.822
1006.9	-16.369
1007.1	-16.644
1007.3	-17.135
1007.5	-17.376
1007.7	-16.588
1007.9	-18.108
1008.1	-18.813
1008.3	-19.088
1008.5	-17.761
1008.7	-14.163
1008.9	-12.628
1009.1	-11.862
1009.3	-13.201
1009.5	-13.31
1009.7	-14.084
1009.9	-13.442
1010.1	-14.827
1010.3	-13.442
1010.5	-14.525
1010.7	-15.554
1010.9	-16.788
1011.1	-16.569
1011.3	-16.543
1011.5	-16.923
1011.7	-17.764
1011.9	-18.843
1012.1	-16.769
1012.3	-16.516
1012.5	-16.422
1012.7	-16.15
1012.9	-16.735
1013.1	-18.406
1013.3	-16.724
1013.5	-15.807
1013.7	-16.565
1013.9	-17.319
1014.1	-15.803
1014.3	-15.438
1014.5	-16.275
1014.7	-16.659
1014.9	-19.401
1015.1	-18.964
1015.3	-20.276
1015.5	-19.926
1015.7	-20.635
1015.9	-19.699
1016.1	-20.804
1016.3	-19.164
1016.5	-21.619
1016.7	-21.453
1016.9	-21.389
1017.1	-21.66
1017.3	-21.751
1017.5	-22
1017.7	-21.864
1017.9	-21.08
1018.1	-20.016
1018.3	-21.442
1018.5	-23.143
1018.7	-22.011
1018.9	-21.785
1019.1	-22.584
1019.2	-23.656
1019.4	-25.141
1019.6	-25.405
1019.8	-26.371
1020	-25.82
1020.2	-26.446
1020.4	-23.806
1020.6	-23.373
1020.8	-24.915
1021	-22.792
1021.2	-24.519
1021.4	-23.595
1021.6	-21.86
1021.8	-20.921
1022	-21.562
1022.2	-19.926
1022.4	-19.322
1022.6	-19.699
1022.8	-19.53
1023	-20.065
1023.2	-18.572
1023.4	-18.688
1023.6	-19.299
1023.8	-16.064
1024	-16.486
1024.2	-18.877
1024.4	-18.259
1024.6	-17.768
1024.8	-19.88
1025	-19.13
1025.2	-18.892
1025.4	-15.321
1025.6	-15.091
1025.8	-15.241
1026	-14.581
1026.2	-14.253
1026.4	-14.091
1026.6	-15.834
1026.8	-14.502
1027	-13.469
1027.2	-13.918
1027.4	-13.556
1027.6	-13.488
1027.8	-15.306
1028	-16.256
1028.1	-15.185
1028.3	-17.218
1028.5	-18.779
1028.7	-18.085
1028.9	-19.518
1029.1	-19.458
1029.3	-19.846
1029.5	-19.662
1029.7	-19.884
1029.9	-22.743
1030.1	-19.745
1030.3	-18.847
1030.5	-17.987
1030.7	-17.5
1030.9	-16.071
1031.1	-17.187
1031.3	-17.146
1031.5	-17.874
1031.7	-17.395
1031.9	-16.746
1032.1	-16.697
1032.3	-17.912
1032.5	-19.058
1032.7	-21.325
1032.9	-23.067
1033.1	-23.324
1033.3	-23.569
1033.5	-23.456
1033.7	-24.342
1033.9	-23.546
1034.1	-23.195
1034.3	-21.283
1034.4	-21.223
1034.6	-21.815
1034.8	-20.872
1035	-19.1
1035.2	-19.352
1035.4	-19.096
1035.6	-19.609
1035.8	-19.45
1036	-19.877
1036.2	-22.98
1036.4	-22.611
1036.6	-24.417
1036.8	-25.436
1037	-25.692
1037.2	-25.685
1037.4	-26.605
1037.6	-28.038
1037.8	-28.272
1038	-30.229
1038.2	-29.927
1038.4	-29.667
1038.6	-27.495
1038.8	-26.043
1039	-24.436
1039.2	-25.315
1039.4	-26.032
1039.5	-25.096
1039.7	-24.561
1039.9	-23.535
1040.1	-23.305
1040.3	-24.613
1040.5	-23.116
1040.7	-23.131
1040.9	-23.923
1041.1	-25.956
1041.3	-25.285
1041.5	-26.013
1041.7	-25.417
1041.9	-25.583
1042.1	-25.998
1042.3	-25.76
1042.5	-25.486
1042.7	-24.987
1042.9	-24.561
1043.1	-24.999
1043.3	-25.009
1043.5	-23.63
1043.7	-23.013
1043.8	-23.222
1044	-21.425
1044.2	-21.973
1044.4	-20.524
1044.6	-21.895
1044.8	-21.62
1045	-23.484
1045.2	-21.87
