Data from mesure_FLMT021711__18__40.txt Node

Date: Mon Nov 04 11:52:48 CET 2024
User: jordan.swietlicki
Spectrometer: FLMT02171
Trigger mode: 0
Integration Time (sec): 1.000000E-1
Scans to average: 15
Electric dark correction enabled: true
Nonlinearity correction enabled: false
Boxcar width: 15
XAxis mode: Wavelengths
Number of Pixels in Spectrum: 3648
>>>>>Begin Spectral Data<<<<<
194.7	-38.896
194.9	-38.245
195.2	-34.607
195.5	-33.905
195.7	-29.761
196	-29.646
196.2	-28.501
196.5	-29.702
196.8	-28.152
197	-26.53
197.3	-26.131
197.6	-23.517
197.8	-23.066
198.1	-21.633
198.4	-19.938
198.6	-18.729
198.9	-14.264
199.2	-9.791
199.4	-4.103
199.7	2.467
200	2.169
200.2	0.713
200.5	-0.313
200.7	-0.298
201	0.547
201.3	1.113
201.5	2.327
201.8	2.123
202.1	3.474
202.3	3.179
202.6	2.674
202.9	2.101
203.1	3.662
203.4	3.002
203.7	3.33
203.9	1.569
204.2	2.346
204.5	3.006
204.7	4.824
205	5.736
205.2	6.272
205.5	7.139
205.8	6.664
206	9.191
206.3	9.877
206.6	10.99
206.8	11.194
207.1	11.586
207.4	13.268
207.6	15.237
207.9	15.531
208.2	15.199
208.4	16.195
208.7	16.647
208.9	18.593
209.2	17.971
209.5	18.08
209.7	17.594
210	17.854
210.3	17.801
210.5	19.947
210.8	20.43
211.1	20.645
211.3	20.916
211.6	19.551
211.9	19.732
212.1	20.728
212.4	21.124
212.6	21.116
212.9	21.041
213.2	19.468
213.4	19.182
213.7	19.325
214	19.159
214.2	16.858
214.5	16.602
214.8	15.191
215	14.471
215.3	17.009
215.5	17.466
215.8	15.565
216.1	14.022
216.3	15.78
216.6	14.871
216.9	15.003
217.1	14.554
217.4	14.924
217.7	15.116
217.9	12.906
218.2	12.367
218.5	11.62
218.7	9.432
219	9.81
219.2	11.439
219.5	11.296
219.8	12.438
220	13.094
220.3	13.856
220.6	14.286
220.8	12.94
221.1	12.898
221.4	12.299
221.6	12.665
221.9	13.479
222.1	13.151
222.4	12.853
222.7	13.939
222.9	11.944
223.2	11.631
223.5	9.587
223.7	9.998
224	9.685
224.2	10.232
224.5	10.058
224.8	10.032
225	9.61
225.3	9.383
225.6	8.399
225.8	9.312
226.1	11.25
226.4	10.636
226.6	9.327
226.9	10.937
227.1	11.016
227.4	10.202
227.7	9.074
227.9	8.787
228.2	7.98
228.5	5.567
228.7	5.061
229	5.22
229.3	5.748
229.5	9.512
229.8	8.75
230	7.894
230.3	6.276
230.6	7.075
230.8	5.412
231.1	7.833
231.4	7.946
231.6	12.155
231.9	11.854
232.1	12.291
232.4	11.141
232.7	10.458
232.9	11.024
233.2	10.583
233.5	10.243
233.7	11.348
234	10.504
234.2	9.889
234.5	11.118
234.8	13.758
235	13.208
235.3	12.959
235.6	13.328
235.8	14.117
236.1	15.87
236.4	15.9
236.6	17.786
236.9	19.329
237.1	21.064
237.4	21.286
237.7	16.904
237.9	16.474
238.2	15.489
238.5	17.522
238.7	16.858
239	16.934
239.2	15.459
239.5	17.024
239.8	13.649
240	12.476
240.3	14.818
240.6	15.203
240.8	14.166
241.1	13.909
241.3	14.377
241.6	14.479
241.9	12.846
242.1	14
242.4	14.765
242.7	14.524
242.9	14.192
243.2	13.366
243.4	14.117
243.7	13.113
244	11.454
244.2	11.36
244.5	11.307
244.8	11.937
245	10.715
245.3	11.631
245.5	10.451
245.8	11.484
246.1	10.941
246.3	9.874
246.6	9.655
246.9	10.873
247.1	11.386
247.4	12.284
247.6	12.883
247.9	12.574
248.2	13.17
248.4	9.319
248.7	9.266
248.9	10.277
249.2	9.926
249.5	10.53
249.7	10.111
250	9.432
250.3	8.542
250.5	7.641
250.8	8.919
251	7.573
251.3	9.157
251.6	10.462
251.8	10.76
252.1	11.333
252.4	8.904
252.6	8.358
252.9	6.483
253.1	5.57
253.4	3.519
253.7	5.231
253.9	6.559
254.2	7.577
254.4	8.708
254.7	9.349
255	9.455
255.2	10.745
255.5	10.696
255.8	9.576
256	9.893
256.3	10.051
256.5	10.522
256.8	10.609
257.1	11.035
257.3	10.7
257.6	10.843
257.8	11.793
258.1	13.536
258.4	14.305
258.6	14.89
258.9	14.596
259.2	13.468
259.4	12.529
259.7	9.957
259.9	9.134
260.2	10.9
260.5	12.325
260.7	12.732
261	13.6
261.2	13.377
261.5	14.181
261.8	12.815
262	13.928
262.3	13.438
262.6	13.072
262.8	11.62
263.1	11.16
263.3	8.735
263.6	8.754
263.9	8.063
264.1	7.369
264.4	8.097
264.6	9.055
264.9	8.38
265.2	8.501
265.4	8.365
265.7	8.655
266	7.188
266.2	8.094
266.5	7.535
266.7	5.544
267	2.599
267.3	3.47
267.5	5.574
267.8	7.038
268	7.66
268.3	5.982
268.6	4.903
268.8	7.377
269.1	5.68
269.3	5.446
269.6	4.198
269.9	3.688
270.1	0.92
270.4	1.814
270.6	3.191
270.9	3.564
271.2	2.742
271.4	1.218
271.7	-0.905
272	-1.192
272.2	0.041
272.5	-1.048
272.7	-0.864
273	0.46
273.3	0.46
273.5	1.852
273.8	0.471
274	2.165
274.3	0.362
274.6	0.132
274.8	3.598
275.1	6.223
275.3	7.494
275.6	5.921
275.9	4.714
276.1	5.408
276.4	5.272
276.6	6.015
276.9	4.654
277.2	6.702
277.4	6.272
277.7	8.882
277.9	9.972
278.2	11.382
278.5	11.869
278.7	11.605
279	10.424
279.2	10.583
279.5	11.718
279.8	13.653
280	14.079
280.3	12.038
280.5	11.02
280.8	11.737
281.1	10.236
281.3	11.058
281.6	10.221
281.9	11.582
282.1	10.832
282.4	10.307
282.6	10.553
282.9	9.38
283.2	8.184
283.4	7.177
283.7	6.89
283.9	6.823
284.2	7.181
284.5	6.996
284.7	5.393
285	4.032
285.2	2.225
285.5	4.096
285.8	2.146
286	5.42
286.3	6.608
286.5	5.239
286.8	5.552
287.1	7.015
287.3	7.196
287.6	7.132
287.8	7.105
288.1	5.699
288.4	6.114
288.6	9.123
288.9	8.49
289.1	8.95
289.4	6.547
289.7	7.343
289.9	5.638
290.2	6.796
290.4	9.251
290.7	7.781
290.9	5.857
291.2	6.826
291.5	8.87
291.7	9.87
292	11.654
292.2	10.228
292.5	11.514
292.8	13.758
293	13.189
293.3	14.569
293.5	16.3
293.8	16.47
294.1	14.603
294.3	12.155
294.6	13.162
294.8	13.57
295.1	13.573
295.4	14.294
295.6	14.316
295.9	14.347
296.1	14.218
296.4	14.98
296.7	11.937
296.9	12.329
297.2	10.466
297.4	11.45
297.7	10.138
298	11.435
298.2	10.764
298.5	10.681
298.7	12.766
299	15.056
299.3	14.286
299.5	11.51
299.8	11.461
300	11.092
300.3	11.13
300.5	11.458
300.8	9.987
301.1	12.657
301.3	12.755
301.6	9.576
301.8	7.596
302.1	5.718
302.4	6.498
302.6	5.925
302.9	5.751
303.1	4.756
303.4	5.472
303.7	7.23
303.9	5.944
304.2	6.336
304.4	6.083
304.7	7.792
304.9	5.371
305.2	8.859
305.5	9.644
305.7	9.546
306	10.021
306.2	10.36
306.5	10.179
306.8	9.515
307	7.694
307.3	8.331
307.5	8.878
307.8	6.857
308.1	5.084
308.3	6.129
308.6	4.952
308.8	5.997
309.1	5.929
309.3	6.917
309.6	6.921
309.9	9.063
310.1	8.727
310.4	9.821
310.6	10.017
310.9	8.591
311.2	9.002
311.4	8.173
311.7	7.799
311.9	8.614
312.2	9.21
312.5	8.554
312.7	8.761
313	9.361
313.2	8.633
313.5	8.101
313.7	7.72
314	6.264
314.3	5.374
314.5	6.012
314.8	7.109
315	7.954
315.3	6.476
315.6	5.503
315.8	5.265
316.1	5.631
316.3	4.454
316.6	5.122
316.8	4.25
317.1	3.383
317.4	1.229
317.6	1.369
317.9	1.015
318.1	1.162
318.4	0.909
318.6	0.694
318.9	0.358
319.2	0.411
319.4	-0.29
319.7	-0.106
319.9	-0.064
320.2	0.041
320.5	1.26
320.7	0.686
321	0.969
321.2	0.015
321.5	1.686
321.7	2.459
322	3.907
322.3	3.025
322.5	2.308
322.8	0.928
323	1.124
323.3	2.7
323.5	4.164
323.8	5.612
324.1	6.329
324.3	7.298
324.6	6.083
324.8	8.139
325.1	7.041
325.4	8.233
325.6	9.391
325.9	9.24
326.1	10.568
326.4	9.485
326.6	8.388
326.9	9.874
327.2	9.478
327.4	9.855
327.7	9.15
327.9	10.3
328.2	11.269
328.4	10.138
328.7	12.468
329	12.981
329.2	12.748
329.5	10.605
329.7	10.877
330	10.911
330.2	12.608
330.5	13.343
330.8	12.861
331	13.532
331.3	12.182
331.5	12.14
331.8	10.262
332	10.262
332.3	8.214
332.6	8.946
332.8	7.392
333.1	8.595
333.3	9.248
333.6	9.911
333.8	10.345
334.1	9.504
334.4	9.568
334.6	9.376
334.9	8.742
335.1	9.119
335.4	8.29
335.6	8.844
335.9	6.212
336.2	3.937
336.4	5.148
336.7	2.719
336.9	3.334
337.2	3.745
337.4	4.643
337.7	4.024
338	1.143
338.2	1.173
338.5	-0.275
338.7	0.343
339	0.694
339.2	2.61
339.5	1.576
339.8	3.032
340	3.428
340.3	4.794
340.5	5.318
340.8	7.698
341	7.256
341.3	5.487
341.6	4.733
341.8	4.699
342.1	3.409
342.3	3.447
342.6	5.816
342.8	6.826
343.1	6.864
343.4	6.672
343.6	5.491
343.9	7.95
344.1	9.579
344.4	8.689
344.6	8.135
344.9	7.969
345.1	7.713
345.4	7.452
345.7	7.871
345.9	10.021
346.2	9.248
346.4	8.705
346.7	7.796
346.9	7.962
347.2	6.396
347.5	7.701
347.7	7.562
348	5.902
348.2	6.54
348.5	6.351
348.7	8.29
349	8.52
349.2	10.379
349.5	10.454
349.8	10.481
350	10.915
350.3	11.28
350.5	10.541
350.8	10.662
351	10.7
351.3	12.054
351.6	11.601
351.8	10.077
352.1	9.787
352.3	10.183
352.6	10.473
352.8	9.745
353.1	10.021
353.3	9.625
353.6	8.723
353.9	8.599
354.1	8.105
354.4	9.41
354.6	11.333
354.9	9.934
355.1	11.201
355.4	10.99
355.6	11.36
355.9	12.51
356.2	13.027
356.4	13.702
356.7	9.421
356.9	9.538
357.2	9.719
357.4	9.636
357.7	9.131
358	12.174
358.2	11.582
358.5	11.28
358.7	9.945
359	9.998
359.2	10.36
359.5	10.345
359.7	12.955
360	12.642
360.3	13.747
360.5	13.604
360.8	13.86
361	15.173
361.3	14.301
361.5	14.961
361.8	15.169
362	16.576
362.3	15.776
362.6	15.904
362.8	17.341
363.1	17.775
363.3	18.427
363.6	19.63
363.8	20.766
364.1	18.488
364.3	18.816
364.6	20.117
364.8	20.969
365.1	20.132
365.4	22.787
365.6	23.447
365.9	22.025
366.1	23.134
366.4	22.798
366.6	24.303
366.9	26.019
367.1	26.219
367.4	29.021
367.7	28.584
367.9	29.5
368.2	28.78
368.4	28.275
368.7	29.176
368.9	29.504
369.2	28.976
369.4	29.753
369.7	30.85
370	30.277
370.2	30.941
370.5	30.504
370.7	30.417
371	31.56
371.2	31.526
371.5	32.208
371.7	31.929
372	33.83
372.2	33.687
372.5	34.181
372.8	33.751
373	32.355
373.3	29.289
373.5	30.979
373.8	30.443
374	30.262
374.3	32.646
374.5	32.419
374.8	33.045
375	32.778
375.3	31.563
375.6	30.892
375.8	31.556
376.1	33.061
376.3	35.41
376.6	35.007
376.8	33.54
377.1	37.93
377.3	36.915
377.6	35.999
377.8	36.462
378.1	38.005
378.4	38.442
378.6	38.39
378.9	35.667
379.1	36.745
379.4	35.704
379.6	35.203
379.9	33.883
380.1	34.215
380.4	33.905
380.6	34.958
380.9	36.006
381.2	37.22
381.4	36.824
381.7	38.344
381.9	39.495
382.2	39.332
382.4	39.491
382.7	37.752
382.9	37.971
383.2	39.102
383.4	39.725
383.7	41.656
383.9	40.634
384.2	39.959
384.5	42.059
384.7	43.643
385	41.403
385.2	43.481
385.5	44.982
385.7	45.57
386	46.6
386.2	47.735
386.5	47.132
386.7	49.417
387	49.417
387.2	50.99
387.5	54.524
387.8	57.79
388	59.227
388.3	60.924
388.5	62.278
388.8	64.496
389	65.982
389.3	65.62
389.5	64.877
389.8	66.86
390	65.989
390.3	66.679
390.5	67.369
390.8	70.583
391.1	71.729
391.3	73.057
391.6	73.472
391.8	75.188
392.1	76.651
392.3	79.144
392.6	80.513
392.8	82.342
393.1	86.11
393.3	88.244
393.6	89.783
393.8	90.519
394.1	94.339
394.4	99.155
394.6	102.452
394.9	105.774
395.1	107.905
395.4	108.079
395.6	111.665
395.9	113.687
396.1	115.674
396.4	118.499
396.6	121.407
396.9	123.198
397.1	126.909
397.4	130.926
397.6	133.415
397.9	138.118
398.2	143.345
398.4	149.489
398.7	151.895
398.9	154.871
399.2	158.986
399.4	161.852
399.7	164.971
399.9	167.698
400.2	168.893
400.4	172.039
400.7	176.24
400.9	177.183
401.2	180.268
401.4	184.956
401.7	187.69
401.9	188.022
402.2	186.721
402.5	187.679
402.7	187.502
403	189.463
403.2	192.182
403.5	192.623
403.7	194.709
404	197.76
404.2	198.48
404.5	201.456
404.7	205.295
405	208.554
405.2	211.345
405.5	213.268
405.7	214.939
406	215.335
406.2	216.681
406.5	218.895
406.7	219.536
407	220.174
407.3	221.09
407.5	222.531
407.8	224.258
408	224.971
408.3	226.559
408.5	228.705
408.8	228.731
409	230.941
409.3	231.586
409.5	234.128
409.8	235.614
410	239.069
410.3	241.894
410.5	246.34
410.8	246.812
411	247.513
411.3	250.021
411.5	251.76
411.8	252.088
412	253.317
412.3	255.26
412.6	257.017
412.8	257.228
413.1	257.274
413.3	257.956
413.6	258.816
413.8	260.245
414.1	259.45
414.3	259.533
414.6	261.271
414.8	260.487
415.1	261.275
415.3	262.542
415.6	265.277
415.8	266.638
416.1	268.196
416.3	266.502
416.6	270.376
416.8	269.508
417.1	272.201
417.3	270.719
417.6	272.382
417.8	274.328
418.1	275.079
418.4	275.184
418.6	277.715
418.9	279.355
419.1	279.831
419.4	279.684
419.6	280.385
419.9	281.471
420.1	280.272
420.4	279.997
420.6	280.325
420.9	279.054
421.1	279.48
421.4	280.355
421.6	279.574
421.9	280.751
422.1	279.25
422.4	279.321
422.6	281.543
422.9	280.713
423.1	280.453
423.4	281.026
423.6	281.592
423.9	282.365
424.1	284.262
424.4	281.268
424.6	280.589
424.9	278.733
425.1	278.978
425.4	276.738
425.6	277.134
425.9	274.453
426.2	273.77
426.4	272.069
426.7	270.41
426.9	267.758
427.2	265.314
427.4	263.628
427.7	262.693
427.9	260.838
428.2	260.555
428.4	261.724
428.7	263.594
428.9	264.609
429.2	265.869
429.4	267.03
429.7	267.223
429.9	266.974
430.2	267.166
430.4	267.411
430.7	270.591
430.9	271.405
431.2	271.07
431.4	271.922
431.7	272.242
431.9	271.948
432.2	275.867
432.4	277.594
432.7	278.956
432.9	283.176
433.2	287.26
433.4	287.117
433.7	291.039
433.9	292.307
434.2	293.913
434.4	295.769
434.7	298.876
434.9	303.055
435.2	304.383
435.4	305.59
435.7	308.618
435.9	309.848
436.2	311.443
436.4	312.97
436.7	312.721
436.9	312.046
437.2	312.691
437.4	314.792
437.7	319.555
437.9	322.75
438.2	323.591
438.4	324.881
438.7	326.846
438.9	328.192
439.2	328.754
439.4	327.951
439.7	330.56
439.9	331.209
440.2	331.737
440.5	334.264
440.7	333.947
441	335.026
441.2	337.624
441.5	337.247
441.7	338.745
442	340.781
442.2	343.474
442.5	343.761
442.7	345.518
443	348.795
443.2	351.986
443.5	352.59
443.7	354.189
444	353.649
444.2	355.822
444.5	358.68
444.7	361.913
445	362.969
445.2	363.334
445.5	363.542
445.7	364.783
446	366.812
446.2	368.275
446.5	370.84
446.7	372.933
447	376.04
447.2	379.695
447.5	382.678
447.7	383.387
448	385.164
448.2	386.303
448.5	388.26
448.7	390.251
449	390.508
449.2	392.706
449.5	394.438
449.7	395.124
450	395.81
450.2	399.439
450.5	401.045
450.7	403.847
451	404.119
451.2	407.117
451.5	409.059
451.7	412.691
452	415.697
452.2	417.504
452.5	419.291
452.7	423.067
452.9	426.657
453.2	429.101
453.4	432.518
453.7	436.369
453.9	436.614
454.2	437.394
454.4	438.345
454.7	440.932
454.9	442.339
455.2	442.18
455.4	444.666
455.7	449.957
455.9	450.199
456.2	452.797
456.4	454.411
456.7	457.055
456.9	459.235
457.2	461.419
457.4	465.975
457.7	470.825
457.9	473.016
458.2	475.927
458.4	477.885
458.7	482.373
458.9	484.119
459.2	486.748
459.4	491.428
459.7	494.849
459.9	496.965
460.2	499.91
460.4	501.29
460.7	505.228
460.9	508.437
461.2	509.705
461.4	510.73
461.7	516.636
461.9	519.688
462.2	522.271
462.4	523.391
462.7	527.204
462.9	530.014
463.2	531.96
463.4	531.296
463.7	536.108
463.9	537.84
464.2	539.986
464.4	543.233
464.7	547.268
464.9	548.871
465.2	551.639
465.4	552.982
465.7	558.043
465.9	561.358
466.2	563.783
466.4	565.669
466.6	568.965
466.9	569.214
467.1	568.177
467.4	568.95
467.6	571.888
467.9	572.631
468.1	575.822
468.4	576.833
468.6	578.752
468.9	580.34
469.1	583.052
469.4	584.308
469.6	586.884
469.9	589.399
470.1	593.883
470.4	595.203
470.6	600.306
470.9	605.209
471.1	610.727
471.4	612.133
471.6	616.067
471.9	621.219
472.1	623.606
472.4	626.431
472.6	631.504
472.9	633.8
473.1	637.847
473.4	639.937
473.6	643.599
473.9	647.464
474.1	651.658
474.3	655.253
474.6	663.071
474.8	668.162
475.1	672.733
475.3	676.467
475.6	682.139
475.8	688.079
476.1	693.699
476.3	697.331
476.6	703.323
476.8	708.385
477.1	714.996
477.3	720.521
477.6	728.034
477.8	732.718
478.1	739.164
478.3	744.217
478.6	750.689
478.8	754.2
479.1	759.45
479.3	763.674
479.6	768.856
479.8	775.155
480.1	781.506
480.3	786.846
480.5	792.364
480.8	795.347
481	801.117
481.3	805.247
481.5	809.758
481.8	812.417
482	816.844
482.3	817.38
482.5	817.448
482.8	818.36
483	820.744
483.3	822.777
483.5	825.673
483.8	827.001
484	830.448
484.3	831.926
484.5	836.256
484.8	839.861
485	842.626
485.2	843.342
485.5	847.891
485.7	850.863
486	854.427
486.2	856.874
486.5	863.256
486.7	868.491
487	874.287
487.2	876.825
487.5	880.774
487.7	885.828
488	888.789
488.2	891.647
488.5	895.969
488.7	897.089
489	899.639
489.2	903.312
489.5	907.744
489.7	912.73
489.9	917.112
490.2	923.426
490.4	931.327
490.7	937.882
490.9	943.991
491.2	948.113
491.4	954.287
491.7	961.019
491.9	966.563
492.2	971.002
492.4	974.17
492.7	979.236
492.9	985.613
493.2	988.528
493.4	990.92
493.6	992.326
493.9	995.23
494.1	995.63
494.4	997.131
494.6	997.455
494.9	998.345
495.1	998.662
495.4	998.745
495.6	1000.077
495.9	1004.018
496.1	1006.349
496.4	1009.464
496.6	1012.979
496.9	1017.735
497.1	1019.126
497.3	1019.65
497.6	1020.88
497.8	1023.818
498.1	1021.921
498.3	1021.687
498.6	1019.775
498.8	1019.175
499.1	1018.481
499.3	1017.731
499.6	1019.722
499.8	1018.889
500.1	1015.728
500.3	1014.604
500.6	1011.202
500.8	1009.664
501	1011.236
501.3	1009.528
501.5	1007.242
501.8	1007.661
502	1009.543
502.3	1007.736
502.5	1007.936
502.8	1009.713
503	1011.512
503.3	1011.119
503.5	1008.472
503.8	1009.249
504	1007.906
504.2	1007.559
504.5	1004.904
504.7	1006.473
505	1005.986
505.2	1008.238
505.5	1010.007
505.7	1011.583
506	1011.776
506.2	1015.095
506.5	1015.355
506.7	1014.883
506.9	1014.129
507.2	1014.152
507.4	1013.179
507.7	1017.135
507.9	1018.342
508.2	1022.272
508.4	1022.234
508.7	1022.698
508.9	1023.72
509.2	1025.805
509.4	1026.122
509.7	1024.689
509.9	1026.454
510.1	1024.863
510.4	1022.747
510.6	1019.009
510.9	1019.443
511.1	1020.216
511.4	1019.386
511.6	1019.126
511.9	1016.633
512.1	1013.971
512.4	1013.088
512.6	1011.908
512.8	1007.152
513.1	1000.978
513.3	997.508
513.6	993.179
513.8	989.426
514.1	985.704
514.3	981.559
514.6	977.942
514.8	971.429
515.1	968.709
515.3	963.886
515.5	960.642
515.8	956.829
516	955.905
516.3	952.982
516.5	950.591
516.8	948.008
517	945.006
517.3	942.434
517.5	941.076
517.7	941.54
518	941.306
518.2	940.186
518.5	938.877
518.7	936.98
519	935.015
519.2	934.035
519.5	932.99
519.7	932.428
520	931.576
520.2	931.44
520.4	934.427
520.7	938.575
520.9	941.777
521.2	944.847
521.4	946.22
521.7	950.599
521.9	953.673
522.2	955.415
522.4	959.99
522.6	960.857
522.9	960.484
523.1	959.537
523.4	958.73
523.6	955.287
523.9	954.781
524.1	954.612
524.4	952.432
524.6	950.95
524.8	949.509
525.1	948.732
525.3	947.993
525.6	948.623
525.8	949.886
526.1	950.263
526.3	951.496
526.6	950.471
526.8	949.596
527	952.583
527.3	952.866
527.5	952.285
527.8	951.84
528	949.814
528.3	949.848
528.5	948.438
528.8	946.115
529	942.524
529.2	941.804
529.5	939.243
529.7	939.775
530	937.576
530.2	937.255
530.5	934.623
530.7	934.37
531	933.62
531.2	934.951
531.4	933.45
531.7	934.664
531.9	935.362
532.2	936.426
532.4	937.214
532.7	937.565
532.9	935.807
533.2	933.718
533.4	931.93
533.6	928.215
533.9	924.919
534.1	923.203
534.4	921.721
534.6	919.892
534.9	916.758
535.1	912.952
535.3	910.388
535.6	909.633
535.8	904.862
536.1	903.143
536.3	901.619
536.6	901.668
536.8	897.749
537.1	896.305
537.3	891.802
537.5	889.35
537.8	886.91
538	887.076
538.3	883.803
538.5	881.664
538.8	879.292
539	875.472
539.2	872.575
539.5	869.577
539.7	867.495
540	864.225
540.2	862.075
540.5	860.235
540.7	858.112
540.9	855.219
541.2	854.027
541.4	855.347
541.7	856.358
541.9	854.842
542.2	849.626
542.4	847.585
542.7	846.518
542.9	845.39
543.1	842.494
543.4	843.037
543.6	840.457
543.9	839.175
544.1	836.644
544.4	834.31
544.6	831.553
544.8	830.957
545.1	829.445
545.3	827.306
545.6	826.541
545.8	826.616
546.1	823.999
546.3	822.69
546.5	822.954
546.8	821.758
547	820.917
547.3	818.934
547.5	816.524
547.8	813.254
548	810.701
548.2	809.064
548.5	805.356
548.7	804.523
549	798.93
549.2	795.83
549.5	792.168
549.7	790.655
549.9	789.083
550.2	785.798
550.4	782.999
550.7	780.955
550.9	775.513
551.2	773.638
551.4	770.361
551.6	768.543
551.9	767.17
552.1	765.432
552.4	763.395
552.6	758.839
552.9	757.587
553.1	754.449
553.3	751.542
553.6	749.252
553.8	745.013
554.1	743.625
554.3	739.292
554.5	734.453
554.8	729.611
555	725.356
555.3	720.578
555.5	717.825
555.8	712.02
556	709.188
556.2	703.146
556.5	700.6
556.7	695.769
557	694.694
557.2	691.259
557.5	689.275
557.7	688.211
557.9	683.799
558.2	680.883
558.4	680.001
558.7	674.498
558.9	672.85
559.2	670.104
559.4	666.616
559.6	664.398
559.9	662.162
560.1	658.82
560.4	656.539
560.6	653.672
560.8	650.723
561.1	648.185
561.3	647.898
561.6	643.327
561.8	640.838
562.1	638.085
562.3	636.346
562.5	635.026
562.8	635.022
563	631.511
563.3	631.364
563.5	629.671
563.7	628.124
564	625.247
564.2	622.924
564.5	620.291
564.7	619.725
565	617.263
565.2	612.876
565.4	611.794
565.7	611.27
565.9	607.472
566.2	606.574
566.4	603.248
566.6	601.928
566.9	601.106
567.1	600.038
567.4	595.55
567.6	595.064
567.9	591.556
568.1	589.773
568.3	587.148
568.6	585.432
568.8	583.267
569.1	580.517
569.3	577.787
569.5	576.048
569.8	574.547
570	572.545
570.3	570.459
570.5	570.229
570.7	567.615
571	566.242
571.2	565.33
571.5	561.736
571.7	559.476
572	557.142
572.2	552.827
572.4	551.375
572.7	550.553
572.9	549.441
573.2	544.888
573.4	541.777
573.6	539.314
573.9	536.738
574.1	532.495
574.4	527.023
574.6	523.972
574.8	521.253
575.1	518.451
575.3	515.271
575.6	511.281
575.8	508.215
576	504.202
576.3	500.012
576.5	500.249
576.8	499.05
577	498.073
577.3	495.226
577.5	492.001
577.7	488.298
578	485.616
578.2	482.98
578.5	478.982
578.7	476.014
578.9	475.433
579.2	472.122
579.4	469.022
579.7	467.053
579.9	462.633
580.1	459.782
580.4	457.421
580.6	456.108
580.9	455.441
581.1	452.695
581.3	450.685
581.6	446.487
581.8	445.213
582.1	442.686
582.3	440.679
582.5	438.628
582.8	437.1
583	436.508
583.3	435.92
583.5	432.835
583.7	431.583
584	426.898
584.2	423.802
584.5	419.654
584.7	417.244
584.9	415.486
585.2	412.326
585.4	408.071
585.7	402.965
585.9	398.582
586.1	394.355
586.4	389.497
586.6	386.8
586.9	382.116
587.1	377.809
587.3	373.83
587.6	369.829
587.8	364.669
588.1	359.838
588.3	354.585
588.5	351.047
588.8	346.947
589	345.081
589.3	340.449
589.5	336.568
589.7	335.007
590	331.292
590.2	328.897
590.5	323.889
590.7	318.982
590.9	317.292
591.2	313.31
591.4	310.681
591.7	310.402
591.9	309.833
592.1	306.533
592.4	304.466
592.6	301.962
592.9	300.811
593.1	300.472
593.3	299.755
593.6	299.318
593.8	298.85
594.1	298.33
594.3	298.586
594.5	298.201
594.8	297.824
595	298.235
595.3	297.409
595.5	299.22
595.7	300.517
596	300.683
596.2	301.102
596.4	303.327
596.7	304.119
596.9	303.387
597.2	300.442
597.4	300.902
597.6	299.242
597.9	298.688
598.1	299.57
598.4	300.611
598.6	300.438
598.8	299.687
599.1	295.923
599.3	295.177
599.6	294.784
599.8	295.245
600	296.632
600.3	296.591
600.5	295.773
600.7	297.017
601	297.247
601.2	296.685
601.5	296.221
601.7	295.656
601.9	294.766
602.2	295.207
602.4	293.053
602.7	292.02
602.9	289.802
603.1	289.591
603.4	288.128
603.6	286.544
603.9	283.636
604.1	282.448
604.3	282.32
604.6	282.222
604.8	280.694
605	280.838
605.3	279.684
605.5	277.598
605.8	274.215
606	274.6
606.2	273.679
606.5	273.031
606.7	269.61
607	268.128
607.2	264.104
607.4	259.91
607.7	257.703
607.9	255.267
608.1	254.494
608.4	251.926
608.6	250.304
608.9	248.154
609.1	245.82
609.3	244.006
609.6	241.765
609.8	241.362
610.1	239.981
610.3	235.493
610.5	231.647
610.8	229.55
611	227.645
611.2	225.94
611.5	224.624
611.7	221.437
612	220.596
612.2	218.148
612.4	215.663
612.7	214.468
612.9	214.483
613.1	212.457
613.4	209.874
613.6	207.822
613.9	206.736
614.1	205.224
614.3	204.145
614.6	204.526
614.8	205.084
615	203.44
615.3	202.584
615.5	200.856
615.8	198.424
616	197.873
616.2	196.127
616.5	196.346
616.7	196.282
616.9	194.411
617.2	192.936
617.4	193.283
617.7	194.015
617.9	192.982
618.1	191.824
618.4	190.813
618.6	188.927
618.8	189.501
619.1	190.477
619.3	189.022
619.6	187.536
619.8	186.672
620	186.004
620.3	183.975
620.5	184.217
620.7	182.218
621	180.487
621.2	178.778
621.5	177.771
621.7	177.685
621.9	176.036
622.2	174.328
622.4	175.116
622.6	175.648
622.9	172.812
623.1	174.694
623.4	172.065
623.6	171.703
623.8	170.3
624.1	168.131
624.3	167.803
624.5	167.818
624.8	166.974
625	166.038
625.3	166.238
625.5	166.917
625.7	167.894
626	167.317
626.2	165.126
626.4	162.459
626.7	161.513
626.9	162.599
627.1	161.965
627.4	161.173
627.6	160.524
627.9	160.027
628.1	159.827
628.3	160.091
628.6	159.955
628.8	161.675
629	160.177
629.3	160.66
629.5	161.35
629.8	158.235
630	157.673
630.2	157.043
630.5	155.531
630.7	155.704
630.9	154.78
631.2	153.747
631.4	153.902
631.6	153.178
631.9	150.915
632.1	148.867
632.4	148.69
632.6	147.751
632.8	146.838
633.1	146.159
633.3	147.37
633.5	146.253
633.8	146.133
634	147.381
634.2	147.468
634.5	146.397
634.7	146.589
635	145.688
635.2	145.141
635.4	146.28
635.7	148.448
635.9	147.562
636.1	146.664
636.4	146.683
636.6	144.318
636.8	143.07
637.1	144.443
637.3	144.051
637.5	144.537
637.8	143.176
638	143.293
638.3	142.399
638.5	143.274
638.7	141.629
639	143.115
639.2	144.39
639.4	143.708
639.7	143.413
639.9	142.154
640.1	144.914
640.4	145.763
640.6	143.904
640.9	145.563
641.1	146.498
641.3	144.786
641.6	144.1
641.8	143.934
642	142.474
642.3	141.927
642.5	141.765
642.7	138.922
643	138.058
643.2	136.485
643.4	134.32
643.7	133.645
643.9	134.29
644.1	134.143
644.4	135.109
644.6	134.539
644.9	135.06
645.1	135.165
645.3	134.784
645.6	134.886
645.8	132.567
646	134.219
646.3	132.208
646.5	131.051
646.7	132.536
647	132.355
647.2	132.638
647.4	129.482
647.7	126.702
647.9	127.686
648.1	126.653
648.4	125.205
648.6	125.401
648.9	124.699
649.1	125.786
649.3	127.29
649.6	127.898
649.8	128.245
650	128.301
650.3	125.608
650.5	127.222
650.7	127.279
651	125.812
651.2	126.419
651.4	124.481
651.7	121.35
651.9	120.649
652.1	120.306
652.4	120.411
652.6	120.634
652.8	120.494
653.1	120.343
653.3	118.989
653.5	118.427
653.8	116.704
654	116.5
654.3	115.655
654.5	115.72
654.7	113.317
655	112.585
655.2	111.356
655.4	108.871
655.7	109.708
655.9	110.877
656.1	113
656.4	110.869
656.6	108.603
656.8	113.004
657.1	113.822
657.3	113.751
657.5	112.974
657.8	113.196
658	113.747
658.2	115.618
658.5	114.056
658.7	114.63
658.9	115.041
659.2	113.649
659.4	111.247
659.6	111.435
659.9	110.926
660.1	110.247
660.3	110.296
660.6	109.142
660.8	109.157
661	109.602
661.3	107.86
661.5	106.672
661.8	105.62
662	105.755
662.2	106.05
662.5	104.782
662.7	106.408
662.9	104.892
663.2	104.126
663.4	99.321
663.6	98.948
663.9	100.253
664.1	94.886
664.3	94.151
664.6	93.868
664.8	93.102
665	92.22
665.3	92.736
665.5	91.405
665.7	93.77
666	94.23
666.2	92.755
666.4	93.819
666.7	94.185
666.9	92.861
667.1	92.551
667.4	93.943
667.6	93.773
667.8	94.185
668.1	93.626
668.3	94.241
668.5	95.142
668.8	95.154
669	94.946
669.2	97.605
669.5	98.503
669.7	99.087
669.9	97.3
670.2	97.651
670.4	96.693
670.6	98.707
670.9	99.54
671.1	97.681
671.3	97.892
671.6	95.867
671.8	97.311
672	98.624
672.3	99.144
672.5	99.046
672.7	97.937
673	97.7
673.2	96.889
673.4	100.645
673.7	99.717
673.9	100.181
674.1	99.872
674.4	100.03
674.6	98.88
674.8	98.096
675.1	97.82
675.3	97.62
675.5	98.001
675.8	97.051
676	97.556
676.2	99.664
676.5	98.292
676.7	98.865
676.9	98.616
677.2	99.348
677.4	98.295
677.6	98.103
677.9	97.394
678.1	96.621
678.3	97.839
678.5	96.753
678.8	96.123
679	95.58
679.2	95.557
679.5	95.852
679.7	94.501
679.9	96.319
680.2	94.294
680.4	96.753
680.6	93.234
680.9	95.056
681.1	94.169
681.3	96.644
681.6	95.821
681.8	96.5
682	96.127
682.3	97.613
682.5	98.333
682.7	96.858
683	96.444
683.2	95.508
683.4	93.653
683.7	92.144
683.9	92.423
684.1	92.51
684.4	93.724
684.6	93.351
684.8	91.578
685.1	91.435
685.3	90.632
685.5	91.084
685.7	90.749
686	91.458
686.2	90.888
686.4	90.153
686.7	88.112
686.9	88.516
687.1	86.491
687.4	86.702
687.6	83.922
687.8	84.76
688.1	83.002
688.3	82.855
688.5	80.649
688.8	82.233
689	80.815
689.2	83.368
689.5	81.271
689.7	80.747
689.9	79.491
690.2	78.556
690.4	79.446
690.6	78.661
690.8	79.253
691.1	77.379
691.3	75.912
691.5	73.619
691.8	73.125
692	75.712
692.2	77.13
692.5	76.832
692.7	75.874
692.9	76.029
693.2	74.256
693.4	73.457
693.6	73.302
693.9	74.117
694.1	73.615
694.3	74.98
694.5	74.173
694.8	73.679
695	73.279
695.2	72.683
695.5	73.042
695.7	73.234
695.9	73.238
696.2	72.238
696.4	70.364
696.6	70.617
696.9	70.126
697.1	73.449
697.3	75.418
697.6	76.074
697.8	76.134
698	76.96
698.2	76.398
698.5	77.432
698.7	79.197
698.9	80.856
699.2	79.812
699.4	77.522
699.6	78.337
699.9	76.549
700.1	76.323
700.3	78.36
700.6	79.242
700.8	80.234
701	79.778
701.2	79.227
701.5	79.295
701.7	80.117
701.9	79.563
702.2	81.079
702.4	82.365
702.6	82.493
702.9	81.215
703.1	79.551
703.3	81.878
703.6	82.61
703.8	82.742
704	83.274
704.2	80.494
704.5	80.076
704.7	79.729
704.9	80.404
705.2	79.676
705.4	80.445
705.6	80.377
705.9	80.223
706.1	79.985
706.3	79.035
706.5	78.518
706.8	78.823
707	79.136
707.2	80.132
707.5	79.419
707.7	78.299
707.9	78.031
708.2	77.549
708.4	77.296
708.6	76.334
708.8	75.007
709.1	75.708
709.3	73.6
709.5	71.744
709.8	71.205
710	73.536
710.2	72.925
710.5	72.306
710.7	70.771
710.9	70.779
711.1	69.772
711.4	69.862
711.6	68.942
711.8	68.874
712.1	67.913
712.3	67.403
712.5	67.215
712.8	68.588
713	66.185
713.2	64.824
713.4	65.699
713.7	65.518
713.9	64.152
714.1	65.288
714.4	63.545
714.6	62.059
714.8	60.962
715.1	59.382
715.3	58.929
715.5	56.987
715.7	55.61
716	54.645
716.2	53.095
716.4	52.616
716.7	51.771
716.9	53.306
717.1	50.27
717.3	50.628
717.6	49.044
717.8	48.648
718	47.011
718.3	45.438
718.5	45.763
718.7	46.129
718.9	44.865
719.2	44.198
719.4	44.25
719.6	41.973
719.9	39.272
720.1	40.075
720.3	38.914
720.6	35.663
720.8	35.029
721	34.863
721.2	33.694
721.5	33.317
721.7	32.947
721.9	33.279
722.2	31.816
722.4	31.714
722.6	34.614
722.8	35.437
723.1	37.484
723.3	39.412
723.5	38.986
723.8	40.302
724	37.337
724.2	36.474
724.4	37.111
724.7	38.925
724.9	39.374
725.1	40.577
725.4	42.885
725.6	40.29
725.8	39.608
726	39.057
726.3	37.715
726.5	37.164
726.7	37.677
727	36.236
727.2	35.233
727.4	36.391
727.6	37.933
727.9	38.642
728.1	38.326
728.3	37.896
728.6	38.518
728.8	39.415
729	38.559
729.2	41.38
729.5	40.95
729.7	39.34
729.9	39.415
730.2	38.359
730.4	37.926
730.6	37.862
730.8	35.976
731.1	37.696
731.3	38.246
731.5	36.432
731.7	33.468
732	33.988
732.2	33.883
732.4	33.366
732.7	35.323
732.9	34.283
733.1	33.826
733.3	34.697
733.6	34.746
733.8	34.958
734	38.703
734.3	39.642
734.5	41.844
734.7	42.455
734.9	41.279
735.2	43.851
735.4	44.175
735.6	44.239
735.9	44.646
736.1	45.691
736.3	45.386
736.5	45.525
736.8	45.88
737	44.665
737.2	44.028
737.4	43.021
737.7	44.126
737.9	47.52
738.1	46.449
738.4	47.151
738.6	48.082
738.8	49.361
739	47.241
739.3	46.902
739.5	45.386
739.7	44.854
739.9	48.146
740.2	49.911
740.4	49.904
740.6	49.515
740.9	50.36
741.1	49.723
741.3	49.142
741.5	46.513
741.8	46.698
742	48.663
742.2	47.962
742.4	48.463
742.7	48.987
742.9	49.361
743.1	48.045
743.4	46.894
743.6	46.415
743.8	46.555
744	48.335
744.3	49.003
744.5	48.26
744.7	48.49
744.9	48.139
745.2	50.251
745.4	48.95
745.6	48.799
745.8	48.912
746.1	50.93
746.3	53.121
746.5	55.863
746.8	54.709
747	53.973
747.2	54.648
747.4	56.3
747.7	56.293
747.9	56.063
748.1	54.177
748.3	55.308
748.6	56.085
748.8	54.139
749	53.14
749.2	52.348
749.5	51.842
749.7	51.876
749.9	50.964
750.2	53.494
750.4	53.147
750.6	54.154
750.8	52.91
751.1	52.216
751.3	52.091
751.5	54.547
751.7	55.795
752	54.837
752.2	54.392
752.4	54.927
752.6	54.976
752.9	54.464
753.1	53.234
753.3	52.525
753.5	51.126
753.8	53.117
754	51.597
754.2	50.82
754.4	49.742
754.7	49.696
754.9	49.493
755.1	49.444
755.4	48.739
755.6	49.331
755.8	50.73
756	49.621
756.3	47.705
756.5	46.645
756.7	44.379
756.9	43.877
757.2	41.475
757.4	41.328
757.6	38.382
757.8	37.092
758.1	37.138
758.3	37.39
758.5	34.754
758.7	30.907
759	28.392
759.2	27.694
759.4	27.188
759.6	26.943
759.9	25.563
760.1	26.261
760.3	23.368
760.5	22.504
760.8	20.837
761	20.147
761.2	19.419
761.4	19.6
761.7	20.057
761.9	20.619
762.1	20.453
762.3	19.502
762.6	17.383
762.8	16.119
763	16.055
763.2	19.359
763.5	19.28
763.7	19.664
763.9	20.124
764.1	20.313
764.4	19.928
764.6	22.433
764.8	24.707
765	24.137
765.3	21.852
765.5	22.286
765.7	23.474
765.9	25.201
766.2	25.389
766.4	25.653
766.6	24.303
766.8	25.352
767.1	24.545
767.3	25.672
767.5	26.43
767.7	27.694
768	27.358
768.2	28.143
768.4	27.162
768.6	25.416
768.9	23.425
769.1	23.821
769.3	25.465
769.5	25.616
769.8	27.407
770	28.791
770.2	26.823
770.4	28.595
770.7	28.701
770.9	28.942
771.1	28.78
771.3	29.855
771.6	28.897
771.8	28.852
772	27.735
772.2	28.048
772.5	28.746
772.7	28.916
772.9	27.664
773.1	26.438
773.4	28.267
773.6	30.062
773.8	28.674
774	28.814
774.3	28.886
774.5	27.43
774.7	26.102
774.9	26.189
775.2	25.827
775.4	27.158
775.6	27.434
775.8	28.588
776	29.738
776.3	28.754
776.5	28.874
776.7	28.109
776.9	28.474
777.2	28.305
777.4	27.351
777.6	26.932
777.8	26.657
778.1	27.501
778.3	26.672
778.5	26.581
778.7	26.472
779	26.525
779.2	27.939
779.4	27.154
779.6	26.894
779.9	26.939
780.1	26.939
780.3	24.914
780.5	22.312
780.7	23.21
781	23.707
781.2	24.122
781.4	23.662
781.6	24.288
781.9	25.751
782.1	24.013
782.3	23.228
782.5	23.568
782.8	22.172
783	22.425
783.2	21.901
783.4	22.086
783.7	19.827
783.9	17.85
784.1	16.685
784.3	15.323
784.5	15.644
784.8	13.536
785	11.756
785.2	10.949
785.4	11.16
785.7	10.164
785.9	11.239
786.1	10.922
786.3	11.231
786.6	11.676
786.8	12.031
787	12.57
787.2	13.37
787.4	14.433
787.7	15.131
787.9	15.618
788.1	15.772
788.3	16.53
788.6	16.01
788.8	13.072
789	12.378
789.2	11.971
789.5	10.933
789.7	10.368
789.9	9.225
790.1	7.788
790.3	7.166
790.6	8.418
790.8	9.123
791	9.553
791.2	11.974
791.5	13.004
791.7	13.487
791.9	14.207
792.1	14.35
792.3	13.347
792.6	12.962
792.8	11.073
793	12.201
793.2	12.91
793.5	12.589
793.7	13.155
793.9	12.329
794.1	11.703
794.3	11.235
794.6	11.288
794.8	9.851
795	9.768
795.2	8.927
795.5	9.293
795.7	10.801
795.9	12.51
796.1	10.783
796.3	10.964
796.6	13.415
796.8	13.26
797	15.851
797.2	17.021
797.5	17.771
797.7	18.28
797.9	16.934
798.1	16.594
798.3	24.356
798.6	25.114
798.8	27.396
799	28.803
799.2	28.637
799.5	29.44
799.7	31.352
799.9	29.678
800.1	27.773
800.3	27.547
800.6	27.026
800.8	26.642
801	26.985
801.2	27.083
801.5	26.762
801.7	26.238
801.9	25.45
802.1	27.079
802.3	27.29
802.6	26.272
802.8	25.016
803	26.936
803.2	27.769
803.4	26.155
803.7	27.162
803.9	26.057
804.1	25.691
804.3	25.54
804.6	25.631
804.8	27.268
805	25.148
805.2	16.289
805.4	16.349
805.7	13.683
805.9	12.246
806.1	13.468
806.3	12.921
806.5	11.148
806.8	9.696
807	11.314
807.2	12.329
807.4	12.657
807.6	10.828
807.9	9.881
808.1	10.526
808.3	11.661
808.5	14.528
808.8	16.579
809	14.984
809.2	16.059
809.4	17.013
809.6	16.904
809.9	15.086
810.1	13.702
810.3	14.637
810.5	13.668
810.7	12.37
811	11.005
811.2	10.04
811.4	10.255
811.6	9.579
811.8	11.073
812.1	11.575
812.3	11.839
812.5	12.321
812.7	12.163
812.9	12.201
813.2	13.739
813.4	14.037
813.6	15.482
813.8	14.365
814	12.853
814.3	12.269
814.5	14.992
814.7	14.927
814.9	12.853
815.2	11.944
815.4	10.168
815.6	8.512
815.8	7.954
816	6.932
816.3	7.471
816.5	7.219
816.7	8.32
816.9	8.999
817.1	8.723
817.4	7.698
817.6	8.192
817.8	8.878
818	8.938
818.2	7.916
818.5	7.271
818.7	5.627
818.9	3.613
819.1	4.035
819.3	3.741
819.6	5.137
819.8	6.317
820	4.42
820.2	4.164
820.4	4.047
820.7	3.915
820.9	4.865
821.1	5.386
821.3	4.318
821.5	5.129
821.8	6.86
822	6.378
822.2	6.785
822.4	6.034
822.6	6.694
822.9	6.34
823.1	4.243
823.3	4.262
823.5	3.281
823.7	4.711
823.9	3.711
824.2	3.213
824.4	3.236
824.6	4.167
824.8	3.002
825	3.093
825.3	2.715
825.5	3.854
825.7	5.816
825.9	4.695
826.1	3.934
826.4	3.515
826.6	1.309
826.8	0.551
827	0.833
827.2	0.751
827.5	1.463
827.7	2.429
827.9	2.342
828.1	3.489
828.3	2.9
828.6	3.387
828.8	3.93
829	2.331
829.2	2.297
829.4	3.79
829.6	3.862
829.9	4.963
830.1	5.306
830.3	5.68
830.5	5.491
830.7	5.797
831	6.476
831.2	6.132
831.4	4.88
831.6	6.264
831.8	6.144
832.1	7.083
832.3	7.513
832.5	7.992
832.7	7.415
832.9	8.444
833.1	8.376
833.4	9.425
833.6	11.642
833.8	12.895
834	13.211
834.2	13.92
834.5	12.265
834.7	10.82
834.9	10.092
835.1	10.273
835.3	9.414
835.5	8.946
835.8	10.549
836	11.578
836.2	9.666
836.4	10.402
836.6	9.93
836.9	8.886
837.1	9.199
837.3	8.923
837.5	8.109
837.7	7.879
837.9	7.181
838.2	8.497
838.4	7.151
838.6	8.546
838.8	8.901
839	7.754
839.3	7.547
839.5	8.969
839.7	9.251
839.9	8.599
840.1	7.735
840.3	8.886
840.6	7.328
840.8	8.486
841	6.838
841.2	8.158
841.4	8.459
841.7	8.829
841.9	8.603
842.1	8.195
842.3	8.493
842.5	8.169
842.7	8.425
843	8.165
843.2	6.129
843.4	7.98
843.6	9.153
843.8	9.745
844	9.033
844.3	9.693
844.5	9.176
844.7	9.229
844.9	8.806
845.1	9.138
845.4	7.509
845.6	7.645
845.8	9.606
846	8.478
846.2	7.215
846.4	7.46
846.7	7.49
846.9	8.161
847.1	6.657
847.3	7.434
847.5	5.925
847.7	6.762
848	4.756
848.2	4.767
848.4	4.646
848.6	4.439
848.8	4.258
849	3.836
849.3	3.647
849.5	3.688
849.7	3.202
849.9	2.889
850.1	0.302
850.3	1.863
850.6	1.509
850.8	0.984
851	-0.106
851.2	0.223
851.4	0.845
851.6	-0.034
851.9	0.373
852.1	1.505
852.3	-0.781
852.5	-2.255
852.7	-1.629
852.9	0.313
853.2	1.097
853.4	0.905
853.6	-0.034
853.8	-1.437
854	-3.04
854.2	-1.429
854.5	-1.222
854.7	-1.271
854.9	-0.385
855.1	-0.041
855.3	0.287
855.5	2.169
855.8	2.157
856	0.471
856.2	-1.422
856.4	0.773
856.6	2.497
856.8	3.315
857.1	4.42
857.3	3.383
857.5	3.225
857.7	5.491
857.9	5.435
858.1	6.781
858.4	5.574
858.6	5.838
858.8	4.586
859	5.076
859.2	4.1
859.4	4.054
859.7	2.885
859.9	1.211
860.1	1.105
860.3	1.867
860.5	2.357
860.7	2.953
860.9	0.483
861.2	1.399
861.4	2.221
861.6	2.572
861.8	2.606
862	3.013
862.2	1.592
862.5	1.622
862.7	2.18
862.9	2.108
863.1	2.866
863.3	2.538
863.5	3.01
863.8	-0.392
864	1.595
864.2	3.692
864.4	2.289
864.6	2.082
864.8	0.973
865	2.142
865.3	2.995
865.5	3.176
865.7	4.763
865.9	6.095
866.1	5.091
866.3	4.812
866.6	6.14
866.8	6.427
867	4.533
867.2	4.597
867.4	5.035
867.6	6.129
867.8	4.586
868.1	4.959
868.3	4.19
868.5	3.424
868.7	1.848
868.9	1.769
869.1	2.236
869.3	3.277
869.6	3.044
869.8	0.849
870	0.913
870.2	0.724
870.4	0.864
870.6	-0.4
870.9	-2.308
871.1	-2.968
871.3	-3.206
871.5	-3.296
871.7	-1.644
871.9	-3.903
872.1	-4.824
872.4	-6.347
872.6	-7.901
872.8	-7.098
873	-7.038
873.2	-7.535
873.4	-6.634
873.6	-5.303
873.9	-4.99
874.1	-5.382
874.3	-5.861
874.5	-6.14
874.7	-7.637
874.9	-7.886
875.1	-8.237
875.4	-7.784
875.6	-8.803
875.8	-9.24
876	-8.177
876.2	-6.841
876.4	-7.863
876.6	-8.203
876.9	-8.037
877.1	-7.094
877.3	-7.452
877.5	-8.686
877.7	-8.309
877.9	-6.966
878.1	-8.987
878.4	-10.59
878.6	-9.659
878.8	-8.75
879	-8.35
879.2	-6.362
879.4	-7.656
879.6	-6.204
879.9	-6.706
880.1	-6.626
880.3	-6.913
880.5	-6.261
880.7	-5.461
880.9	-5.642
881.1	-4.899
881.3	-3.496
881.6	-3.813
881.8	-4.918
882	-4.356
882.2	-2.497
882.4	-2.029
882.6	-4.002
882.8	-4.322
883.1	-3.081
883.3	-3.153
883.5	-3.67
883.7	-2.218
883.9	-2.731
884.1	-1.697
884.3	-2.297
884.6	-3.104
884.8	0.388
885	0.437
885.2	0.158
885.4	-0.305
885.6	0.63
885.8	0.238
886	2.063
886.3	0.275
886.5	-0.14
886.7	-1.214
886.9	-0.223
887.1	-1.539
887.3	-2.67
887.5	-2.18
887.8	-1.701
888	-3.692
888.2	-2.795
888.4	-2.048
888.6	-1.644
888.8	-3.149
889	-3.111
889.2	-2.998
889.5	-4.273
889.7	-4.16
889.9	-2.169
890.1	-2.519
890.3	-4.137
890.5	-3.353
890.7	-2.512
890.9	-2.949
891.2	-2.821
891.4	-4.567
891.6	-3.968
891.8	-3.179
892	-4.028
892.2	-4.794
892.4	-7.69
892.6	-9.093
892.9	-8.837
893.1	-8.207
893.3	-6.77
893.5	-7.407
893.7	-6.683
893.9	-6.461
894.1	-6.668
894.3	-7.173
894.6	-6.298
894.8	-6.408
895	-5.687
895.2	-6.147
895.4	-5.386
895.6	-6.951
895.8	-6.86
896	-5.291
896.3	-6.034
896.5	-8.09
896.7	-7.245
896.9	-6.996
897.1	-6.728
897.3	-7.501
897.5	-6.064
897.7	-6.657
898	-5.582
898.2	-7.253
898.4	-8.652
898.6	-7.4
898.8	-7.747
899	-5.227
899.2	-3.111
899.4	-1.98
899.6	-2.263
899.9	-4.02
900.1	-2.101
900.3	-2.478
900.5	-1.12
900.7	-0.977
900.9	-2.87
901.1	-2.467
901.3	-3.319
901.6	-4.092
901.8	-3.232
902	-4.631
902.2	-5.095
902.4	-6.408
902.6	-7.215
902.8	-8.173
903	-9.146
903.2	-10.56
903.5	-11.914
903.7	-12.966
903.9	-13.03
904.1	-13.973
904.3	-12.551
904.5	-13.392
904.7	-12.129
904.9	-11.16
905.1	-11.077
905.4	-10.349
905.6	-11.292
905.8	-13.309
906	-14.464
906.2	-14.196
906.4	-13.709
906.6	-15.455
906.8	-13.358
907	-14.098
907.3	-14.788
907.5	-14.927
907.7	-15.282
907.9	-13.981
908.1	-14.422
908.3	-16.312
908.5	-14.999
908.7	-13.796
908.9	-13.374
909.2	-14.452
909.4	-12.216
909.6	-11.25
909.8	-12.212
910	-12.227
910.2	-10.828
910.4	-11.171
910.6	-10.164
910.8	-12.204
911.1	-10.847
911.3	-9.681
911.5	-10.56
911.7	-10.579
911.9	-10.405
912.1	-9.466
912.3	-10.402
912.5	-9.142
912.7	-10.04
912.9	-9.727
913.2	-9.678
913.4	-11.616
913.6	-10.405
913.8	-10.006
914	-7.388
914.2	-7.901
914.4	-8.207
914.6	-8.271
914.8	-8.131
915.1	-6.864
915.3	-6.883
915.5	-4.786
915.7	-3.643
915.9	-3.817
916.1	-3.802
916.3	-3.692
916.5	-3.545
916.7	-3.078
916.9	-1.286
917.2	-2.236
917.4	-0
917.6	-2.244
917.8	-3.025
918	-3.945
918.2	-4.035
918.4	-4.907
918.6	-5.005
918.8	-3.809
919	-5.54
919.2	-3.771
919.5	-2.621
919.7	-3.681
919.9	-4.073
920.1	-5.382
920.3	-5.944
920.5	-6.166
920.7	-5.012
920.9	-6.008
921.1	-5.499
921.3	-6.193
921.6	-7.928
921.8	-8.542
922	-10.092
922.2	-12.461
922.4	-13.4
922.6	-14.392
922.8	-11.929
923	-11.612
923.2	-13.144
923.4	-15.35
923.6	-15.259
923.9	-16.244
924.1	-15.391
924.3	-17.368
924.5	-15.388
924.7	-15.614
924.9	-14.43
925.1	-14.486
925.3	-13.358
925.5	-12.57
925.7	-14.803
925.9	-15.919
926.2	-14.494
926.4	-14.486
926.6	-13.306
926.8	-14.158
927	-15.131
927.2	-14.241
927.4	-14.298
927.6	-15.041
927.8	-12.97
928	-13.747
928.2	-13.739
928.5	-13.871
928.7	-12.14
928.9	-11.258
929.1	-10.058
929.3	-9.93
929.5	-9.282
929.7	-9.629
929.9	-8.991
930.1	-9.523
930.3	-9.859
930.5	-8.738
930.8	-5.966
931	-6.427
931.2	-6.709
931.4	-7.253
931.6	-7.064
931.8	-7.377
932	-8.12
932.2	-8.787
932.4	-10.157
932.6	-12.008
932.8	-13.053
933	-15.399
933.3	-14.271
933.5	-14.746
933.7	-15.768
933.9	-15.124
934.1	-13.577
934.3	-14.384
934.5	-13.038
934.7	-12.34
934.9	-12.487
935.1	-11.333
935.3	-11.944
935.5	-12.989
935.7	-14.814
936	-15.127
936.2	-14.524
936.4	-14.547
936.6	-12.861
936.8	-13.332
937	-14.871
937.2	-16.802
937.4	-16.711
937.6	-17.288
937.8	-17.107
938	-19.336
938.2	-20.147
938.4	-18.382
938.7	-17.281
938.9	-17.126
939.1	-16.809
939.3	-14.596
939.5	-12.729
939.7	-13.404
939.9	-13.973
940.1	-14.313
940.3	-14.712
940.5	-15.448
940.7	-15.889
940.9	-15.504
941.1	-16.146
941.4	-16.828
941.6	-17.462
941.8	-18.046
942	-16.692
942.2	-16.515
942.4	-16.213
942.6	-14.279
942.8	-14.098
943	-15.259
943.2	-14.471
943.4	-14.486
943.6	-14.109
943.8	-14.822
944	-14.603
944.3	-15.12
944.5	-14.531
944.7	-13.223
944.9	-13.739
945.1	-11.786
945.3	-11.02
945.5	-9.285
945.7	-9.666
945.9	-11.205
946.1	-10.375
946.3	-10.206
946.5	-10.877
946.7	-10.488
946.9	-9.73
947.1	-9.693
947.4	-10.511
947.6	-11.635
947.8	-10.828
948	-11.567
948.2	-10.172
948.4	-11.235
948.6	-10.768
948.8	-10.809
949	-12.6
949.2	-11.925
949.4	-11.624
949.6	-12.657
949.8	-11.39
950	-11.032
950.2	-8.199
950.5	-7.765
950.7	-8.55
950.9	-7.954
951.1	-10.737
951.3	-9.15
951.5	-10.236
951.7	-11.722
951.9	-12.167
952.1	-13.4
952.3	-12.593
952.5	-12.446
952.7	-11.262
952.9	-10.356
953.1	-11.624
953.3	-12.118
953.5	-12.996
953.8	-12.246
954	-10.16
954.2	-11.446
954.4	-10.832
954.6	-11.989
954.8	-11.963
955	-11.296
955.2	-10.56
955.4	-11.016
955.6	-12.649
955.8	-11.529
956	-10.194
956.2	-10.866
956.4	-10.243
956.6	-12.434
956.8	-12.57
957	-11.782
957.2	-11.107
957.5	-10.043
957.7	-11.578
957.9	-11.688
958.1	-10.19
958.3	-10.979
958.5	-11.288
958.7	-11.869
958.9	-11.944
959.1	-12.404
959.3	-12.533
959.5	-12.714
959.7	-12.517
959.9	-11.937
960.1	-13.159
960.3	-12.676
960.5	-10.764
960.7	-10.315
960.9	-9.251
961.1	-9.195
961.4	-10.296
961.6	-12.25
961.8	-12.906
962	-12.853
962.2	-12.68
962.4	-15.222
962.6	-14.23
962.8	-15.753
963	-16.361
963.2	-16.553
963.4	-16.428
963.6	-17.914
963.8	-18.261
964	-20.419
964.2	-22.546
964.4	-22.221
964.6	-21.965
964.8	-20.547
965	-20.317
965.2	-22.221
965.5	-22.757
965.7	-21.829
965.9	-20.634
966.1	-21.961
966.3	-20.358
966.5	-17.831
966.7	-20.585
966.9	-20.026
967.1	-21.328
967.3	-21.818
967.5	-21.158
967.7	-21.58
967.9	-20.596
968.1	-18.488
968.3	-15.821
968.5	-16.285
968.7	-14.188
968.9	-14.347
969.1	-13.087
969.3	-11.895
969.5	-11.929
969.7	-11.443
969.9	-9.753
970.2	-8.354
970.4	-6.89
970.6	-5.887
970.8	-6.706
971	-4.484
971.2	-4.605
971.4	-4.488
971.6	-2.659
971.8	-2.161
972	-3.568
972.2	-2.546
972.4	-2.482
972.6	-4.141
972.8	-4.914
973	-3.504
973.2	-3.658
973.4	-4.152
973.6	-4.262
973.8	-4.563
974	-3.594
974.2	-4.292
974.4	-6.698
974.6	-8.614
974.8	-8.12
975	-8.512
975.2	-9.055
975.5	-9.27
975.7	-8.554
975.9	-7.558
976.1	-7.701
976.3	-8.38
976.5	-8.373
976.7	-8.795
976.9	-8.248
977.1	-8.584
977.3	-10.138
977.5	-11.891
977.7	-12.144
977.9	-11.224
978.1	-11.461
978.3	-9.874
978.5	-10.877
978.7	-10.077
978.9	-9.549
979.1	-10.949
979.3	-10.436
979.5	-11.492
979.7	-10.941
979.9	-11.062
980.1	-12.367
980.3	-12.91
980.5	-12.423
980.7	-10.432
980.9	-8.184
981.1	-8.976
981.3	-8.218
981.5	-8.629
981.7	-9.881
981.9	-10.688
982.2	-10.613
982.4	-11.262
982.6	-9.466
982.8	-10.598
983	-10.696
983.2	-10.549
983.4	-10.319
983.6	-10.783
983.8	-8.361
984	-8.014
984.2	-7.754
984.4	-7.709
984.6	-10.666
984.8	-10.703
985	-9.591
985.2	-9.274
985.4	-9.018
985.6	-10.877
985.8	-9.991
986	-7.535
986.2	-6.502
986.4	-6.626
986.6	-4.126
986.8	-4.933
987	-4.616
987.2	-5.521
987.4	-6.374
987.6	-6.506
987.8	-6.547
988	-5.548
988.2	-6.479
988.4	-7.124
988.6	-7.245
988.8	-10.504
989	-9.734
989.2	-10.19
989.4	-9.168
989.6	-9.229
989.8	-9.168
990	-8.414
990.2	-9.097
990.4	-9.93
990.6	-8.803
990.8	-5.514
991	-5.129
991.3	-6.042
991.5	-5.563
991.7	-6.351
991.9	-5.574
992.1	-6.747
992.3	-7.339
992.5	-7.509
992.7	-6.566
992.9	-8.972
993.1	-7.535
993.3	-8.708
993.5	-10.575
993.7	-9.757
993.9	-9.602
994.1	-10.123
994.3	-10.021
994.5	-9.308
994.7	-8.867
994.9	-7.762
995.1	-6.77
995.3	-6.585
995.5	-6.634
995.7	-8.011
995.9	-7.004
996.1	-7.241
996.3	-9.949
996.5	-9.383
996.7	-10.454
996.9	-11.409
997.1	-14.332
997.3	-16.085
997.5	-15.806
997.7	-16.308
997.9	-15.927
998.1	-13.264
998.3	-12.653
998.5	-13.555
998.7	-14.022
998.9	-13.193
999.1	-12.676
999.3	-13.083
999.5	-13.038
999.7	-13.822
999.9	-15.384
1000.1	-16.885
1000.3	-16.689
1000.5	-17.684
1000.7	-17.386
1000.9	-17.654
1001.1	-18.239
1001.3	-17.337
1001.5	-18.209
1001.7	-16.757
1001.9	-16.972
1002.1	-17.349
1002.3	-17.575
1002.5	-18.088
1002.7	-18.823
1002.9	-19.359
1003.1	-18.567
1003.3	-17.662
1003.5	-15.044
1003.7	-15.753
1003.9	-14.049
1004.1	-13.215
1004.3	-15.146
1004.5	-14.015
1004.7	-13.215
1004.9	-13.902
1005.1	-14.479
1005.3	-14.377
1005.5	-15.618
1005.7	-14.916
1005.9	-14.878
1006.1	-12.269
1006.3	-11.401
1006.5	-11.631
1006.7	-10.021
1006.9	-10.371
1007.1	-10.579
1007.3	-11.409
1007.5	-10.798
1007.7	-10.537
1007.9	-12.74
1008.1	-12.438
1008.3	-12.574
1008.5	-12.118
1008.7	-8.497
1008.9	-8.15
1009.1	-5.966
1009.3	-7.626
1009.5	-7.011
1009.7	-8.569
1009.9	-8.467
1010.1	-10.636
1010.3	-9.048
1010.5	-9.217
1010.7	-10.832
1010.9	-12.525
1011.1	-12.272
1011.3	-12.005
1011.5	-12.714
1011.7	-12.272
1011.9	-13.03
1012.1	-10.79
1012.3	-11.394
1012.5	-11.371
1012.7	-11.827
1012.9	-12.985
1013.1	-13.913
1013.3	-13.144
1013.5	-12.563
1013.7	-12.872
1013.9	-13.419
1014.1	-12.287
1014.3	-12.616
1014.5	-13.257
1014.7	-13.551
1014.9	-16.621
1015.1	-15.983
1015.3	-17.854
1015.5	-17.997
1015.7	-18.348
1015.9	-17.779
1016.1	-18.835
1016.3	-17.417
1016.5	-20.23
1016.7	-19.94
1016.9	-19.642
1017.1	-20.52
1017.3	-21.113
1017.5	-21.392
1017.7	-21.071
1017.9	-20.57
1018.1	-19.989
1018.3	-21.011
1018.5	-22.12
1018.7	-21.512
1018.9	-20.498
1019.1	-22.203
1019.2	-22.787
1019.4	-23.379
1019.6	-23.689
1019.8	-25.333
1020	-24.767
1020.2	-24.296
1020.4	-21.377
1020.6	-20.762
1020.8	-22.274
1021	-20.566
1021.2	-21.301
1021.4	-20.03
1021.6	-17.926
1021.8	-17.507
1022	-18.05
1022.2	-16.097
1022.4	-15.38
1022.6	-15.38
1022.8	-15.889
1023	-16.157
1023.2	-13.736
1023.4	-13.177
1023.6	-13.306
1023.8	-10.115
1024	-10.666
1024.2	-12.352
1024.4	-12.008
1024.6	-11.906
1024.8	-13.309
1025	-12.657
1025.2	-10.726
1025.4	-8.21
1025.6	-8.06
1025.8	-7.894
1026	-6.593
1026.2	-6.291
1026.4	-6.272
1026.6	-8.904
1026.8	-7.709
1027	-6.321
1027.2	-6.461
1027.4	-6.381
1027.6	-6.163
1027.8	-8.271
1028	-8.946
1028.1	-8.018
1028.3	-9.391
1028.5	-10.677
1028.7	-11.405
1028.9	-12.412
1029.1	-13.072
1029.3	-14.611
1029.5	-14.675
1029.7	-14.648
1029.9	-17.797
1030.1	-15.339
1030.3	-14.78
1030.5	-13.868
1030.7	-12.627
1030.9	-10.873
1031.1	-11.888
1031.3	-13.159
1031.5	-13.932
1031.7	-14.294
1031.9	-14.648
1032.1	-15.395
1032.3	-16.964
1032.5	-17.643
1032.7	-18.899
1032.9	-20.324
1033.1	-20.321
1033.3	-19.668
1033.5	-19.63
1033.7	-20.192
1033.9	-19.778
1034.1	-19.83
1034.3	-17.865
1034.4	-17.945
1034.6	-17.903
1034.8	-15.403
1035	-13.8
1035.2	-13.328
1035.4	-12.05
1035.6	-12.276
1035.8	-12.02
1036	-11.918
1036.2	-14.592
1036.4	-14.724
1036.6	-15.689
1036.8	-17.243
1037	-17.413
1037.2	-18.491
1037.4	-18.495
1037.6	-19.695
1037.8	-19.317
1038	-18.872
1038.2	-17.994
1038.4	-18.16
1038.6	-17.707
1038.8	-16.066
1039	-15.188
1039.2	-16.327
1039.4	-17.865
1039.5	-16.462
1039.7	-16.689
1039.9	-15.124
1040.1	-14.66
1040.3	-17.066
1040.5	-15.893
1040.7	-17.156
1040.9	-18.684
1041.1	-20.619
1041.3	-20.973
1041.5	-22.617
1041.7	-22.169
1041.9	-22.542
1042.1	-22.832
1042.3	-22.282
1042.5	-21.575
1042.7	-21.827
1042.9	-21.533
1043.1	-22.673
1043.3	-21.467
1043.5	-20.643
1043.7	-19.7
1043.8	-20.16
1044	-19.971
1044.2	-20.794
1044.4	-18.864
1044.6	-19.223
1044.8	-19.954
1045	-21.34
1045.2	-19.525
