Data from mesure_FLMT021711__23__45.txt Node

Date: Mon Nov 04 11:53:18 CET 2024
User: jordan.swietlicki
Spectrometer: FLMT02171
Trigger mode: 0
Integration Time (sec): 1.000000E-1
Scans to average: 15
Electric dark correction enabled: true
Nonlinearity correction enabled: false
Boxcar width: 15
XAxis mode: Wavelengths
Number of Pixels in Spectrum: 3648
>>>>>Begin Spectral Data<<<<<
194.7	-41.174
194.9	-39.272
195.2	-35.354
195.5	-35.134
195.7	-31.3
196	-30.832
196.2	-29.535
196.5	-31.67
196.8	-30.359
197	-29.152
197.3	-28.65
197.6	-25.747
197.8	-25.624
198.1	-23.908
198.4	-22.682
198.6	-21.119
198.9	-16.699
199.2	-12.113
199.4	-6.523
199.7	0.356
200	-0.123
200.2	-2.239
200.5	-2.575
200.7	-3.016
201	-2.145
201.3	-1.843
201.5	0.333
201.8	0.092
202.1	0.571
202.3	0.861
202.6	1.657
202.9	0.393
203.1	1.446
203.4	0.08
203.7	0.684
203.9	-0.353
204.2	0.028
204.5	0.657
204.7	3.12
205	3.535
205.2	3.641
205.5	4.855
205.8	4.704
206	7.838
206.3	7.978
206.6	9.094
206.8	8.989
207.1	9.588
207.4	11.21
207.6	12.941
207.9	13.035
208.2	12.99
208.4	14.156
208.7	14.782
208.9	16.69
209.2	16.203
209.5	15.4
209.7	14.487
210	14.348
210.3	14.736
210.5	16.697
210.8	16.611
211.1	17.935
211.3	18.429
211.6	18.172
211.9	18.259
212.1	18.957
212.4	19.537
212.6	19.881
212.9	19.677
213.2	18.342
213.4	18.677
213.7	18.64
214	18.398
214.2	15.336
214.5	14.963
214.8	14.646
215	13.922
215.3	16.166
215.5	16.535
215.8	14.386
216.1	13.895
216.3	15.253
216.6	15.2
216.9	15.178
217.1	15.34
217.4	14.846
217.7	15.042
217.9	13.05
218.2	13.473
218.5	12.854
218.7	10.935
219	11.591
219.2	13.364
219.5	13.092
219.8	13.673
220	13.948
220.3	14.103
220.6	15.068
220.8	13.19
221.1	14.065
221.4	13.778
221.6	14.14
221.9	14.521
222.1	13.956
222.4	14.431
222.7	16.06
222.9	13.582
223.2	12.862
223.5	10.863
223.7	12.051
224	11.678
224.2	11.542
224.5	11.576
224.8	11.621
225	10.822
225.3	9.981
225.6	9.392
225.8	10.837
226.1	12.983
226.4	12.077
226.6	11.093
226.9	12.296
227.1	12.455
227.4	11.172
227.7	9.366
227.9	9.494
228.2	9.803
228.5	8.215
228.7	6.975
229	7.529
229.3	7.967
229.5	10.916
229.8	10.561
230	10.539
230.3	9.083
230.6	9.864
230.8	8.234
231.1	10.248
231.4	10.309
231.6	13.842
231.9	12.605
232.1	13.978
232.4	12.99
232.7	12.432
232.9	12.349
233.2	12.096
233.5	11.976
233.7	13.348
234	12.089
234.2	10.693
234.5	11.949
234.8	14.299
235	13.601
235.3	12.413
235.6	12.243
235.8	13.224
236.1	13.744
236.4	13.243
236.6	15.619
236.9	16.011
237.1	17.614
237.4	16.833
237.7	13.944
237.9	13.288
238.2	11.278
238.5	13.299
238.7	12.447
239	13.032
239.2	11.9
239.5	13.643
239.8	10.727
240	9.739
240.3	11.561
240.6	12.123
240.8	11.448
241.1	11.236
241.3	10.927
241.6	10.26
241.9	8.287
242.1	9.057
242.4	10.384
242.7	9.698
242.9	9.336
243.2	9.558
243.4	10.803
243.7	10.829
244	10.407
244.2	10.603
244.5	9.743
244.8	9.758
245	9.909
245.3	10.641
245.5	9.645
245.8	10.716
246.1	10.916
246.3	11.429
246.6	10.957
246.9	12.643
247.1	12.579
247.4	14.344
247.6	15.698
247.9	15.63
248.2	15.649
248.4	12.304
248.7	12.01
248.9	12.277
249.2	12.021
249.5	12.673
249.7	13.522
250	13.288
250.3	12.055
250.5	11.067
250.8	13.232
251	11.527
251.3	12.01
251.6	13.458
251.8	13.401
252.1	13.13
252.4	10.991
252.6	11.896
252.9	10.128
253.1	9.83
253.4	7.506
253.7	9.124
253.9	10.463
254.2	10.373
254.4	10.448
254.7	10.373
255	10.475
255.2	11.074
255.5	9.641
255.8	8.291
256	8.834
256.3	10.075
256.5	10.444
256.8	10.607
257.1	10.991
257.3	10.825
257.6	10.965
257.8	11.5
258.1	13.277
258.4	14.978
258.6	14.853
258.9	14.257
259.2	13.707
259.4	13.677
259.7	10.456
259.9	8.902
260.2	9.864
260.5	12.44
260.7	11.742
261	11.391
261.2	10.705
261.5	11.063
261.8	9.717
262	10.286
262.3	10.354
262.6	10.033
262.8	9.117
263.1	8.061
263.3	7.231
263.6	7.616
263.9	7.069
264.1	6.345
264.4	7.088
264.6	8.057
264.9	7.148
265.2	7.612
265.4	6.813
265.7	7.612
266	5.904
266.2	7.144
266.5	6.024
266.7	4.47
267	2.098
267.3	3.169
267.5	3.282
267.8	5.617
268	6.337
268.3	6.134
268.6	3.833
268.8	6.269
269.1	5.081
269.3	3.712
269.6	3.309
269.9	3.331
270.1	0.688
270.4	1.434
270.6	2.072
270.9	2.011
271.2	1.691
271.4	-0.613
271.7	-1.964
272	-2.85
272.2	-1.639
272.5	-3.106
272.7	-3.204
273	-2.371
273.3	-1.941
273.5	0.352
273.8	-1.243
274	-0.67
274.3	-2.635
274.6	-2.729
274.8	0.707
275.1	2.717
275.3	4.342
275.6	3.924
275.9	2.324
276.1	2.871
276.4	3.101
276.6	4.335
276.9	2.958
277.2	5.741
277.4	6.164
277.7	9.664
277.9	10.018
278.2	11.184
278.5	12.183
278.7	12.756
279	12.587
279.2	12.458
279.5	14.133
279.8	15.543
280	16.603
280.3	14.514
280.5	13.001
280.8	13.507
281.1	13.047
281.3	13.597
281.6	11.783
281.9	13.722
282.1	13.782
282.4	13.024
282.6	14.495
282.9	13.118
283.2	11.199
283.4	9.158
283.7	9.445
283.9	10.226
284.2	11.874
284.5	10.848
284.7	9.649
285	9.004
285.2	7.103
285.5	9.354
285.8	6.801
286	10.708
286.3	11.172
286.5	8.596
286.8	8.076
287.1	9.385
287.3	9.449
287.6	8.34
287.8	8.347
288.1	6.892
288.4	7.359
288.6	10.712
288.9	10.546
289.1	10.829
289.4	8.095
289.7	9.739
289.9	8.54
290.2	9.852
290.4	12.028
290.7	9.962
290.9	8.272
291.2	9.422
291.5	10.901
291.7	12.077
292	12.847
292.2	10.773
292.5	11.685
292.8	13.133
293	12.832
293.3	13.956
293.5	15.385
293.8	15.517
294.1	13.081
294.3	12.111
294.6	13.145
294.8	13.707
295.1	13.45
295.4	13.428
295.6	14.502
295.9	14.77
296.1	14.276
296.4	14.344
296.7	11.018
296.9	11.161
297.2	9.124
297.4	10.512
297.7	9.03
298	9.777
298.2	8.789
298.5	9.053
298.7	10.463
299	12.575
299.3	12.277
299.5	10.923
299.8	10.207
300	10.275
300.3	11.101
300.5	11.135
300.8	9.705
301.1	11.666
301.3	12.383
301.6	10.056
301.8	8.023
302.1	6.564
302.4	6.409
302.6	6.601
302.9	7.039
303.1	5.734
303.4	6.914
303.7	7.97
303.9	6.334
304.2	7.152
304.4	7.469
304.7	8.902
304.9	7.073
305.2	10.78
305.5	10.546
305.7	10.527
306	10.263
306.2	10.569
306.5	10.06
306.8	9.256
307	6.703
307.3	7.39
307.5	7.484
307.8	6.024
308.1	4.025
308.3	4.297
308.6	3.516
308.8	4.667
309.1	4.289
309.3	4.606
309.6	3.248
309.9	4.998
310.1	5.557
310.4	7.163
310.6	7.118
310.9	5.666
311.2	6.232
311.4	5.417
311.7	4.938
311.9	5.711
312.2	6.02
312.5	5.293
312.7	5.707
313	6.081
313.2	5.462
313.5	5.063
313.7	4.225
314	3.776
314.3	2.879
314.5	3.516
314.8	4.233
315	6.394
315.3	4.957
315.6	3.584
315.8	3.267
316.1	4.323
316.3	3.448
316.6	3.897
316.8	3
317.1	2.607
317.4	-0.199
317.6	0.129
317.9	-0.534
318.1	-1.311
318.4	-1.624
318.6	-1.862
318.9	-1.405
319.2	-1.096
319.4	-2.005
319.7	-2.808
319.9	-2.718
320.2	-2.269
320.5	-1.119
320.7	-1.243
321	-1.447
321.2	-2.737
321.5	-0.908
321.7	0.288
322	1.284
322.3	1.393
322.5	1.061
322.8	-0.334
323	-1.515
323.3	0.08
323.5	1.499
323.8	2.841
324.1	2.494
324.3	4.218
324.6	3.181
324.8	4.519
325.1	2.687
325.4	4.753
325.6	5.922
325.9	5.922
326.1	7.363
326.4	6.19
326.6	5.462
326.9	6.183
327.2	5.549
327.4	6.616
327.7	7.122
327.9	9.294
328.2	9.268
328.4	8.672
328.7	11.025
329	12.062
329.2	12.153
329.5	10.542
329.7	10.969
330	10.739
330.2	11.979
330.5	12.028
330.8	12.243
331	13.869
331.3	12.16
331.5	11.896
331.8	10.282
332	10.61
332.3	8.163
332.6	9.585
332.8	8.713
333.1	10.946
333.3	11.123
333.6	11.893
333.8	13.175
334.1	12.368
334.4	12.044
334.6	12.202
334.9	10.505
335.1	10.999
335.4	9.573
335.6	9.856
335.9	6.726
336.2	5.624
336.4	5.519
336.7	2.811
336.9	3.792
337.2	3.607
337.4	3.754
337.7	2.932
338	0.446
338.2	0.427
338.5	-0.885
338.7	-0.036
339	-0.217
339.2	1.891
339.5	0.948
339.8	1.487
340	1.495
340.3	2.837
340.5	3.109
340.8	5.142
341	4.674
341.3	2.762
341.6	2.585
341.8	2.366
342.1	1.419
342.3	2.121
342.6	3.863
342.8	5.662
343.1	5.779
343.4	6.571
343.6	5.711
343.9	7.129
344.1	7.65
344.4	7.823
344.6	7.654
344.9	6.767
345.1	6.696
345.4	6.473
345.7	6.349
345.9	8.679
346.2	7.408
346.4	6.779
346.7	5.919
346.9	5.794
347.2	3.697
347.5	5.138
347.7	5.251
348	3.995
348.2	3.671
348.5	3.113
348.7	5.855
349	5.523
349.2	7.691
349.5	8.087
349.8	7.672
350	7.929
350.3	7.593
350.5	7.016
350.8	6.733
351	6.198
351.3	6.922
351.6	6.156
351.8	5.281
352.1	5.485
352.3	5.153
352.6	5.643
352.8	5.278
353.1	5.828
353.3	5.764
353.6	5.24
353.9	4.093
354.1	4.229
354.4	6.326
354.6	8.016
354.9	7.363
355.1	9.023
355.4	8.321
355.6	9.886
355.9	10.03
356.2	11.014
356.4	11.108
356.7	6.692
356.9	6.582
357.2	6.492
357.4	5.617
357.7	4.946
358	7.242
358.2	6.963
358.5	7.02
358.7	5.964
359	6.601
359.2	6.737
359.5	7.552
359.7	9.471
360	9.06
360.3	11.157
360.5	10.678
360.8	10.444
361	11.199
361.3	10.565
361.5	11.455
361.8	11.617
362	12.613
362.3	11.666
362.6	10.859
362.8	12.817
363.1	13.069
363.3	13.858
363.6	13.688
363.8	15.823
364.1	13.88
364.3	14.216
364.6	14.114
364.8	15.295
365.1	14.45
365.4	16.984
365.6	17.81
365.9	16.912
366.1	18.383
366.4	18.236
366.6	19.255
366.9	20.397
367.1	20.586
367.4	22.815
367.7	22.928
367.9	23.445
368.2	22.981
368.4	22.027
368.7	22.886
368.9	23.599
369.2	22.943
369.4	23.135
369.7	25.67
370	25.097
370.2	25.07
370.5	25.598
370.7	24.667
371	25.824
371.2	25.817
371.5	26.994
371.7	26.322
372	27.371
372.2	27.077
372.5	29.569
372.8	28.578
373	27.54
373.3	24.074
373.5	26.175
373.8	24.923
374	24.074
374.3	25.112
374.5	25.881
374.8	26.684
375	26.643
375.3	25.892
375.6	24.927
375.8	26.413
376.1	26.088
376.3	28.4
376.6	28.574
376.8	26.288
377.1	29.128
377.3	28.604
377.6	26.59
377.8	27.442
378.1	28.894
378.4	28.453
378.6	28.253
378.9	25.56
379.1	26.541
379.4	25.413
379.6	24.923
379.9	23.362
380.1	23.098
380.4	21.778
380.6	22.472
380.9	23.305
381.2	24.063
381.4	22.619
381.7	24.493
381.9	25.515
382.2	25.236
382.4	24.459
382.7	23.177
382.9	23.166
383.2	23.716
383.4	23.727
383.7	24.821
383.9	23.754
384.2	22.702
384.5	23.701
384.7	24.874
385	23.795
385.2	25.206
385.5	25.281
385.7	24.938
386	25.345
386.2	25.964
386.5	24.995
386.7	26.198
387	25.108
387.2	26.058
387.5	27.921
387.8	30.203
388	32.53
388.3	33.861
388.5	34.521
388.8	36.068
389	36.909
389.3	36.098
389.5	35.159
389.8	35.89
390	34.506
390.3	34.529
390.5	33.711
390.8	36.294
391.1	35.649
391.3	36.038
391.6	34.989
391.8	37.109
392.1	36.995
392.3	37.505
392.6	38.579
392.8	39.971
393.1	43
393.3	45.391
393.6	46.36
393.8	46.205
394.1	48.513
394.4	50.735
394.6	52.289
394.9	53.926
395.1	54.457
395.4	53.118
395.6	54.393
395.9	52.67
396.1	51.768
396.4	52.326
396.6	52.632
396.9	52.692
397.1	53.624
397.4	54.736
397.6	53.978
397.9	55.476
398.2	57.606
398.4	60.484
398.7	59.496
398.9	59.153
399.2	60.556
399.4	60.85
399.7	59.854
399.9	59.462
400.2	58.817
400.4	59.187
400.7	59.685
400.9	57.395
401.2	57.629
401.4	58.15
401.7	57.418
401.9	55.939
402.2	53.33
402.5	53.258
402.7	50.863
403	49.913
403.2	51.576
403.5	51.485
403.7	52.413
404	53.137
404.2	53.02
404.5	54.785
404.7	57.293
405	59.654
405.2	60.759
405.5	61.8
405.7	63.282
406	63.365
406.2	63.501
406.5	64.135
406.7	65.176
407	64.188
407.3	64.976
407.5	65.64
407.8	67.375
408	66.609
408.3	67.239
408.5	67.329
408.8	66.454
409	66.458
409.3	66.141
409.5	68.084
409.8	67.544
410	70.554
410.3	70.799
410.5	75.14
410.8	74.359
411	74.212
411.3	75.513
411.5	76.309
411.8	76.596
412	76.215
412.3	75.642
412.6	75.408
412.8	73.631
413.1	72.741
413.3	73.45
413.6	72.621
413.8	72.443
414.1	71.448
414.3	71.474
414.6	71.58
414.8	71.029
415.1	70.075
415.3	70.384
415.6	72.059
415.8	72.715
416.1	72.67
416.3	71.391
416.6	73.496
416.8	72.289
417.1	74.25
417.3	71.946
417.6	73.386
417.8	73.601
418.1	73.812
418.4	72.817
418.6	75.653
418.9	76.098
419.1	75.43
419.4	75.223
419.6	75.102
419.9	75.777
420.1	75.434
420.4	74.665
420.6	74.838
420.9	73.375
421.1	72.704
421.4	73.711
421.6	72.738
421.9	72.734
422.1	70.81
422.4	70.848
422.6	72.127
422.9	71.135
423.1	70.976
423.4	70.912
423.6	71.399
423.9	72.545
424.1	74.382
424.4	73.152
424.6	72.553
424.9	71.259
425.1	71.259
425.4	69.811
425.6	70.859
425.9	69.645
426.2	69.362
426.4	68.151
426.7	68.272
426.9	67.273
427.2	65.726
427.4	64.953
427.7	64.942
427.9	63.207
428.2	62.898
428.4	63.656
428.7	64.953
428.9	65.753
429.2	65.843
429.4	66.175
429.7	65.519
429.9	63.976
430.2	63.958
430.4	63.995
430.7	66.741
430.9	66.722
431.2	65.677
431.4	66.085
431.7	65.07
431.9	63.588
432.2	64.893
432.4	65.149
432.7	64.776
432.9	67.329
433.2	69.396
433.4	68.106
433.7	70.629
433.9	70.893
434.2	70.72
434.4	69.596
434.7	70.686
434.9	72.692
435.2	72.428
435.4	72.07
435.7	72.888
435.9	72.858
436.2	73.398
436.4	73.284
436.7	72.164
436.9	70.829
437.2	70.196
437.4	71.757
437.7	75.174
437.9	76.022
438.2	75.329
438.4	75.189
438.7	75.989
438.9	74.989
439.2	72.696
439.4	71.218
439.7	72.251
439.9	71.425
440.2	72.545
440.5	74.099
440.7	73.179
441	72.734
441.2	73.19
441.5	71.674
441.7	71.025
442	71.361
442.2	72.474
442.5	71.353
442.7	71.648
443	71.968
443.2	72.164
443.5	71.255
443.7	71.135
444	69.6
444.2	69.822
444.5	71.236
444.7	72.183
445	72.968
445.2	72.971
445.5	71.255
445.7	71.267
446	71.531
446.2	70.561
446.5	70.648
446.7	72.311
447	73.963
447.2	74.28
447.5	75.049
447.7	74.299
448	72.968
448.2	72.458
448.5	72.066
448.7	72.651
449	70.935
449.2	71.127
449.5	71.236
449.7	70.128
450	69.174
450.2	71.044
450.5	70.022
450.7	72.089
451	71.802
451.2	73.179
451.5	73.258
451.7	74.985
452	77.806
452.2	77.471
452.5	77.029
452.7	77.599
452.9	77.029
453.2	77.599
453.4	79.013
453.7	80.103
453.9	79.609
454.2	79.27
454.4	77.806
454.7	79.379
454.9	80.013
455.2	79.126
455.4	80.296
455.7	83.203
455.9	82.015
456.2	82.917
456.4	83.113
456.7	84.742
456.9	83.893
457.2	83.712
457.4	85.346
457.7	87.571
457.9	87.341
458.2	87.661
458.4	86.771
458.7	87.714
458.9	87.397
459.2	88.219
459.4	89.464
459.7	89.166
459.9	88.4
460.2	89.087
460.4	88.74
460.7	90.939
460.9	92.451
461.2	91.278
461.4	91.18
461.7	93.364
461.9	93.624
462.2	95.136
462.4	94.518
462.7	95.43
462.9	95.577
463.2	95.551
463.4	93.073
463.7	94.325
463.9	94.537
464.2	94.435
464.4	94.816
464.7	96.573
464.9	96.332
465.2	97.067
465.4	97.048
465.7	97.471
465.9	98.9
466.2	99.918
466.4	100.239
466.6	101.789
466.9	100.903
467.1	98.964
467.4	98.157
467.6	100.333
467.9	99.786
468.1	99.202
468.4	97.746
468.6	96.611
468.9	95.83
469.1	95.283
469.4	94.819
469.6	95.091
469.9	94.461
470.1	96.06
470.4	94.789
470.6	96.268
470.9	98.074
471.1	100.337
471.4	100.073
471.6	99.851
471.9	101.272
472.1	102.125
472.4	101.6
472.6	103.226
472.9	102.4
473.1	102.581
473.4	104.026
473.6	103.29
473.9	101.936
474.1	102.147
474.3	101.318
474.6	103.72
474.8	103.652
475.1	103.543
475.3	102.607
475.6	103.75
475.8	105.511
476.1	106.888
476.3	106.567
476.6	107.763
476.8	108.223
477.1	110.735
477.3	111.297
477.6	112.783
477.8	112.451
478.1	114.02
478.3	114.574
478.6	115.664
478.8	114.367
479.1	114.623
479.3	114.71
479.6	114.993
479.8	114.069
480.1	115.464
480.3	116.4
480.5	117.06
480.8	115.743
481	115.212
481.3	115.845
481.5	117.124
481.8	116.649
482	118.768
482.3	118.659
482.5	118.911
482.8	119.326
483	119.952
483.3	120.933
483.5	122.936
483.8	122.404
484	122.483
484.3	121.827
484.5	123.467
484.8	122.336
485	122.483
485.2	121.778
485.5	123.569
485.7	123.867
486	124.32
486.2	123.275
486.5	126.243
486.7	127.152
487	129.151
487.2	128.257
487.5	129.562
487.7	130.837
488	129.671
488.2	129.468
488.5	129.977
488.7	129.37
489	128.604
489.2	129.385
489.5	130.301
489.7	130.132
489.9	128.238
490.2	128.016
490.4	128.668
490.7	128.894
490.9	127.895
491.2	126.092
491.4	127.182
491.7	130.531
491.9	131.768
492.2	132.247
492.4	131.874
492.7	132.523
492.9	134.307
493.2	133.205
493.4	132.413
493.6	130.995
493.9	131.648
494.1	129.136
494.4	129.004
494.6	127.948
494.9	127.08
495.1	126.138
495.4	124.972
495.6	126.488
495.9	128.231
496.1	129.498
496.4	130.848
496.6	132.428
496.9	134.967
497.1	135.099
497.3	134.933
497.6	136.253
497.8	138.444
498.1	136.445
498.3	136.475
498.6	135.295
498.8	135.461
499.1	136.188
499.3	136.056
499.6	138.229
499.8	138.074
500.1	136.969
500.3	136.607
500.6	135.736
500.8	135.053
501	137.558
501.3	136.366
501.5	134.635
501.8	136.679
502	138.764
502.3	136.965
502.5	136.645
502.8	137.901
503	139.519
503.3	138.131
503.5	136.336
503.8	137.301
504	136.019
504.2	137.407
504.5	135.027
504.7	136.06
505	135.336
505.2	137.056
505.5	137.252
505.7	138.979
506	138.391
506.2	141.084
506.5	141.295
506.7	139.571
506.9	138.757
507.2	137.271
507.4	136.06
507.7	138.564
507.9	138.96
508.2	140.394
508.4	140.032
508.7	139.274
508.9	140.484
509.2	142.525
509.4	142.562
509.7	141.174
509.9	144.633
510.1	145.1
510.4	145.048
510.6	142.894
510.9	145.353
511.1	147.05
511.4	147.495
511.6	148.74
511.9	147.239
512.1	146.398
512.4	147.084
512.6	147.899
512.8	146.481
513.1	145.304
513.3	145.919
513.6	146.42
513.8	145.802
514.1	144.897
514.3	143.965
514.6	144.452
514.8	143.339
515.1	143.924
515.3	142.694
515.5	143.29
515.8	143.735
516	145.078
516.3	145.168
516.5	145.53
516.8	145.346
517	144.101
517.3	143.581
517.5	142.951
517.7	143.992
518	143.479
518.2	143.731
518.5	142.841
518.7	142.491
519	140.812
519.2	140.397
519.5	141.382
519.7	141.487
520	140.646
520.2	140.612
520.4	141.872
520.7	144.237
520.9	144.369
521.2	144.041
521.4	143.867
521.7	146.899
521.9	148.536
522.2	146.564
522.4	149.551
522.6	150.018
522.9	151.127
523.1	151.338
523.4	151.542
523.6	150.335
523.9	151.663
524.1	151.855
524.4	151.033
524.6	150.98
524.8	150.731
525.1	149.528
525.3	150.075
525.6	151.214
525.8	152.851
526.1	153.401
526.3	154.789
526.6	154.28
526.8	153.899
527	155.759
527.3	156.373
527.5	156.317
527.8	156.799
528	154.823
528.3	155.989
528.5	155.875
528.8	155.8
529	155.031
529.2	155.649
529.5	154.853
529.7	158.263
530	157.614
530.2	158.244
530.5	155.985
530.7	156.064
531	155.559
531.2	156.724
531.4	155.43
531.7	157.143
531.9	156.943
532.2	157.987
532.4	159.191
532.7	160.518
532.9	159.673
533.2	158.455
533.4	157.637
533.6	156.754
533.9	154.906
534.1	154.944
534.4	155.204
534.6	155.212
534.9	154.612
535.1	153.76
535.3	152.945
535.6	154.408
535.8	151.606
536.1	152.643
536.3	154.163
536.6	156.2
536.8	155.083
537.1	156.328
537.3	154.05
537.5	153.205
537.8	152.922
538	154.276
538.3	152.96
538.5	151.753
538.8	151.139
539	149.773
539.2	148.201
539.5	148.212
539.7	148.819
540	147.725
540.2	149.313
540.5	149.181
540.7	149.913
540.9	149.849
541.2	149.671
541.4	152.888
541.7	156.686
541.9	157.482
542.2	155.072
542.4	154.88
542.7	155.581
542.9	157.603
543.1	157.207
543.4	159.941
543.6	159.145
543.9	158.025
544.1	157.535
544.4	155.962
544.6	154.842
544.8	155.823
545.1	156.09
545.3	155.747
545.6	156.336
545.8	157.92
546.1	157.248
546.3	157.776
546.5	158.38
546.8	160.179
547	161.227
547.3	160.503
547.5	161.069
547.8	159.093
548	159.225
548.2	159.824
548.5	158.451
548.7	158.659
549	156.06
549.2	155.185
549.5	153.386
549.7	153.854
549.9	154.503
550.2	154.654
550.4	152.934
550.7	153.19
550.9	149.901
551.2	150.773
551.4	151.056
551.6	151.418
551.9	152.474
552.1	152.206
552.4	151.768
552.6	149.807
552.9	150.588
553.1	149.2
553.3	148.321
553.6	149.404
553.8	148.589
554.1	151.139
554.3	149.223
554.5	147.676
554.8	146.877
555	146.375
555.3	145.372
555.5	145.534
555.8	144.146
556	144.916
556.2	142.434
556.5	143.29
556.7	140.925
557	142.215
557.2	141.676
557.5	142.475
557.7	143.433
557.9	142.106
558.2	141.367
558.4	143.35
558.7	141.182
558.9	141.763
559.2	140.963
559.4	140.944
559.6	141.876
559.9	142.532
560.1	141.989
560.4	142.724
560.6	143.207
560.8	144.169
561.1	143.102
561.3	144.791
561.6	142.321
561.8	142.634
562.1	142.426
562.3	142.411
562.5	142.238
562.8	144.135
563	143.117
563.3	143.166
563.5	143.777
563.7	145.006
564	142.77
564.2	143.003
564.5	142.981
564.7	144.165
565	143.482
565.2	141.695
565.4	142.551
565.7	144.769
565.9	143.501
566.2	144.463
566.4	143.89
566.6	145.964
566.9	146.643
567.1	147.752
567.4	146.737
567.6	148.453
567.9	147.069
568.1	148.155
568.3	147.205
568.6	148.431
568.8	147.839
569.1	146.918
569.3	146.194
569.5	146.579
569.8	148.321
570	148.581
570.3	148.857
570.5	150.818
570.7	152.021
571	152.115
571.2	153.405
571.5	154.205
571.7	153.971
572	154.288
572.2	153.349
572.4	155.317
572.7	157.652
572.9	159.571
573.2	158.625
573.4	157.452
573.6	157.825
573.9	158.255
574.1	156.818
574.4	154.669
574.6	154.936
574.8	154.45
575.1	154.759
575.3	155.51
575.6	155
575.8	155.212
576	154.495
576.3	153.741
576.5	156.667
576.8	158.587
577	159.926
577.3	160.19
577.5	160.744
577.7	160.82
578	160.733
578.2	161.435
578.5	160.722
578.7	162.117
578.9	163.211
579.2	163.335
579.4	163.426
579.7	163.234
579.9	161.842
580.1	160.492
580.4	160.1
580.6	160.982
580.9	164.135
581.1	164.444
581.3	164.629
581.6	162.445
581.8	164.648
582.1	164.576
582.3	165.968
582.5	167.084
582.8	168.525
583	170.211
583.3	172.296
583.5	171.976
583.7	173.594
584	172.813
584.2	172.828
584.5	171.9
584.7	172.157
584.9	172.485
585.2	171.535
585.4	171.067
585.7	169.351
585.9	169.43
586.1	167.273
586.4	166.752
586.6	167.45
586.9	166.33
587.1	165.87
587.3	165.523
587.6	166.383
587.8	165.576
588.1	164.199
588.3	161.906
588.5	160.446
588.8	159.334
589	160.435
589.3	159.432
589.5	158.689
589.7	158.896
590	157.806
590.2	156.603
590.5	154.68
590.7	152.606
590.9	154.325
591.2	152.73
591.4	152.451
591.7	154.167
591.9	156.618
592.1	155.951
592.4	156.554
592.6	156.271
592.9	156.049
593.1	157.407
593.3	157.682
593.6	158.549
593.8	158.334
594.1	159.051
594.3	159.436
594.5	159.5
594.8	158.655
595	159.104
595.3	160.322
595.5	163.347
595.7	165.236
596	166.733
596.2	167.808
596.4	171.538
596.7	172.149
596.9	172.56
597.2	171.086
597.4	172.922
597.6	172.353
597.9	171.942
598.1	173.247
598.4	174.559
598.6	176.483
598.8	176.29
599.1	173.481
599.3	173.862
599.6	173.786
599.8	174.586
600	176.811
600.3	178.074
600.5	177.094
600.7	178.255
601	179.59
601.2	180.254
601.5	179.572
601.7	181.057
601.9	182.924
602.2	185.602
602.4	185.225
602.7	184.572
602.9	183.562
603.1	184.143
603.4	184.297
603.6	184.867
603.9	183.437
604.1	183.547
604.3	184.011
604.6	185.395
604.8	184.855
605	186.164
605.3	186.462
605.5	186.149
605.8	183.592
606	184.158
606.2	184.463
606.5	185.165
606.7	181.872
607	181.156
607.2	178.836
607.4	175.725
607.7	174.91
607.9	173.982
608.1	175.068
608.4	173.756
608.6	173.763
608.9	173.398
609.1	171.636
609.3	169.856
609.6	168.778
609.8	169.215
610.1	168.642
610.3	165.18
610.5	162.721
610.8	162.019
611	160.771
611.2	159.703
611.5	158.942
611.7	156.898
612	156.931
612.2	154.997
612.4	153.718
612.7	153.175
612.9	153.288
613.1	152.455
613.4	150.286
613.6	149.275
613.9	149.683
614.1	150.396
614.3	150.052
614.6	150.957
614.8	152.281
615	151.289
615.3	151.795
615.5	150.588
615.8	148.695
616	148.272
616.2	148.525
616.5	149.901
616.7	151.018
616.9	149.505
617.2	148.223
617.4	148.672
617.7	149.981
617.9	149.796
618.1	148.05
618.4	147.537
618.6	146.183
618.8	147.118
619.1	148.857
619.3	148.004
619.6	146.914
619.8	145.7
620	144.674
620.3	143.928
620.5	143.664
620.7	142.694
621	141.981
621.2	139.417
621.5	138.372
621.7	139.002
621.9	137.199
622.2	135.291
622.4	136.155
622.6	135.94
622.9	134.227
623.1	134.993
623.4	133.613
623.6	132.772
623.8	132.628
624.1	131.093
624.3	131.655
624.5	132.308
624.8	132.726
625	132.323
625.3	133.145
625.5	134.491
625.7	134.853
626	134.457
626.2	133.843
626.4	131.655
626.7	130.358
626.9	132.078
627.1	132.492
627.4	132.738
627.6	131.893
627.9	132.123
628.1	132.108
628.3	132.13
628.6	132.851
628.8	134.303
629	134.05
629.3	135.464
629.5	137.591
629.8	136.343
630	136.29
630.2	135.204
630.5	135.645
630.7	136.121
630.9	136.366
631.2	134.348
631.4	134.288
631.6	133.911
631.9	132.013
632.1	129.702
632.4	130.509
632.6	130.022
632.8	129.818
633.1	130.697
633.3	132.217
633.5	130.89
633.8	131.78
634	134.378
634.2	134.389
634.5	133.545
634.7	135.012
635	134.439
635.2	135.219
635.4	137.316
635.7	140.009
635.9	140.062
636.1	139.183
636.4	138.202
636.6	135.894
636.8	135.446
637.1	135.891
637.3	136.422
637.5	136.724
637.8	136.566
638	136.275
638.3	135.766
638.5	137.388
638.7	136.935
639	138.38
639.2	140.303
639.4	140.465
639.7	140.103
639.9	138.723
640.1	140.778
640.4	141.386
640.6	139.526
640.9	140.68
641.1	141.303
641.3	139.662
641.6	139.398
641.8	140.605
642	139.323
642.3	138.757
642.5	138.753
642.7	135.725
643	134.985
643.2	133.515
643.4	132.168
643.7	132.907
643.9	133.522
644.1	132.21
644.4	133.341
644.6	132.244
644.9	132.851
645.1	133.054
645.3	132.376
645.6	131.64
645.8	130
646	131.135
646.3	128.827
646.5	127.431
646.7	128.291
647	127.767
647.2	128.148
647.4	126.767
647.7	124.35
647.9	125.862
648.1	126.481
648.4	124.825
648.6	124.961
648.9	125.263
649.1	126.104
649.3	126.854
649.6	127.925
649.8	127.661
650	129.008
650.3	126.903
650.5	127.955
650.7	128.136
651	126.33
651.2	128.234
651.4	127.341
651.7	125.451
651.9	125.568
652.1	125.911
652.4	125.41
652.6	126.881
652.8	127.378
653.1	126.881
653.3	126.466
653.5	126.164
653.8	125.775
654	126.062
654.3	125.353
654.5	125.794
654.7	123.418
655	122.887
655.2	122.012
655.4	119.764
655.7	120.974
655.9	121.959
656.1	122.815
656.4	120.673
656.6	118.7
656.8	123.399
657.1	124.561
657.3	124.282
657.5	123.218
657.8	124.263
658	125.18
658.2	125.809
658.5	123.569
658.7	124.331
658.9	123.822
659.2	122.796
659.4	121.084
659.6	121.597
659.9	121.589
660.1	119.835
660.3	120.126
660.6	118.911
660.8	119.236
661	118.432
661.3	117.192
661.5	116.072
661.8	115.31
662	115.087
662.2	115.6
662.5	114.254
662.7	115.747
662.9	114.19
663.2	113.809
663.4	109.89
663.6	109.615
663.9	111.135
664.1	105.817
664.3	105.349
664.6	105.123
664.8	104.214
665	103.731
665.3	103.003
665.5	102.871
665.7	105.112
666	105.168
666.2	104.437
666.4	105.157
666.7	104.791
666.9	103.671
667.1	102.23
667.4	103.969
667.6	103.482
667.8	103.026
668.1	102.721
668.3	103.52
668.5	103.177
668.8	103.169
669	101.849
669.2	103.679
669.5	104.007
669.7	104.395
669.9	102.656
670.2	102.498
670.4	100.782
670.6	101.68
670.9	102.291
671.1	100.058
671.3	100.22
671.6	98.421
671.8	98.595
672	100.258
672.3	99.998
672.5	100.722
672.7	99.522
673	99.262
673.2	97.889
673.4	100.111
673.7	100.171
673.9	100.484
674.1	99.519
674.4	99.519
674.6	97.984
674.8	97.806
675.1	97.105
675.3	96.603
675.5	97.169
675.8	96.705
676	96.728
676.2	99.062
676.5	96.977
676.7	97.275
676.9	96.633
677.2	96.045
677.4	95.087
677.6	95.132
677.9	95.031
678.1	93.756
678.3	95.355
678.5	93.217
678.8	91.568
679	90.991
679.2	90.626
679.5	91.146
679.7	89.094
679.9	89.981
680.2	87.959
680.4	89.558
680.6	86.341
680.9	85.742
681.1	85.753
681.3	87.831
681.6	86.865
681.8	87.88
682	87.031
682.3	88.378
682.5	88.842
682.7	86.579
683	85.504
683.2	83.422
683.4	81.853
683.7	81.039
683.9	81.638
684.1	81.732
684.4	82.2
684.6	82.174
684.8	80.729
685.1	79.93
685.3	79.07
685.5	79.025
685.7	79.047
686	79.413
686.2	79.19
686.4	78.202
686.7	75.415
686.9	75.89
687.1	74.533
687.4	73.465
687.6	71.293
687.8	72.323
688.1	71.455
688.3	70.162
688.5	68.102
688.8	71.033
689	68.419
689.2	70.362
689.5	68.717
689.7	67.261
689.9	66.296
690.2	66.137
690.4	68.57
690.6	67.39
690.8	68.001
691.1	65.266
691.3	64.274
691.5	63.301
691.8	62.419
692	63.697
692.2	65.349
692.5	64.874
692.7	64.316
692.9	64.553
693.2	63.682
693.4	62.736
693.6	62.4
693.9	63.452
694.1	63.128
694.3	64.504
694.5	64.825
694.8	64.965
695	64.961
695.2	64.478
695.5	65.032
695.7	65.527
695.9	63.829
696.2	64.101
696.4	62.698
696.6	62.834
696.9	62.536
697.1	64.738
697.3	66.292
697.6	66.285
697.8	67.329
698	68.374
698.2	68.016
698.5	68.525
698.7	69.226
698.9	70.576
699.2	70.158
699.4	67.721
699.6	69.162
699.9	66.896
700.1	67.461
700.3	69.064
700.6	69.2
700.8	70.362
701	69.916
701.2	69.573
701.5	69.026
701.7	69.849
701.9	68.887
702.2	69.815
702.4	70.969
702.6	70.897
702.9	69.445
703.1	67.42
703.3	69.339
703.6	69.86
703.8	70.03
704	70.109
704.2	67.891
704.5	67.371
704.7	66.88
704.9	66.405
705.2	64.987
705.4	65.911
705.6	66.187
705.9	66.518
706.1	67.043
706.3	66.058
706.5	65.104
706.8	64.682
707	65.511
707.2	65.477
707.5	64.738
707.7	63.592
707.9	62.253
708.2	61.759
708.4	61.419
708.6	60.925
708.8	59.741
709.1	60.692
709.3	59.115
709.5	58.153
709.8	58.481
710	60.209
710.2	60.473
710.5	59.888
710.7	57.976
710.9	57.569
711.1	57.403
711.4	58.067
711.6	57.55
711.8	58.421
712.1	57.904
712.3	58.297
712.5	58.651
712.8	59.488
713	57.391
713.2	55.691
713.4	55.706
713.7	56.068
713.9	55.264
714.1	56.66
714.4	55.095
714.6	53.22
714.8	53.284
715.1	53.367
715.3	53.899
715.5	52.338
715.7	51.12
716	50.003
716.2	47.729
716.4	46.73
716.7	45.858
716.9	45.855
717.1	43.256
717.3	44.127
717.6	43.256
717.8	43.373
718	42.566
718.3	42.396
718.5	42.494
718.7	42.63
718.9	41.544
719.2	40.94
719.4	40.642
719.6	37.95
719.9	36.317
720.1	37.399
720.3	36.894
720.6	34.733
720.8	34.616
721	34.853
721.2	32.979
721.5	33.281
721.7	33.873
721.9	34.107
722.2	33.066
722.4	32.357
722.6	34.883
722.8	35.887
723.1	37.852
723.3	40.047
723.5	40.02
723.8	40.835
724	38.719
724.2	38.93
724.4	39.507
724.7	40.624
724.9	41.14
725.1	42.279
725.4	43.78
725.6	41.978
725.8	41.253
726	40.382
726.3	38.489
726.5	37.693
726.7	38.47
727	36.038
727.2	34.936
727.4	35.943
727.6	37.376
727.9	38.425
728.1	38.067
728.3	38.248
728.6	38.968
728.8	39.892
729	38.621
729.2	41.016
729.5	41.163
729.7	40.201
729.9	40.167
730.2	39.62
730.4	39.092
730.6	39.571
730.8	38.304
731.1	39.379
731.3	39.892
731.5	38.508
731.7	36.596
732	36.32
732.2	36.188
732.4	35.076
732.7	35.562
732.9	35.095
733.1	35.6
733.3	36.83
733.6	38.297
733.8	38.81
734	43.611
734.3	44.222
734.5	46.024
734.7	47.97
734.9	46.19
735.2	48.777
735.4	49.626
735.6	49.226
735.9	50.256
736.1	52.259
736.3	52.111
736.5	51.753
736.8	51.565
737	50.761
737.2	51.078
737.4	50.701
737.7	52.013
737.9	55.457
738.1	55.415
738.4	55.721
738.6	56.237
738.8	56.682
739	55.796
739.3	55.355
739.5	54.133
739.7	55.117
739.9	58.745
740.2	59.356
740.4	59.398
740.6	59.028
740.9	59.009
741.1	57.252
741.3	56.924
741.5	54.676
741.8	53.284
742	54.989
742.2	54.246
742.4	54.261
742.7	54.974
742.9	54.789
743.1	53.216
743.4	51.206
743.6	50.746
743.8	51.052
744	52.636
744.3	52.643
744.5	52.643
744.7	52.681
744.9	51.742
745.2	54.586
745.4	54.201
745.6	53.997
745.8	54.997
746.1	56.992
746.3	59.945
746.5	62.754
746.8	61.295
747	59.949
747.2	60.873
747.4	63.011
747.7	62.306
747.9	62.954
748.1	61.548
748.3	63.365
748.6	64.108
748.8	62.14
749	61.389
749.2	60.446
749.5	60.148
749.7	60.277
749.9	59.926
750.2	62.483
750.4	63.056
750.6	63.995
750.8	63.773
751.1	63.49
751.3	62.415
751.5	64.24
751.7	65.304
752	63.931
752.2	62.905
752.4	62.679
752.6	62.068
752.9	61.929
753.1	60.013
753.3	58.561
753.5	57.87
753.8	59.496
754	58.934
754.2	58.304
754.4	58.233
754.7	58.493
754.9	58.761
755.1	59.76
755.4	58.636
755.6	59.277
755.8	61.287
756	60.816
756.3	59.209
756.5	57.712
756.7	55.679
756.9	54.295
757.2	51.097
757.4	50.169
757.6	47.303
757.8	45.587
758.1	45.104
758.3	45.87
758.5	42.928
758.7	38.836
759	37.267
759.2	36.566
759.4	36.038
759.6	36.588
759.9	34.831
760.1	35.494
760.3	33.115
760.5	31.715
760.8	30.169
761	28.687
761.2	28.114
761.4	27.397
761.7	27.42
761.9	27.484
762.1	26.356
762.3	25.568
762.6	22.773
762.8	22.038
763	22.008
763.2	25.021
763.5	25.402
763.7	24.931
763.9	26.111
764.1	26.473
764.4	27.209
764.6	29.569
764.8	31.727
765	31.531
765.3	30.237
765.5	31.267
765.7	32.519
765.9	34.08
766.2	33.533
766.4	34.529
766.6	33.484
766.8	34.499
767.1	34.367
767.3	34.68
767.5	35.344
767.7	36.988
768	38.018
768.2	38.53
768.4	38.153
768.6	36.286
768.9	35.163
769.1	36.237
769.3	37.693
769.5	38.315
769.8	39.854
770	41.125
770.2	39.16
770.4	40.658
770.7	42.49
770.9	42.63
771.1	43.618
771.3	44.252
771.6	43.916
771.8	43.524
772	42.705
772.2	42.751
772.5	43.961
772.7	44.908
772.9	44.108
773.1	43.467
773.4	44.259
773.6	45.232
773.8	43.641
774	43.931
774.3	44.546
774.5	43.984
774.7	42.17
774.9	41.548
775.2	41.623
775.4	42.117
775.6	43.282
775.8	44.308
776	45.157
776.3	43.701
776.5	43.942
776.7	43.324
776.9	43.441
777.2	43.256
777.4	41.827
777.6	40.597
777.8	40.763
778.1	41.506
778.3	41.321
778.5	40.839
778.7	41.11
779	40.737
779.2	41.457
779.4	40.646
779.6	40.231
779.9	39.832
780.1	41.261
780.3	39.217
780.5	37.595
780.7	38.576
781	39.609
781.2	40.081
781.4	39.304
781.6	40.001
781.9	40.443
782.1	38.176
782.3	37.493
782.5	36.856
782.8	35.864
783	36.505
783.2	37.226
783.4	37.542
783.7	35.909
783.9	34.529
784.1	33.658
784.3	33.669
784.5	33.65
784.8	30.78
785	29.09
785.2	27.559
785.4	26.986
785.7	25.753
785.9	27.601
786.1	27.582
786.3	27.273
786.6	27.043
786.8	27.473
787	26.111
787.2	27.424
787.4	27.899
787.7	28.012
787.9	27.201
788.1	26.741
788.3	27.861
788.6	27.706
788.8	25.425
789	25.293
789.2	24.486
789.5	23.826
789.7	22.777
789.9	20.782
790.1	18.742
790.3	18.368
790.6	19.111
790.8	19.715
791	19.892
791.2	21.11
791.5	23.286
791.7	24.188
791.9	24.387
792.1	24.414
792.3	24.316
792.6	23.694
792.8	21.683
793	22.626
793.2	23.799
793.5	24.071
793.7	23.765
793.9	24.384
794.1	23.46
794.3	23.528
794.6	24.421
794.8	23.829
795	24.229
795.2	22.935
795.5	23.584
795.7	24.071
795.9	25.187
796.1	24.614
796.3	24.618
796.6	26.865
796.8	27.129
797	29.354
797.2	30.822
797.5	31.719
797.7	32.089
797.9	31.123
798.1	31.146
798.3	38.338
798.6	39.013
798.8	40.895
799	42.566
799.2	43.037
799.5	44.904
799.7	46.383
799.9	44.934
800.1	42.792
800.3	42.2
800.6	42.49
800.8	42.374
801	42.886
801.2	42.441
801.5	41.846
801.7	40.495
801.9	39.549
802.1	40.903
802.3	40.443
802.6	40.186
802.8	39.315
803	40.718
803.2	41.906
803.4	39.843
803.7	40.096
803.9	38.783
804.1	37.946
804.3	37.456
804.6	37.173
804.8	39.206
805	37.512
805.2	28.004
805.4	27.269
805.7	25.085
805.9	23.264
806.1	24.188
806.3	23.497
806.5	22.803
806.8	21.472
807	22.577
807.2	22.766
807.4	22.988
807.6	20.092
807.9	18.825
808.1	19.5
808.3	19.884
808.5	22.935
808.8	24.244
809	21.94
809.2	23.271
809.4	24.655
809.6	24.071
809.9	22.045
810.1	20.906
810.3	22.242
810.5	21.661
810.7	19.745
811	17.919
811.2	17.15
811.4	16.852
811.6	15.215
811.8	15.977
812.1	16.422
812.3	16.573
812.5	16.615
812.7	16.72
812.9	15.951
813.2	16.592
813.4	15.54
813.6	16.603
813.8	15.581
814	14.97
814.3	14.842
814.5	17.919
814.7	17.052
814.9	14.212
815.2	13.899
815.4	12.364
815.6	11.263
815.8	11.021
816	10.109
816.3	10.535
816.5	9.449
816.7	10.686
816.9	10.856
817.1	10.086
817.4	8.483
817.6	10.143
817.8	10.806
818	10.026
818.2	9.358
818.5	8.996
818.7	7.499
818.9	5.919
819.1	7.141
819.3	7.363
819.6	8.464
819.8	9.75
820	7.484
820.2	6.311
820.4	6.164
820.7	6.122
820.9	7.763
821.1	7.593
821.3	5.617
821.5	7.405
821.8	10.603
822	9.901
822.2	9.807
822.4	9.17
822.6	9.849
822.9	9.705
823.1	6.601
823.3	7.408
823.5	5.794
823.7	6.986
823.9	6.103
824.2	6.699
824.4	5.557
824.6	6.058
824.8	6.224
825	6.914
825.3	6.039
825.5	6.816
825.7	8.347
825.9	7.442
826.1	6.986
826.4	6.741
826.6	4.452
826.8	3.75
827	5.338
827.2	5.342
827.5	6.948
827.7	6.19
827.9	6.303
828.1	7.548
828.3	6.884
828.6	6.247
828.8	6.76
829	5.183
829.2	5.006
829.4	6.745
829.6	5.824
829.9	7.529
830.1	7.933
830.3	8.649
830.5	9.023
830.7	9.634
831	9.615
831.2	10.938
831.4	10.346
831.6	9.852
831.8	9.256
832.1	10.667
832.3	11.632
832.5	12.455
832.7	11.523
832.9	12.24
833.1	12.364
833.4	13.175
833.6	15.566
833.8	15.958
834	15.377
834.2	14.944
834.5	14.137
834.7	11.998
834.9	11.38
835.1	11.282
835.3	10.81
835.5	9.992
835.8	10.991
836	12.108
836.2	10.739
836.4	11.998
836.6	10.72
836.9	9.486
837.1	9.581
837.3	8.532
837.5	7.691
837.7	7.216
837.9	6.164
838.2	7.522
838.4	6.616
838.6	7.412
838.8	7.175
839	6.356
839.3	6.424
839.5	7.597
839.7	7.322
839.9	6.16
840.1	6.017
840.3	7.514
840.6	5.949
840.8	7.205
841	6.594
841.2	7.382
841.4	8.057
841.7	8.366
841.9	7.872
842.1	7.687
842.3	8.932
842.5	9.607
842.7	9.988
843	9.336
843.2	7.269
843.4	9.705
843.6	10.735
843.8	11.961
844	12.236
844.3	12.44
844.5	12.145
844.7	11.64
844.9	11.35
845.1	12.36
845.4	11.112
845.6	12.111
845.8	13.586
846	11.021
846.2	10.441
846.4	10.742
846.7	11.037
846.9	11.037
847.1	8.834
847.3	10.478
847.5	9.845
847.7	9.464
848	8.14
848.2	8.762
848.4	8.091
848.6	7.665
848.8	7.11
849	6.081
849.3	5.202
849.5	4.949
849.7	4.282
849.9	3.875
850.1	1.253
850.3	2.264
850.6	1.778
850.8	0.665
851	-0.546
851.2	0.114
851.4	0.657
851.6	-1.191
851.9	-0.783
852.1	0.929
852.3	-1.915
852.5	-3.261
852.7	-1.734
852.9	-1.481
853.2	-1.485
853.4	-1.266
853.6	-1.424
853.8	-1.579
854	-3.978
854.2	-3.216
854.5	-3.148
854.7	-2.548
854.9	-2.42
855.1	-2.175
855.3	-1.273
855.5	-0.202
855.8	-0.523
856	-2.13
856.2	-3.446
856.4	-1.262
856.6	0.024
856.8	0.069
857.1	2.302
857.3	1.423
857.5	1.736
857.7	3.588
857.9	3.905
858.1	5.545
858.4	5.081
858.6	4.478
858.8	3.113
859	4.357
859.2	3.154
859.4	3.301
859.7	2.585
859.9	1.706
860.1	0.884
860.3	0.446
860.5	-0.361
860.7	0.118
860.9	-1.206
861.2	-0.217
861.4	-0.244
861.6	0.122
861.8	0.744
862	1.001
862.2	0.793
862.5	0.435
862.7	1.103
862.9	0.839
863.1	0.25
863.3	0.846
863.5	1.385
863.8	-2.005
864	-0.802
864.2	-0.067
864.4	-0.844
864.6	-2.028
864.8	-3.887
865	-2.891
865.3	-1.485
865.5	-1.247
865.7	0.371
865.9	1.246
866.1	-0.678
866.3	-0.859
866.6	0.08
866.8	0.326
867	-0.421
867.2	0.401
867.4	0.676
867.6	0.839
867.8	-0.372
868.1	-0.346
868.3	-0.636
868.5	-0.678
868.7	-2.016
868.9	-2.13
869.1	-1.206
869.3	0.088
869.6	-0.229
869.8	-0.274
870	-1.507
870.2	-0.911
870.4	-1.285
870.6	-2.164
870.9	-3.163
871.1	-4.532
871.3	-4.128
871.5	-4.11
871.7	-3.152
871.9	-4.86
872.1	-5.894
872.4	-7.459
872.6	-8.187
872.8	-7.01
873	-6.723
873.2	-7.953
873.4	-7.033
873.6	-6.342
873.9	-7.021
874.1	-7.247
874.3	-8.1
874.5	-8.843
874.7	-10.261
874.9	-10.57
875.1	-11.6
875.4	-10.921
875.6	-12.169
875.8	-12.026
876	-10.268
876.2	-9.416
876.4	-11.57
876.6	-10.838
876.9	-10.48
877.1	-9.887
877.3	-10.913
877.5	-12.429
877.7	-10.329
877.9	-9.08
878.1	-9.782
878.4	-10.563
878.6	-9.929
878.8	-9.68
879	-9.684
879.2	-7.41
879.4	-8.119
879.6	-6.972
879.9	-7.168
880.1	-7.078
880.3	-7.889
880.5	-6.505
880.7	-5.366
880.9	-4.668
881.1	-3.646
881.3	-2.273
881.6	-2.624
881.8	-3.748
882	-4.049
882.2	-1.353
882.4	-1.911
882.6	-3.959
882.8	-3.687
883.1	-2.714
883.3	-2.967
883.5	-3.88
883.7	-2.122
883.9	-2.443
884.1	-1.439
884.3	-3.095
884.6	-4.509
884.8	-2.601
885	-3.45
885.2	-3.891
885.4	-3.619
885.6	-2.428
885.8	-3.717
886	-2.79
886.3	-3.876
886.5	-4.038
886.7	-4.83
886.9	-3.072
887.1	-4.03
887.3	-4.811
887.5	-4.083
887.8	-3.374
888	-4.996
888.2	-4.046
888.4	-3.155
888.6	-3.374
888.8	-4.868
889	-3.431
889.2	-5.143
889.5	-6.931
889.7	-6.305
889.9	-4.751
890.1	-5.377
890.3	-7.229
890.5	-5.746
890.7	-4.887
890.9	-5.264
891.2	-5.524
891.4	-6.98
891.6	-5.765
891.8	-5.12
892	-5.72
892.2	-7.451
892.4	-9.322
892.6	-9.559
892.9	-10.031
893.1	-9.201
893.3	-8.567
893.5	-9.578
893.7	-9.989
893.9	-9.793
894.1	-10.404
894.3	-11.14
894.6	-10.717
894.8	-10.762
895	-9.793
895.2	-9.02
895.4	-9.329
895.6	-11.709
895.8	-10.306
896	-8.149
896.3	-8.986
896.5	-11.038
896.7	-9.835
896.9	-9.454
897.1	-9.231
897.3	-9.375
897.5	-7.881
897.7	-7.27
898	-5.992
898.2	-7.753
898.4	-9.197
898.6	-7.99
898.8	-7.613
899	-6.391
899.2	-4.762
899.4	-3.676
899.6	-4.37
899.9	-4.788
900.1	-3.235
900.3	-1.839
900.5	-0.742
900.7	-1.315
900.9	-3.31
901.1	-2.073
901.3	-3.374
901.6	-4.034
901.8	-3.804
902	-4.766
902.2	-4.242
902.4	-4.623
902.6	-6.127
902.8	-6.312
903	-7.07
903.2	-8.402
903.5	-8.496
903.7	-9.948
903.9	-10.906
904.1	-11.554
904.3	-11.185
904.5	-11.898
904.7	-9.831
904.9	-9.137
905.1	-10.223
905.4	-8.752
905.6	-8.756
905.8	-10.517
906	-10.808
906.2	-10.001
906.4	-10.314
906.6	-11.34
906.8	-10.095
907	-11.128
907.3	-10.502
907.5	-10.985
907.7	-12.524
907.9	-10.525
908.1	-11.023
908.3	-12.554
908.5	-10.959
908.7	-10.653
908.9	-11.615
909.2	-12.162
909.4	-10.457
909.6	-9.416
909.8	-9.88
910	-10.793
910.2	-9.039
910.4	-9.375
910.6	-8.534
910.8	-9.903
911.1	-7.481
911.3	-6.55
911.5	-6.67
911.7	-6.455
911.9	-6.486
912.1	-5.98
912.3	-7.225
912.5	-6.78
912.7	-6.795
912.9	-6.395
913.2	-6.361
913.4	-8.884
913.6	-7.892
913.8	-7.93
914	-4.675
914.2	-4.709
914.4	-5.381
914.6	-5.69
914.8	-5.513
915.1	-4.683
915.3	-4.574
915.5	-2.016
915.7	-1.854
915.9	-2.948
916.1	-3.993
916.3	-3.898
916.5	-4.023
916.7	-3.419
916.9	-1.605
917.2	-2.02
917.4	0.197
917.6	-2.563
917.8	-4.31
918	-6.041
918.2	-5.456
918.4	-7.828
918.6	-7.949
918.8	-6.84
919	-7.851
919.2	-6.67
919.5	-5.343
919.7	-6.535
919.9	-6.704
920.1	-7.251
920.3	-8.039
920.5	-8.36
920.7	-7.263
920.9	-8.658
921.1	-7.998
921.3	-8.032
921.6	-10.37
921.8	-10.676
922	-12.675
922.2	-14.549
922.4	-14.221
922.6	-13.749
922.8	-11.769
923	-11.649
923.2	-13.561
923.4	-14.847
923.6	-15.266
923.9	-16.039
924.1	-16.024
924.3	-16.703
924.5	-14.862
924.7	-14.79
924.9	-13.27
925.1	-13.029
925.3	-12.192
925.5	-12
925.7	-14.624
925.9	-15.273
926.2	-14.066
926.4	-13.666
926.6	-13.12
926.8	-13.365
927	-14.293
927.2	-13.806
927.4	-13.866
927.6	-14.572
927.8	-13.003
928	-12.973
928.2	-13.286
928.5	-13.308
928.7	-10.876
928.9	-9.673
929.1	-8.62
929.3	-8.654
929.5	-7.066
929.7	-7.21
929.9	-7.093
930.1	-8.021
930.3	-9.009
930.5	-7.538
930.8	-5.656
931	-5.769
931.2	-6.437
931.4	-7.127
931.6	-6.81
931.8	-6.222
932	-6.369
932.2	-6.908
932.4	-8.571
932.6	-9.997
932.8	-10.842
933	-13.052
933.3	-12.475
933.5	-12.392
933.7	-12.863
933.9	-12.788
934.1	-11.415
934.3	-10.996
934.5	-10.144
934.7	-10.427
934.9	-9.884
935.1	-9.375
935.3	-10.261
935.5	-12.396
935.7	-13.455
936	-14.949
936.2	-15.379
936.4	-15.284
936.6	-13.504
936.8	-13.84
937	-14.945
937.2	-16.684
937.4	-15.88
937.6	-16.141
937.8	-15.978
938	-18.649
938.2	-20.01
938.4	-18.701
938.7	-16.914
938.9	-17.51
939.1	-16.484
939.3	-14.541
939.5	-12.577
939.7	-13.32
939.9	-14.896
940.1	-14.685
940.3	-13.923
940.5	-15.201
940.7	-16.325
940.9	-15.828
941.1	-15.601
941.4	-16.736
941.6	-16.804
941.8	-17.306
942	-15.42
942.2	-15.533
942.4	-14.425
942.6	-12.067
942.8	-11.645
943	-12.671
943.2	-11.66
943.4	-12.116
943.6	-11.788
943.8	-13.21
944	-14.194
944.3	-14.289
944.5	-13.425
944.7	-11.649
944.9	-12.497
945.1	-11.536
945.3	-9.967
945.5	-9.077
945.7	-9.631
945.9	-11.166
946.1	-10.057
946.3	-9.661
946.5	-10.887
946.7	-11.264
946.9	-10.219
947.1	-10.404
947.4	-10.781
947.6	-11.573
947.8	-11.441
948	-11.935
948.2	-11.675
948.4	-12.742
948.6	-12.343
948.8	-12.72
949	-13.866
949.2	-13.534
949.4	-13.678
949.6	-14.221
949.8	-13.297
950	-13.602
950.2	-10.729
950.5	-9.45
950.7	-10.038
950.9	-9.118
951.1	-11.766
951.3	-10.031
951.5	-10.453
951.7	-12.55
951.9	-13.372
952.1	-13.987
952.3	-12.954
952.5	-13.01
952.7	-11.822
952.9	-11.528
953.1	-12.384
953.3	-13.15
953.5	-13.832
953.8	-13.41
954	-11.811
954.2	-12.052
954.4	-11.8
954.6	-12.309
954.8	-12.196
955	-12.271
955.2	-11.392
955.4	-11.875
955.6	-13.493
955.8	-12.211
956	-11.622
956.2	-11.736
956.4	-10.106
956.6	-12.252
956.8	-11.732
957	-11.336
957.2	-11.087
957.5	-11.042
957.7	-12.226
957.9	-12.935
958.1	-11.988
958.3	-13.32
958.5	-14.198
958.7	-14.798
958.9	-14.425
959.1	-14.662
959.3	-13.523
959.5	-13.452
959.7	-13.105
959.9	-13.165
960.1	-14.277
960.3	-14.447
960.5	-12.124
960.7	-11.321
960.9	-10.536
961.1	-10.819
961.4	-10.766
961.6	-12.724
961.8	-13.55
962	-12.742
962.2	-11.57
962.4	-13.885
962.6	-12.924
962.8	-15.379
963	-15.224
963.2	-17.095
963.4	-16.499
963.6	-17.985
963.8	-18.253
964	-19.754
964.2	-20.248
964.4	-18.905
964.6	-17.246
964.8	-15.816
965	-15.839
965.2	-17.4
965.5	-17.215
965.7	-16.857
965.9	-16.31
966.1	-17.038
966.3	-15.243
966.5	-12.55
966.7	-14.262
966.9	-14.658
967.1	-16.193
967.3	-16.005
967.5	-15.073
967.7	-16.427
967.9	-15.639
968.1	-13.636
968.3	-11.785
968.5	-13.829
968.7	-11.298
968.9	-11.845
969.1	-10.035
969.3	-9.016
969.5	-8.428
969.7	-8.33
969.9	-5.946
970.2	-4.668
970.4	-3.819
970.6	-3.759
970.8	-4.26
971	-3.095
971.2	-2.978
971.4	-3.11
971.6	-1.734
971.8	-1.711
972	-2.352
972.2	-0.866
972.4	-1.179
972.6	-3.012
972.8	-4.302
973	-3.046
973.2	-2.722
973.4	-3.129
973.6	-3.929
973.8	-4.377
974	-3.446
974.2	-3.446
974.4	-5.882
974.6	-8.013
974.8	-6.561
975	-6.893
975.2	-8.221
975.5	-9.209
975.7	-8.715
975.9	-7.636
976.1	-7.659
976.3	-9.261
976.5	-8.3
976.7	-8.914
976.9	-8.699
977.1	-9.318
977.3	-9.906
977.5	-11.573
977.7	-11.664
977.9	-10.91
978.1	-10.612
978.3	-10.751
978.5	-12.369
978.7	-10.838
978.9	-10.087
979.1	-10.593
979.3	-10.272
979.5	-11.079
979.7	-11.226
979.9	-10.898
980.1	-11.392
980.3	-11.174
980.5	-10.525
980.7	-8.368
980.9	-6.463
981.1	-7.493
981.3	-7.229
981.5	-6.75
981.7	-7.357
981.9	-8.65
982.2	-8.779
982.4	-9.48
982.6	-7.41
982.8	-9.744
983	-10.004
983.2	-9.963
983.4	-9.646
983.6	-10.374
983.8	-8.567
984	-7.696
984.2	-7.806
984.4	-8.386
984.6	-10.148
984.8	-9.759
985	-8.677
985.2	-7.511
985.4	-7.953
985.6	-9.541
985.8	-9.586
986	-7.225
986.2	-6.516
986.4	-7.1
986.6	-5.686
986.8	-6.165
987	-5.833
987.2	-5.973
987.4	-7.115
987.6	-7.063
987.8	-6.961
988	-6.373
988.2	-7.24
988.4	-7.719
988.6	-7.138
988.8	-9.925
989	-8.749
989.2	-8.847
989.4	-7.787
989.6	-8.119
989.8	-8.104
990	-7.825
990.2	-9.035
990.4	-10.932
990.6	-9.186
990.8	-6.95
991	-6.802
991.3	-8.617
991.5	-9.473
991.7	-10.197
991.9	-10.129
992.1	-10.514
992.3	-10.227
992.5	-10.555
992.7	-9.22
992.9	-9.974
993.1	-10.019
993.3	-10.868
993.5	-12.622
993.7	-11.249
993.9	-10.962
994.1	-11.573
994.3	-10.646
994.5	-8.914
994.7	-7.636
994.9	-6.991
995.1	-6.836
995.3	-6.195
995.5	-5.773
995.7	-6.761
995.9	-5.72
996.1	-5.686
996.3	-7.885
996.5	-7.278
996.7	-7.798
996.9	-9.145
997.1	-11.309
997.3	-12.712
997.5	-11.736
997.7	-12.116
997.9	-11.803
998.1	-9.676
998.3	-9.876
998.5	-10.664
998.7	-10.898
998.9	-10.321
999.1	-10.483
999.3	-9.914
999.5	-10.819
999.7	-11.441
999.9	-12.697
1000.1	-14.187
1000.3	-13.485
1000.5	-14.643
1000.7	-15.047
1000.9	-16.446
1001.1	-16.435
1001.3	-14.949
1001.5	-15.933
1001.7	-15.586
1001.9	-16.484
1002.1	-17.257
1002.3	-16.77
1002.5	-17.008
1002.7	-17.332
1002.9	-15.899
1003.1	-17.174
1003.3	-15.786
1003.5	-13.9
1003.7	-14.651
1003.9	-12.626
1004.1	-11.668
1004.3	-12.226
1004.5	-11.053
1004.7	-11.026
1004.9	-12.022
1005.1	-12.218
1005.3	-12.222
1005.5	-13.565
1005.7	-11.796
1005.9	-11.698
1006.1	-10.54
1006.3	-9.921
1006.5	-10.223
1006.7	-9.224
1006.9	-9.16
1007.1	-9.148
1007.3	-10.698
1007.5	-10.951
1007.7	-11.532
1007.9	-12.663
1008.1	-11.521
1008.3	-11.653
1008.5	-12.203
1008.7	-8.963
1008.9	-8.481
1009.1	-8.13
1009.3	-8.5
1009.5	-8.571
1009.7	-8.82
1009.9	-9.378
1010.1	-11.6
1010.3	-10.608
1010.5	-11.29
1010.7	-12.592
1010.9	-13.776
1011.1	-12.833
1011.3	-13.342
1011.5	-14.032
1011.7	-14.334
1011.9	-15.511
1012.1	-13.138
1012.3	-12.765
1012.5	-12.305
1012.7	-12.369
1012.9	-12.196
1013.1	-13.87
1013.3	-13.24
1013.5	-11.788
1013.7	-11.973
1013.9	-12.384
1014.1	-11.95
1014.3	-12.916
1014.5	-13.286
1014.7	-12.716
1014.9	-15.398
1015.1	-14.228
1015.3	-16.058
1015.5	-15.473
1015.7	-15.141
1015.9	-15.251
1016.1	-15.439
1016.3	-13.255
1016.5	-15.79
1016.7	-14.866
1016.9	-15.469
1017.1	-16.088
1017.3	-16.416
1017.5	-15.963
1017.7	-16.235
1017.9	-15.582
1018.1	-15.051
1018.3	-16.65
1018.5	-17.608
1018.7	-17.491
1018.9	-17.185
1019.1	-18.852
1019.2	-19.173
1019.4	-19.927
1019.6	-20.191
1019.8	-20.802
1020	-19.482
1020.2	-19.309
1020.4	-15.918
1020.6	-15.869
1020.8	-18.219
1021	-16.563
1021.2	-17.97
1021.4	-16.273
1021.6	-13.791
1021.8	-14.145
1022	-14.839
1022.2	-13.429
1022.4	-13.493
1022.6	-13.493
1022.8	-13.753
1023	-13.557
1023.2	-11.849
1023.4	-12.248
1023.6	-12.859
1023.8	-8.79
1024	-9.167
1024.2	-10.966
1024.4	-10.431
1024.6	-10.438
1024.8	-11.604
1025	-11.245
1025.2	-11.03
1025.4	-8.239
1025.6	-7.689
1025.8	-8.356
1026	-7.953
1026.2	-7.436
1026.4	-7.036
1026.6	-9.835
1026.8	-8.028
1027	-6.625
1027.2	-6.267
1027.4	-6.271
1027.6	-6.365
1027.8	-9.016
1028	-9.409
1028.1	-7.877
1028.3	-9.341
1028.5	-10.672
1028.7	-10.698
1028.9	-11.988
1029.1	-11.905
1029.3	-13.04
1029.5	-13.278
1029.7	-13.561
1029.9	-16.997
1030.1	-14.817
1030.3	-13.508
1030.5	-11.883
1030.7	-10.959
1030.9	-9.243
1031.1	-10.065
1031.3	-9.597
1031.5	-10.498
1031.7	-10.408
1031.9	-9.854
1032.1	-9.884
1032.3	-11.864
1032.5	-12.69
1032.7	-13.953
1032.9	-16.242
1033.1	-15.967
1033.3	-16.887
1033.5	-17.231
1033.7	-18.219
1033.9	-17.845
1034.1	-17.826
1034.3	-16.439
1034.4	-16.118
1034.6	-15.779
1034.8	-14.572
1035	-13.776
1035.2	-13.474
1035.4	-12.399
1035.6	-12.501
1035.8	-11.468
1036	-11.777
1036.2	-14.142
1036.4	-14.96
1036.6	-16.352
1036.8	-18.019
1037	-18.347
1037.2	-18.415
1037.4	-19.426
1037.6	-20.455
1037.8	-19.746
1038	-20.564
1038.2	-21.074
1038.4	-20.568
1038.6	-19.882
1038.8	-18.607
1039	-16.28
1039.2	-17.396
1039.4	-17.623
1039.5	-16.205
1039.7	-15.552
1039.9	-14.157
1040.1	-14.044
1040.3	-15.722
1040.5	-14.357
1040.7	-15.605
1040.9	-15.812
1041.1	-17.061
1041.3	-17.144
1041.5	-18.287
1041.7	-17.442
1041.9	-17.924
1042.1	-17.777
1042.3	-16.974
1042.5	-16.185
1042.7	-16.765
1042.9	-16.016
1043.1	-16.935
1043.3	-16.698
1043.5	-15.417
1043.7	-14.648
1043.8	-15.745
1044	-14.889
1044.2	-14.208
1044.4	-12.962
1044.6	-12.896
1044.8	-12.848
1045	-14.995
1045.2	-13.53
