Data from mesure_FLMT021711__22__44.txt Node

Date: Mon Nov 04 11:53:12 CET 2024
User: jordan.swietlicki
Spectrometer: FLMT02171
Trigger mode: 0
Integration Time (sec): 1.000000E-1
Scans to average: 15
Electric dark correction enabled: true
Nonlinearity correction enabled: false
Boxcar width: 15
XAxis mode: Wavelengths
Number of Pixels in Spectrum: 3648
>>>>>Begin Spectral Data<<<<<
194.7	-43.161
194.9	-41.406
195.2	-36.857
195.5	-35.785
195.7	-32.177
196	-31.156
196.2	-30.718
196.5	-32.848
196.8	-31.616
197	-30.79
197.3	-30.923
197.6	-28.236
197.8	-28.104
198.1	-27.098
198.4	-25.01
198.6	-23.637
198.9	-19.877
199.2	-16.008
199.4	-10.988
199.7	-4.61
200	-4.644
200.2	-6.828
200.5	-6.594
200.7	-6.854
201	-6.138
201.3	-6.051
201.5	-5.647
201.8	-6.089
202.1	-4.874
202.3	-4.663
202.6	-4.791
202.9	-5.527
203.1	-4.897
203.4	-6.496
203.7	-6.719
203.9	-7.726
204.2	-7.25
204.5	-6.028
204.7	-4.09
205	-3.698
205.2	-2.789
205.5	-1.257
205.8	-1.819
206	1.522
206.3	2.325
206.6	3.072
206.8	2.601
207.1	3.389
207.4	5.72
207.6	7.971
207.9	8.299
208.2	8.786
208.4	9.763
208.7	9.193
208.9	10.894
209.2	10.532
209.5	10.042
209.7	10.034
210	10.396
210.3	10.272
210.5	11.777
210.8	11.845
211.1	12.535
211.3	12.527
211.6	12.071
211.9	12.452
212.1	12.772
212.4	12.497
212.6	12.584
212.9	12.742
213.2	11.505
213.4	11.694
213.7	12.403
214	12.565
214.2	9.374
214.5	9.186
214.8	9.352
215	10.102
215.3	13.123
215.5	13.693
215.8	11.95
216.1	11.826
216.3	13.127
216.6	12.968
216.9	14.047
217.1	14.315
217.4	14.628
217.7	14.809
217.9	12.188
218.2	12.376
218.5	11.818
218.7	10.2
219	10.762
219.2	11.611
219.5	12.463
219.8	13.478
220	13.998
220.3	13.877
220.6	15.495
220.8	14.858
221.1	15.556
221.4	15.22
221.6	15.412
221.9	15.412
222.1	14.183
222.4	14.628
222.7	16.314
222.9	12.512
223.2	10.819
223.5	8.314
223.7	9.8
224	8.424
224.2	7.579
224.5	7.247
224.8	6.761
225	6.576
225.3	6.881
225.6	6.044
225.8	7.443
226.1	9.706
226.4	8.718
226.6	7.07
226.9	8.771
227.1	8.386
227.4	7.602
227.7	6.451
227.9	5.92
228.2	5.78
228.5	5.203
228.7	3.815
229	3.63
229.3	4.026
229.5	7.753
229.8	7.451
230	6.236
230.3	5.837
230.6	6.795
230.8	4.799
231.1	6.727
231.4	7.485
231.6	10.872
231.9	8.756
232.1	11.041
232.4	10.317
232.7	10.185
232.9	10.208
233.2	9.042
233.5	7.428
233.7	9.106
234	8.1
234.2	6.576
234.5	7.877
234.8	10.796
235	9.695
235.3	9.785
235.6	10.37
235.8	10.638
236.1	11.928
236.4	11.581
236.6	12.942
236.9	13.753
237.1	14.737
237.4	14.537
237.7	10.698
237.9	9.714
238.2	9.374
238.5	11.094
238.7	9.367
239	9.34
239.2	9.02
239.5	9.8
239.8	7.741
240	7.04
240.3	8.126
240.6	8.522
240.8	7.971
241.1	8.639
241.3	8.265
241.6	8.035
241.9	5.682
242.1	6.327
242.4	8.107
242.7	7.138
242.9	7.187
243.2	7.157
243.4	7.704
243.7	6.527
244	5.671
244.2	5.422
244.5	5.946
244.8	6.749
245	6.542
245.3	7.79
245.5	6.746
245.8	7.677
246.1	7.296
246.3	6.9
246.6	6.116
246.9	8.216
247.1	8.971
247.4	9.616
247.6	11.181
247.9	10.464
248.2	10.129
248.4	8.201
248.7	8.081
248.9	7.99
249.2	7.228
249.5	7.873
249.7	8.209
250	8.326
250.3	7.055
250.5	5.343
250.8	7.556
251	5.739
251.3	6.832
251.6	7.451
251.8	8.416
252.1	8.296
252.4	5.674
252.6	5.863
252.9	3.793
253.1	2.936
253.4	0.108
253.7	1.088
253.9	2.514
254.2	3.668
254.4	3.766
254.7	4.109
255	4.204
255.2	4.894
255.5	3.804
255.8	1.997
256	2.412
256.3	3.615
256.5	2.906
256.8	3.001
257.1	3.423
257.3	3.562
257.6	4.37
257.8	4.935
258.1	6.41
258.4	7.783
258.6	8.594
258.9	7.704
259.2	6.964
259.4	5.505
259.7	3.54
259.9	1.73
260.2	3.419
260.5	5.505
260.7	3.947
261	4.313
261.2	3.536
261.5	4.298
261.8	3.057
262	3.992
262.3	3.476
262.6	3.668
262.8	2.729
263.1	1.775
263.3	-0.386
263.6	1.047
263.9	0.293
264.1	-0.032
264.4	1.186
264.6	2.065
264.9	1.816
265.2	2.209
265.4	1.134
265.7	1.699
266	0.496
266.2	0.79
266.5	0.485
266.7	-0.318
267	-2.57
267.3	-1.661
267.5	-0.258
267.8	2.397
268	3.495
268.3	1.903
268.6	0.391
268.8	2.902
269.1	1.334
269.3	0.953
269.6	0.504
269.9	0.583
270.1	-1.985
270.4	-0.496
270.6	-0.382
270.9	-0.726
271.2	-1.306
271.4	-2.174
271.7	-4.026
272	-3.743
272.2	-2.691
272.5	-4.441
272.7	-3.328
273	-2.657
273.3	-1.755
273.5	0.587
273.8	-0.492
274	0.443
274.3	-1.356
274.6	-1.435
274.8	0.617
275.1	1.892
275.3	2.68
275.6	1.831
275.9	-0.266
276.1	0.217
276.4	0.681
276.6	2.107
276.9	0.315
277.2	2.85
277.4	3.317
277.7	6.225
277.9	6.787
278.2	7.243
278.5	7.492
278.7	8.107
279	7.839
279.2	7.726
279.5	8.571
279.8	9.759
280	10.581
280.3	9.001
280.5	8.428
280.8	7.059
281.1	5.852
281.3	5.991
281.6	4.475
281.9	6.297
282.1	6.448
282.4	6.5
282.6	7.56
282.9	6.606
283.2	5.799
283.4	4.931
283.7	4.603
283.9	4.781
284.2	5.373
284.5	4.249
284.7	3.125
285	2.499
285.2	0.172
285.5	1.454
285.8	-0.537
286	2.951
286.3	4.23
286.5	3.012
286.8	3.408
287.1	5.275
287.3	5.195
287.6	4.799
287.8	4.886
288.1	2.525
288.4	2.103
288.6	5.033
288.9	5.818
289.1	6.712
289.4	4.532
289.7	5.079
289.9	2.608
290.2	3.94
290.4	5.844
290.7	3.676
290.9	1.22
291.2	2.495
291.5	4.615
291.7	5.927
292	6.753
292.2	5.505
292.5	7.436
292.8	9.095
293	8.748
293.3	10.212
293.5	11.841
293.8	11.792
294.1	9.993
294.3	8.394
294.6	7.413
294.8	7.025
295.1	6.44
295.4	6.881
295.6	7.726
295.9	8.054
296.1	7.949
296.4	8.703
296.7	5.188
296.9	5.094
297.2	3.219
297.4	4.234
297.7	3.076
298	4.626
298.2	3.05
298.5	2.721
298.7	4.535
299	7.915
299.3	7.681
299.5	5.618
299.8	5.305
300	5.735
300.3	6.086
300.5	5.663
300.8	3.932
301.1	5.867
301.3	6.24
301.6	4.121
301.8	1.552
302.1	1.047
302.4	1.322
302.6	2.48
302.9	3.042
303.1	1.537
303.4	2.118
303.7	2.216
303.9	0.9
304.2	1.541
304.4	1.202
304.7	3.585
304.9	1.929
305.2	4.622
305.5	4.701
305.7	5.267
306	5.493
306.2	7.421
306.5	7.673
306.8	6.059
307	3.302
307.3	3.344
307.5	3.419
307.8	1.756
308.1	-0.533
308.3	0.236
308.6	-0.303
308.8	1.07
309.1	1.149
309.3	1.824
309.6	1.296
309.9	4.396
310.1	2.978
310.4	4.226
310.6	4.336
310.9	2.925
311.2	4.294
311.4	4.207
311.7	4.652
311.9	4.569
312.2	6.24
312.5	6.15
312.7	5.327
313	5.222
313.2	5.358
313.5	5.011
313.7	3.238
314	2.197
314.3	0.462
314.5	1.401
314.8	2.657
315	4.588
315.3	3.283
315.6	2.435
315.8	2.175
316.1	3.174
316.3	2.325
316.6	3.042
316.8	1.654
317.1	0.485
317.4	-1.725
317.6	-1.97
317.9	-3.064
318.1	-2.838
318.4	-3.652
318.6	-3.83
318.9	-3.882
319.2	-4.674
319.4	-5.331
319.7	-6.055
319.9	-5.783
320.2	-6.768
320.5	-5.813
320.7	-6.183
321	-6.134
321.2	-7.499
321.5	-6.734
321.7	-4.942
322	-4.007
322.3	-4.448
322.5	-5.131
322.8	-5.519
323	-6.507
323.3	-4.98
323.5	-3.954
323.8	-2.242
324.1	-1.974
324.3	-1.141
324.6	-2.227
324.8	-0.726
325.1	-1.559
325.4	-0.631
325.6	0.462
325.9	0.413
326.1	2.167
326.4	1.02
326.6	-0.292
326.9	1.002
327.2	1.36
327.4	2.333
327.7	3.042
327.9	3.917
328.2	4.437
328.4	3.974
328.7	6.218
329	7.123
329.2	7.783
329.5	6.614
329.7	6.636
330	6.768
330.2	7.832
330.5	8.809
330.8	7.647
331	8.726
331.3	7.67
331.5	7.873
331.8	6.255
332	5.418
332.3	3.212
332.6	3.604
332.8	2.982
333.1	4.973
333.3	5.776
333.6	5.75
333.8	6.331
334.1	5.354
334.4	5.539
334.6	5.659
334.9	4.241
335.1	4.403
335.4	3.061
335.6	3.83
335.9	2.035
336.2	0.425
336.4	0.353
336.7	-1.933
336.9	-0.828
337.2	-1.899
337.4	-1.578
337.7	-2.151
338	-5.18
338.2	-4.821
338.5	-7.616
338.7	-6.292
339	-5.904
339.2	-3.739
339.5	-4.901
339.8	-3.852
340	-3.241
340.3	-1.084
340.5	-0.364
340.8	2.005
341	0.994
341.3	-0.243
341.6	0.025
341.8	-0.1
342.1	-1.982
342.3	-1.763
342.6	-0.382
342.8	0.262
343.1	-0.179
343.4	-0.341
343.6	-2.298
343.9	-0.239
344.1	0.828
344.4	0.195
344.6	0.112
344.9	-0.413
345.1	-0.032
345.4	-0.646
345.7	0.13
345.9	2.454
346.2	1.017
346.4	1.024
346.7	-0.296
346.9	-0.548
347.2	-2.921
347.5	-1.906
347.7	-1.752
348	-2.955
348.2	-3.275
348.5	-3.411
348.7	-1.137
349	-0.537
349.2	0.911
349.5	0.741
349.8	0.41
350	1.318
350.3	1.862
350.5	1.643
350.8	2.258
351	2.231
351.3	3.321
351.6	2.518
351.8	1.779
352.1	1.711
352.3	2.646
352.6	2.812
352.8	1.714
353.1	1.756
353.3	2.171
353.6	0.76
353.9	0.112
354.1	-0.005
354.4	2.031
354.6	3.97
354.9	2.876
355.1	4.113
355.4	4.087
355.6	4.106
355.9	4.856
356.2	4.773
356.4	5.278
356.7	0.41
356.9	0.64
357.2	-0.281
357.4	-0.662
357.7	-0.613
358	2.288
358.2	2.19
358.5	1.56
358.7	-0.428
359	0.425
359.2	0.64
359.5	2.265
359.7	3.619
360	3.114
360.3	4.637
360.5	5.146
360.8	5.388
361	7.489
361.3	7.168
361.5	9.11
361.8	8.654
362	9.714
362.3	8.379
362.6	8.45
362.8	10.781
363.1	11.807
363.3	11.882
363.6	12.572
363.8	13.851
364.1	13.029
364.3	13.089
364.6	14.13
364.8	15.262
365.1	15.035
365.4	17.528
365.6	17.909
365.9	15.756
366.1	16.246
366.4	16.532
366.6	18.588
366.9	19.961
367.1	19.821
367.4	21.888
367.7	22.288
367.9	24.215
368.2	22.97
368.4	21.021
368.7	22.001
368.9	22.141
369.2	21.005
369.4	21.371
369.7	24.064
370	24.038
370.2	24.087
370.5	23.385
370.7	22.812
371	22.597
371.2	22.835
371.5	24.075
371.7	24.238
372	24.551
372.2	24.717
372.5	25.916
372.8	24.675
373	23.872
373.3	20.198
373.5	22.039
373.8	21.564
374	21.65
374.3	23.117
374.5	23.898
374.8	24.773
375	24.272
375.3	22.963
375.6	21.982
375.8	22.85
376.1	23.702
376.3	26.851
376.6	26.753
376.8	24.388
377.1	27.462
377.3	25.999
377.6	24.332
377.8	24.879
378.1	26.391
378.4	27.01
378.6	26.146
378.9	24.336
379.1	25.471
379.4	24.404
379.6	23.449
379.9	22.752
380.1	22.054
380.4	21.53
380.6	22.503
380.9	23.491
381.2	25.58
381.4	25.26
381.7	27.044
381.9	28.126
382.2	27.885
382.4	27.338
382.7	25.233
382.9	26.169
383.2	28.035
383.4	28.714
383.7	29.593
383.9	28.477
384.2	27.519
384.5	29.423
384.7	30.415
385	30.076
385.2	31.256
385.5	32.041
385.7	32.184
386	32.855
386.2	33.47
386.5	33.406
386.7	35.68
387	35.526
387.2	36.978
387.5	39.652
387.8	42.258
388	44.166
388.3	44.954
388.5	45.92
388.8	47.986
389	48.929
389.3	48.413
389.5	47.828
389.8	49.14
390	48.59
390.3	48.873
390.5	49.506
390.8	52.003
391.1	51.147
391.3	51.418
391.6	50.313
391.8	52.135
392.1	52.886
392.3	54.345
392.6	56.072
392.8	57.189
393.1	61.292
393.3	64.098
393.6	65.135
393.8	65.814
394.1	67.952
394.4	70.902
394.6	72.497
394.9	74.394
395.1	75.152
395.4	74.632
395.6	76.521
395.9	76.702
396.1	77.6
396.4	78.912
396.6	79.863
396.9	80.549
397.1	82.16
397.4	85.486
397.6	85.392
397.9	87.956
398.2	90.721
398.4	94.526
398.7	95.835
398.9	97.079
399.2	99.414
399.4	101.888
399.7	102.767
399.9	103.849
400.2	103.679
400.4	105.135
400.7	107.168
400.9	106.395
401.2	107.187
401.4	109.099
401.7	109.763
401.9	109.533
402.2	107.971
402.5	108.514
402.7	106.323
403	106.557
403.2	108.567
403.5	108.729
403.7	110.083
404	111.977
404.2	111.897
404.5	114.338
404.7	116.412
405	118.392
405.2	118.614
405.5	120.447
405.7	122.065
406	123.306
406.2	123.947
406.5	125.727
406.7	126.029
407	126.029
407.3	126.244
407.5	127.651
407.8	128.409
408	128.394
408.3	129.465
408.5	130.423
408.8	129.227
409	130.66
409.3	130.574
409.5	133.195
409.8	133.444
410	136.431
410.3	137.268
410.5	142.812
410.8	142.91
411	143.83
411.3	144.705
411.5	146.229
411.8	146.154
412	146.64
412.3	147.745
412.6	149.465
412.8	148.533
413.1	147.896
413.3	148.103
413.6	147.609
413.8	146.851
414.1	145.505
414.3	144.8
414.6	146.346
414.8	145.429
415.1	145.316
415.3	144.984
415.6	147.274
415.8	147.783
416.1	147.655
416.3	146.636
416.6	149.835
416.8	149.186
417.1	151.871
417.3	148.922
417.6	150.562
417.8	150.785
418.1	151.162
418.4	150.355
418.6	152.49
418.9	152.373
419.1	153.074
419.4	152.674
419.6	153.504
419.9	154.786
420.1	152.58
420.4	151.728
420.6	152.365
420.9	151.452
421.1	151.06
421.4	152.203
421.6	152.203
421.9	152.546
422.1	151.2
422.4	150.762
422.6	152.226
422.9	151.192
423.1	151.46
423.4	151.645
423.6	152.739
423.9	154.258
424.1	155.552
424.4	153.218
424.6	151.769
424.9	150.215
425.1	150.74
425.4	149.307
425.6	150.283
425.9	148.971
426.2	148.507
426.4	147.674
426.7	147.545
426.9	145.69
427.2	143.419
427.4	141.311
427.7	140.278
427.9	138.973
428.2	138.584
428.4	139.833
428.7	140.862
428.9	143.008
429.2	144.343
429.4	145.301
429.7	145.407
429.9	143.683
430.2	143.566
430.4	144.249
430.7	146.821
430.9	147.017
431.2	145.852
431.4	145.441
431.7	144.901
431.9	143.747
432.2	145.95
432.4	147.523
432.7	147.308
432.9	150.042
433.2	153.15
433.4	152.388
433.7	154.945
433.9	154.971
434.2	154.734
434.4	154.583
434.7	156.797
434.9	159.704
435.2	160.033
435.4	160.398
435.7	162.22
435.9	162.616
436.2	163.223
436.4	164.034
436.7	162.774
436.9	160.568
437.2	160.3
437.4	162.212
437.7	166.063
437.9	167.624
438.2	167.093
438.4	167.79
438.7	168.88
438.9	169.616
439.2	169.107
439.4	167.617
439.7	169.363
439.9	169.876
440.2	169.431
440.5	171.626
440.7	171.245
441	170.762
441.2	172.558
441.5	171.788
441.7	171.713
442	172.98
442.2	173.21
442.5	172.863
442.7	174.16
443	176.457
443.2	177.966
443.5	177.562
443.7	178.573
444	177.494
444.2	178.728
444.5	180.417
444.7	183.035
445	183.985
445.2	183.54
445.5	183.136
445.7	183.834
446	184.517
446.2	184.913
446.5	186.218
446.7	187.839
447	189.752
447.2	192.882
447.5	195.183
447.7	194.523
448	195.149
448.2	195.797
448.5	196.981
448.7	198.264
449	198.041
449.2	199.637
449.5	201.409
449.7	201.198
450	201.975
450.2	204.193
450.5	204
450.7	206.022
451	205.995
451.2	208.752
451.5	209.133
451.7	212.135
452	214.741
452.2	215.183
452.5	215.454
452.7	216.925
452.9	218.713
453.2	219.52
453.4	222.416
453.7	224.92
453.9	225.505
454.2	225.973
454.4	225.961
454.7	227.911
454.9	227.919
455.2	227.1
455.4	229.065
455.7	232.384
455.9	232.358
456.2	233.685
456.4	234.722
456.7	235.688
456.9	236.076
457.2	236.601
457.4	240.742
457.7	245.019
457.9	246.256
458.2	248.039
458.4	248.782
458.7	251.106
458.9	251.505
459.2	252.923
459.4	255.673
459.7	257.295
459.9	257.826
460.2	258.392
460.4	258.95
460.7	262.179
460.9	264.947
461.2	263.687
461.4	264.449
461.7	267.327
461.9	268.899
462.2	270.072
462.4	270.612
462.7	273.599
462.9	274.489
463.2	275.533
463.4	274.896
463.7	277.841
463.9	279.12
464.2	280.184
464.4	282.066
464.7	284.762
464.9	285.822
465.2	286.139
465.4	286.09
465.7	288.552
465.9	291.336
466.2	293.112
466.4	294.983
466.6	296.891
466.9	296.778
467.1	295.13
467.4	295.488
467.6	298.494
467.9	300.267
468.1	301.824
468.4	301.315
468.6	301.722
468.9	303.702
469.1	305.652
469.4	306.324
469.6	307.806
469.9	309.827
470.1	313.176
470.4	312.207
470.6	315.718
470.9	319.754
471.1	323.254
471.4	323.684
471.6	325.298
471.9	328.19
472.1	330.861
472.4	332.184
472.6	336.095
472.9	337.08
473.1	340.048
473.4	341.56
473.6	342.714
473.9	343.582
474.1	346.659
474.3	349.103
474.6	355.115
474.8	357.423
475.1	360.108
475.3	361.696
475.6	364.449
475.8	368.153
476.1	371.83
476.3	374.07
476.6	377.77
476.8	380.218
477.1	385.271
477.3	389.22
477.6	393.776
477.8	396.276
478.1	401.089
478.3	404.276
478.6	408.153
478.8	410.604
479.1	413.708
479.3	416.246
479.6	419.742
479.8	422.669
480.1	427.112
480.3	430.634
480.5	435.168
480.8	435.488
481	439.531
481.3	442.058
481.5	446.177
481.8	446.312
482	450.382
482.3	450.171
482.5	451.611
482.8	452.675
483	454.693
483.3	457.027
483.5	461.029
483.8	462.413
484	464.634
484.3	465.396
484.5	469.107
484.8	471.042
485	472.177
485.2	472.656
485.5	476.145
485.7	478.223
486	480.199
486.2	481.417
486.5	484.932
486.7	487.708
487	492.237
487.2	493.942
487.5	497.265
487.7	500.274
488	500.561
488.2	501.342
488.5	504.551
488.7	504.713
489	506.829
489.2	508.375
489.5	512.418
489.7	515.055
489.9	517.359
490.2	521.1
490.4	525.17
490.7	529.118
490.9	532.392
491.2	533.071
491.4	536.989
491.7	541.862
491.9	545.532
492.2	546.746
492.4	548.006
492.7	551.634
492.9	556.02
493.2	557.88
493.4	558.747
493.6	560.127
493.9	561.768
494.1	561.681
494.4	563.869
494.6	564.234
494.9	564.148
495.1	563.454
495.4	564.272
495.6	566.716
495.9	569.545
496.1	572.811
496.4	575.609
496.6	578.253
496.9	582.733
497.1	583.51
497.3	582.865
497.6	585.042
497.8	587.742
498.1	586.411
498.3	586.61
498.6	585.174
498.8	585.392
499.1	585.932
499.3	586.135
499.6	587.708
499.8	588.032
500.1	585.95
500.3	585.686
500.6	584.185
500.8	582.715
501	584.959
501.3	583.993
501.5	582.534
501.8	584.283
502	585.668
502.3	584.604
502.5	584.415
502.8	586.294
503	588.002
503.3	587.082
503.5	585.807
503.8	585.362
504	584.174
504.2	585.098
504.5	582.36
504.7	583.412
505	583.627
505.2	585.207
505.5	585.615
505.7	587.655
506	587.738
506.2	590.046
506.5	589.703
506.7	587.938
506.9	586.72
507.2	586.271
507.4	584.502
507.7	587.146
507.9	587.221
508.2	589.428
508.4	589.16
508.7	588.775
508.9	589.175
509.2	590.363
509.4	590.216
509.7	588.221
509.9	589.262
510.1	589.707
510.4	587.836
510.6	583.729
510.9	584.525
511.1	584.864
511.4	584.491
511.6	584.574
511.9	581.285
512.1	579.98
512.4	579.403
512.6	577.789
512.8	573.689
513.1	569.247
513.3	566.143
513.6	562.756
513.8	560.056
514.1	557.348
514.3	553.799
514.6	552.041
514.8	547.7
515.1	547.063
515.3	543.016
515.5	540.817
515.8	537.789
516	535.734
516.3	532.275
516.5	529.19
516.8	525.962
517	522.141
517.3	520.346
517.5	518.343
517.7	516.145
518	513.972
518.2	512.098
518.5	509.326
518.7	506.938
519	503.518
519.2	500.44
519.5	498.302
519.7	495.447
520	492.279
520.2	491.151
520.4	491.845
520.7	493.727
520.9	493.425
521.2	493.403
521.4	492.166
521.7	493.373
521.9	493.271
522.2	489.314
522.4	490.634
522.6	488.779
522.9	488.059
523.1	485.796
523.4	483.284
523.6	480.35
523.9	479.927
524.1	478.747
524.4	476.333
524.6	473.456
524.8	470.084
525.1	466.886
525.3	465.973
525.6	464.977
525.8	465.841
526.1	464.374
526.3	463.344
526.6	461.451
526.8	459.38
527	460.542
527.3	459.844
527.5	458.287
527.8	456.869
528	452.792
528.3	451.487
528.5	449.594
528.8	446.433
529	444.544
529.2	443.623
529.5	441.643
529.7	443.725
530	441.308
530.2	441.432
530.5	438.475
530.7	437.25
531	435.439
531.2	435.903
531.4	433.531
531.7	434.289
531.9	433.584
532.2	434.451
532.4	434.553
532.7	434.655
532.9	432.316
533.2	430.122
533.4	427.429
533.6	425.554
533.9	422.356
534.1	421.093
534.4	420.825
534.6	420.485
534.9	418.702
535.1	417.514
535.3	416.046
535.6	416.574
535.8	412.645
536.1	412.494
536.3	413.297
536.6	413.572
536.8	411.385
537.1	410.763
537.3	408.356
537.5	407.297
537.8	405.079
538	406.014
538.3	403.804
538.5	403.001
538.8	401.934
539	401.047
539.2	399.094
539.5	398.66
539.7	398.517
540	397.559
540.2	398.17
540.5	397.883
540.7	398.06
540.9	397.151
541.2	397.434
541.4	401.059
541.7	404.321
541.9	404.483
542.2	400.719
542.4	400.644
542.7	400.595
542.9	400.9
543.1	401.183
543.4	404.072
543.6	403.699
543.9	403.265
544.1	402.017
544.4	401.379
544.6	401.549
544.8	401.986
545.1	401.877
545.3	402.345
545.6	402.628
545.8	404.883
546.1	405.158
546.3	405.456
546.5	406.32
546.8	408.1
547	409.277
547.3	408.907
547.5	409.062
547.8	407.919
548	407.919
548.2	409.152
548.5	408.93
548.7	408.896
549	406.082
549.2	405.758
549.5	405.09
549.7	405.43
549.9	405.038
550.2	404.008
550.4	403.917
550.7	403.785
550.9	399.98
551.2	400.934
551.4	400.9
551.6	401.624
551.9	402.503
552.1	402.281
552.4	402.405
552.6	400.666
552.9	401.04
553.1	399.392
553.3	398.683
553.6	398.147
553.8	396.835
554.1	398.121
554.3	395.13
554.5	391.702
554.8	388.866
555	386.98
555.3	384.883
555.5	384.332
555.8	381.059
556	380.187
556.2	377.155
556.5	376.616
556.7	372.475
557	371.536
557.2	370.231
557.5	370.367
557.7	371.721
557.9	368.59
558.2	366.795
558.4	368.273
558.7	363.744
558.9	363.099
559.2	360.961
559.4	358.815
559.6	358.343
559.9	357.683
560.1	355.688
560.4	355.224
560.6	354.542
560.8	353.486
561.1	352.369
561.3	352.705
561.6	349.771
561.8	349.382
562.1	348.767
562.3	349.035
562.5	349.476
562.8	351.596
563	349.831
563.3	351.053
563.5	350.186
563.7	349.963
564	347.576
564.2	347.866
564.5	346.693
564.7	347.613
565	347.463
565.2	344.815
565.4	345.871
565.7	347.621
565.9	345.622
566.2	347.082
566.4	345.275
566.6	347.116
566.9	347.96
567.1	348.53
567.4	347.15
567.6	349.356
567.9	347.998
568.1	349.065
568.3	348.141
568.6	349.201
568.8	349.231
569.1	348.571
569.3	348.387
569.5	348.798
569.8	350.623
570	350.612
570.3	350.208
570.5	351.343
570.7	351.14
571	352.912
571.2	354.187
571.5	355.903
571.7	355.364
572	356.797
572.2	355.677
572.4	356.574
572.7	358.09
572.9	359.55
573.2	357.864
573.4	357.551
573.6	358.124
573.9	359.757
574.1	358.004
574.4	355.945
574.6	355.997
574.8	356.341
575.1	356.518
575.3	356.925
575.6	356.782
575.8	357.517
576	356.91
576.3	356.31
576.5	360.108
576.8	362.563
577	364.823
577.3	366.361
577.5	367.048
577.7	368.168
578	369.729
578.2	370.657
578.5	370.148
578.7	372.203
578.9	374.764
579.2	377.027
579.4	377.977
579.7	379.554
579.9	379.505
580.1	381.104
580.4	382.579
580.6	385.105
580.9	389.952
581.1	391.619
581.3	392.679
581.6	392.841
581.8	395.963
582.1	397.193
582.3	399.78
582.5	402.167
582.8	405.294
583	407.708
583.3	411.751
583.5	412.761
583.7	415.952
584	415.081
584.2	416.556
584.5	417.615
584.7	417.71
584.9	419.433
585.2	419.015
585.4	418.713
585.7	417.887
585.9	417.016
586.1	415.956
586.4	413.712
586.6	413.58
586.9	412.388
587.1	412.117
587.3	412.437
587.6	412.283
587.8	411.328
588.1	411.287
588.3	408.979
588.5	408.764
588.8	408.368
589	409.582
589.3	409.812
589.5	409.167
589.7	411.042
590	411.027
590.2	410.981
590.5	410.846
590.7	409.19
590.9	411.204
591.2	410.314
591.4	410.808
591.7	412.626
591.9	415.07
592.1	416.22
592.4	418.049
592.6	419.03
592.9	421.319
593.1	424.544
593.3	427.908
593.6	431.057
593.8	434.7
594.1	437.272
594.3	441.338
594.5	443.601
594.8	445.848
595	449.224
595.3	452.682
595.5	456.458
595.7	460.406
596	464.408
596.2	467.666
596.4	474.266
596.7	477.555
596.9	481.598
597.2	481.523
597.4	485.422
597.6	487.568
597.9	490.027
598.1	493.965
598.4	497.532
598.6	501.99
598.8	505.158
599.1	506.113
599.3	509.386
599.6	512
599.8	515.454
600	519.769
600.3	523.559
600.5	525.879
600.7	529.563
601	533.493
601.2	536.126
601.5	538.445
601.7	540.795
601.9	544.449
602.2	547.225
602.4	548.183
602.7	548.756
602.9	549.612
603.1	551.046
603.4	552.411
603.6	554.685
603.9	553.501
604.1	553.923
604.3	554.832
604.6	556.386
604.8	555.718
605	556.861
605.3	556.612
605.5	556.477
605.8	554.519
606	554.508
606.2	554.134
606.5	553.467
606.7	550.02
607	548.885
607.2	546.452
607.4	543.009
607.7	540.591
607.9	538.807
608.1	538.457
608.4	535.5
608.6	533.84
608.9	532.83
609.1	530.257
609.3	527.663
609.6	526.214
609.8	524.932
610.1	522.643
610.3	518.954
610.5	516.163
610.8	512.69
611	510.668
611.2	508.575
611.5	506.784
611.7	504.627
612	502.722
612.2	500.58
612.4	498.06
612.7	495.771
612.9	495.009
613.1	492.618
613.4	490.423
613.6	488.081
613.9	486.999
614.1	485.109
614.3	483.646
614.6	482.703
614.8	483.08
615	482.19
615.3	481.304
615.5	479.079
615.8	475.971
616	475.217
616.2	473.934
616.5	474.625
616.7	474.926
616.9	472.86
617.2	471.577
617.4	472.154
617.7	471.785
617.9	470.412
618.1	468.873
618.4	467.651
618.6	465.498
618.8	466.248
619.1	466.735
619.3	466.384
619.6	465.279
619.8	464.046
620	464.253
620.3	462.911
620.5	463.352
620.7	461.685
621	460.086
621.2	457.796
621.5	456.838
621.7	456.541
621.9	454.504
622.2	451.939
622.4	451.43
622.6	450.318
622.9	447.987
623.1	449.767
623.4	447.915
623.6	446.407
623.8	444.585
624.1	441.911
624.3	441.379
624.5	440.761
624.8	439.411
625	438.211
625.3	438.083
625.5	438.275
625.7	437.891
626	436.341
626.2	433.972
626.4	431.083
626.7	429.205
626.9	429.111
627.1	428.111
627.4	426.671
627.6	424.378
627.9	422.895
628.1	421.507
628.3	420.938
628.6	420.9
628.8	421.956
629	420.353
629.3	420.776
629.5	421.398
629.8	419.049
630	418.886
630.2	418.106
630.5	416.386
630.7	415.153
630.9	414.361
631.2	412.682
631.4	411.645
631.6	410.106
631.9	408.202
632.1	407.036
632.4	407.448
632.6	406.603
632.8	406.674
633.1	405.807
633.3	407.27
633.5	406.844
633.8	407.082
634	408.289
634.2	408.485
634.5	408.394
634.7	409.824
635	409.296
635.2	409.571
635.4	411.645
635.7	414.289
635.9	413.482
636.1	412.875
636.4	412.629
636.6	409.854
636.8	409.122
637.1	409.68
637.3	409.228
637.5	409.201
637.8	408.926
638	409.228
638.3	408.651
638.5	409.473
638.7	408.809
639	410.54
639.2	411.89
639.4	411.253
639.7	409.725
639.9	408.243
640.1	409.752
640.4	411.211
640.6	409.593
640.9	409.326
641.1	410.37
641.3	408.579
641.6	407.387
641.8	407.289
642	404.155
642.3	403.45
642.5	402.922
642.7	399.267
643	398.132
643.2	395.447
643.4	393.025
643.7	391.89
643.9	391.581
644.1	389.831
644.4	389.477
644.6	387.655
644.9	387.104
645.1	385.826
645.3	383.167
645.6	380.896
645.8	377.434
646	377.431
646.3	373.946
646.5	371.743
646.7	371.589
647	370.235
647.2	368.62
647.4	365.335
647.7	361.836
647.9	362.017
648.1	361.564
648.4	358.192
648.6	356.914
648.9	355.85
649.1	355.888
649.3	357.072
649.6	356.895
649.8	355.813
650	355.36
650.3	352.671
650.5	354.24
650.7	353.682
651	352.282
651.2	353.044
651.4	351.762
651.7	349.552
651.9	348.783
652.1	347.466
652.4	347.036
652.6	347.7
652.8	347.696
653.1	347.53
653.3	344.977
653.5	344.08
653.8	342.069
654	341.692
654.3	340.176
654.5	340.519
654.7	338.124
655	336.046
655.2	334.281
655.4	332.177
655.7	333.599
655.9	334.617
656.1	335.356
656.4	333.071
656.6	330.981
656.8	335.496
657.1	336.454
657.3	336.171
657.5	334.534
657.8	335.386
658	335.892
658.2	337.121
658.5	335.737
658.7	336.676
658.9	337.261
659.2	336.45
659.4	335.711
659.6	335.65
659.9	336.122
660.1	335.914
660.3	336.084
660.6	336.367
660.8	337.347
661	338.479
661.3	337.393
661.5	337.728
661.8	337.834
662	337.672
662.2	339.422
662.5	338.867
662.7	339.927
662.9	338.177
663.2	337.359
663.4	333.64
663.6	332.716
663.9	333.836
664.1	328.379
664.3	327.587
664.6	328.036
664.8	327.187
665	326.169
665.3	325.667
665.5	324.389
665.7	326.214
666	325.886
666.2	324.645
666.4	325.275
666.7	324.954
666.9	323.733
667.1	323.299
667.4	323.951
667.6	323.555
667.8	323.789
668.1	322.997
668.3	321.911
668.5	322.232
668.8	321.956
669	320.742
669.2	323.054
669.5	322.205
669.7	322.658
669.9	320.606
670.2	319.671
670.4	317.943
670.6	319.459
670.9	319.731
671.1	316.97
671.3	316.948
671.6	314.545
671.8	314.41
672	315.356
672.3	315.22
672.5	315.831
672.7	314.364
673	313.931
673.2	312.35
673.4	314.338
673.7	313.67
673.9	313.455
674.1	312.746
674.4	311.17
674.6	309.752
674.8	309.91
675.1	308.767
675.3	307.3
675.5	308.153
675.8	306.848
676	307.036
676.2	308.59
676.5	306.501
676.7	306.987
676.9	305.524
677.2	304.834
677.4	304.792
677.6	305.086
677.9	304.332
678.1	303.876
678.3	305.252
678.5	303.186
678.8	302.099
679	301.232
679.2	300.519
679.5	299.791
679.7	297.306
679.9	298.219
680.2	295.56
680.4	297.314
680.6	293.897
680.9	293.757
681.1	293.142
681.3	294.613
681.6	294.221
681.8	293.938
682	291.947
682.3	293.738
682.5	294.108
682.7	292.086
683	290.084
683.2	286.704
683.4	283.533
683.7	279.935
683.9	278.475
684.1	276.435
684.4	275.081
684.6	271.645
684.8	267.515
685.1	264.6
685.3	261.801
685.5	259.757
685.7	257.864
686	256.597
686.2	254.243
686.4	252.199
686.7	248.809
686.9	247.263
687.1	244.404
687.4	242.597
687.6	239.116
687.8	238.083
688.1	236.838
688.3	234.198
688.5	231.17
688.8	232.131
689	229.525
689.2	230.446
689.5	226.603
689.7	224.973
689.9	222.386
690.2	221.594
690.4	222.284
690.6	220.968
690.8	221.5
691.1	219.705
691.3	219.048
691.5	218.995
691.8	218.765
692	221.3
692.2	223.895
692.5	223.698
692.7	223.023
692.9	223.197
693.2	222.363
693.4	222.352
693.6	222.612
693.9	223.197
694.1	224.581
694.3	226.289
694.5	226.991
694.8	226.768
695	227.078
695.2	225.49
695.5	225.577
695.7	225.173
695.9	224.611
696.2	224.457
696.4	222.808
696.6	223.159
696.9	222.514
697.1	225.758
697.3	227.538
697.6	227.127
697.8	227.621
698	228.722
698.2	227.632
698.5	229.171
698.7	229.212
698.9	230.148
699.2	229.574
699.4	226.414
699.6	227.081
699.9	225.332
700.1	225.275
700.3	226.652
700.6	226.704
700.8	227.643
701	227.907
701.2	227.176
701.5	226.406
701.7	225.924
701.9	224.883
702.2	225.754
702.4	226.776
702.6	227.04
702.9	226.478
703.1	224.389
703.3	225.837
703.6	225.758
703.8	225.505
704	225.592
704.2	222.658
704.5	221.884
704.7	222.846
704.9	223.608
705.2	222.631
705.4	224.042
705.6	224.17
705.9	224.947
706.1	225.901
706.3	225.448
706.5	225.233
706.8	225.354
707	226.817
707.2	227.334
707.5	227.345
707.7	226.508
707.9	225.641
708.2	224.128
708.4	222.808
708.6	221.315
708.8	220.821
709.1	221.239
709.3	219.395
709.5	218.83
709.8	219.207
710	220.73
710.2	219.803
710.5	219.037
710.7	218.064
710.9	218.392
711.1	217.694
711.4	218.064
711.6	216.793
711.8	216.668
712.1	215.658
712.3	215.175
712.5	214.9
712.8	214.326
713	210.249
713.2	207.715
713.4	206.312
713.7	204.577
713.9	202.163
714.1	201.481
714.4	198.339
714.6	194.353
714.8	191.166
715.1	188.439
715.3	186.682
715.5	183.804
715.7	180.975
716	176.582
716.2	172.388
716.4	169.484
716.7	165.69
716.9	163.608
717.1	158.63
717.3	157.389
717.6	154.447
717.8	152.229
718	149.103
718.3	147.01
718.5	145.192
718.7	144.472
718.9	142.088
719.2	139.769
719.4	139.395
719.6	135.567
719.9	132.942
720.1	133.598
720.3	131.535
720.6	128.292
720.8	127.564
721	127.289
721.2	124.871
721.5	123.642
721.7	123.864
721.9	123.947
722.2	122.869
722.4	122.495
722.6	123.702
722.8	124.736
723.1	127.262
723.3	130.065
723.5	130.283
723.8	131.279
724	129.337
724.2	129.099
724.4	130.155
724.7	132.248
724.9	132.508
725.1	132.822
725.4	134.157
725.6	132.18
725.8	130.917
726	129.929
726.3	127.564
726.5	125.418
726.7	125.056
727	122.48
727.2	121.047
727.4	121.273
727.6	122.156
727.9	122.774
728.1	121.813
728.3	121.862
728.6	124.223
728.8	125
729	124.72
729.2	126.829
729.5	126.889
729.7	126.61
729.9	127.44
730.2	127.572
730.4	128.073
730.6	129.05
730.8	128.062
731.1	129.978
731.3	131.905
731.5	130.419
731.7	128.194
732	129.386
732.2	129.842
732.4	129.141
732.7	131.324
732.9	131.249
733.1	131.577
733.3	132.984
733.6	134.319
733.8	135.658
734	140.836
734.3	142.273
734.5	145.388
734.7	147.115
734.9	146.237
735.2	149.031
735.4	149.789
735.6	149.092
735.9	150.694
736.1	152.607
736.3	153.278
736.5	153.466
736.8	154.108
737	153.01
737.2	152.614
737.4	151.09
737.7	151.403
737.9	155.231
738.1	154.157
738.4	153.862
738.6	154.556
738.8	156.231
739	154.202
739.3	154.93
739.5	154.79
739.7	154.221
739.9	157.721
740.2	159.127
740.4	159.893
740.6	158.875
740.9	159.184
741.1	157.645
741.3	156.759
741.5	154.53
741.8	153.847
742	155.722
742.2	155.71
742.4	155.001
742.7	155.152
742.9	153.915
743.1	152.116
743.4	149.729
743.6	150.065
743.8	148.62
744	150.461
744.3	151.053
744.5	150.845
744.7	150.819
744.9	149.714
745.2	152.173
745.4	151.087
745.6	150.363
745.8	149.182
746.1	150.672
746.3	151.815
746.5	153.41
746.8	152.501
747	150.819
747.2	151.151
747.4	152.92
747.7	153.104
747.9	153.108
748.1	150.547
748.3	152.226
748.6	152.41
748.8	150.826
749	149.239
749.2	147.179
749.5	147.277
749.7	147.953
749.9	147.877
750.2	150.521
750.4	151.068
750.6	150.446
750.8	150.11
751.1	148.801
751.3	147.432
751.5	149.099
751.7	149.499
752	148.462
752.2	147.296
752.4	147.651
752.6	147.428
752.9	147.191
753.1	145.66
753.3	145.018
753.5	143.51
753.8	144.057
754	141.975
754.2	140.41
754.4	137.868
754.7	137.294
754.9	136.057
755.1	137.313
755.4	136.182
755.6	136.465
755.8	137.046
756	135.039
756.3	133.04
756.5	130.396
756.7	125.46
756.9	122.654
757.2	117.242
757.4	113.297
757.6	108.281
757.8	104.879
758.1	102.639
758.3	100.56
758.5	95.646
758.7	90.332
759	84.419
759.2	82.197
759.4	78.92
759.6	76.763
759.9	73.312
760.1	70.887
760.3	65.803
760.5	62.45
760.8	58.803
761	56.148
761.2	53.534
761.4	52.723
761.7	50.517
761.9	49.936
762.1	45.848
762.3	43.363
762.6	39.704
762.8	38.139
763	37.159
763.2	38.973
763.5	39.768
763.7	39.885
763.9	40.945
764.1	41.873
764.4	43.427
764.6	46.361
764.8	49.416
765	48.978
765.3	48.79
765.5	50.004
765.7	51.89
765.9	55.578
766.2	55.986
766.4	57.879
766.6	57.355
766.8	59.584
767.1	61.549
767.3	63.759
767.5	66.014
767.7	67.926
768	69.755
768.2	71.75
768.4	72.007
768.6	72.667
768.9	71.407
769.1	74.149
769.3	75.963
769.5	76.646
769.8	78.418
770	80.84
770.2	79.595
770.4	80.923
770.7	82.341
770.9	83.193
771.1	82.997
771.3	84.702
771.6	84.947
771.8	85.033
772	84.69
772.2	84.136
772.5	84.871
772.7	85.414
772.9	83.864
773.1	82.337
773.4	82.967
773.6	84.445
773.8	82.91
774	82.084
774.3	81.171
774.5	79.735
774.7	79.203
774.9	78.769
775.2	77.611
775.4	78.003
775.6	77.468
775.8	78.531
776	79.21
776.3	77.785
776.5	78.022
776.7	76.457
776.9	76.393
777.2	76.054
777.4	74.1
777.6	73.704
777.8	73.244
778.1	73.968
778.3	72.184
778.5	71.471
778.7	70.996
779	70.408
779.2	71.773
779.4	71.509
779.6	70.792
779.9	70.359
780.1	71.196
780.3	69.684
780.5	67.372
780.7	66.991
781	67.172
781.2	68.228
781.4	66.836
781.6	67.164
781.9	67.477
782.1	65.822
782.3	64.505
782.5	64.098
782.8	63.351
783	63.578
783.2	62.861
783.4	62.85
783.7	61.847
783.9	59.648
784.1	58.09
784.3	56.996
784.5	56.152
784.8	52.723
785	50.86
785.2	50.004
785.4	49.921
785.7	47.828
785.9	48.812
786.1	48.311
786.3	47.828
786.6	47.877
786.8	48.469
787	48.416
787.2	49.57
787.4	49.77
787.7	50.634
787.9	49.748
788.1	49.076
788.3	49.555
788.6	48.024
788.8	45.018
789	44.023
789.2	42.884
789.5	41.681
789.7	39.636
789.9	37.275
790.1	35.967
790.3	35.473
790.6	36.253
790.8	36.291
791	37.524
791.2	39.489
791.5	40.9
791.7	41.805
791.9	42.401
792.1	42.299
792.3	40.76
792.6	40.779
792.8	38.626
793	39.286
793.2	39.308
793.5	38.58
793.7	38.516
793.9	37.223
794.1	35.322
794.3	35.269
794.6	35.337
794.8	35.148
795	34.5
795.2	34.013
795.5	34.175
795.7	34.488
795.9	36.042
796.1	35.288
796.3	35.507
796.6	38.015
796.8	37.581
797	40.044
797.2	40.587
797.5	41.088
797.7	41.639
797.9	39.576
798.1	39.67
798.3	47.168
798.6	47.311
798.8	48.605
799	48.722
799.2	49.156
799.5	49.997
799.7	50.902
799.9	49.589
800.1	47.164
800.3	47.251
800.6	47.157
800.8	47.296
801	47.813
801.2	47.666
801.5	47.858
801.7	46.542
801.9	46.583
802.1	47.213
802.3	47.545
802.6	47.828
802.8	46.233
803	47.409
803.2	48.594
803.4	46.387
803.7	47.413
803.9	46.037
804.1	45.12
804.3	44.079
804.6	44.158
804.8	46.093
805	44.207
805.2	34.85
805.4	34.673
805.7	32.818
805.9	31.588
806.1	32.984
806.3	32.825
806.5	32.229
806.8	29.876
807	31.822
807.2	31.856
807.4	31.441
807.6	28.431
807.9	27.398
808.1	28.322
808.3	27.583
808.5	30.389
808.8	30.626
809	29.684
809.2	31.32
809.4	31.682
809.6	31.675
809.9	30.445
810.1	29.367
810.3	30.008
810.5	29.668
810.7	27.847
811	26.214
811.2	24.999
811.4	23.423
811.6	22.103
811.8	21.877
812.1	21.662
812.3	21.307
812.5	21.005
812.7	20.308
812.9	19.64
813.2	19.678
813.4	18.682
813.6	19.995
813.8	18.494
814	17.242
814.3	16.468
814.5	19.569
814.7	17.947
814.9	15.111
815.2	14.651
815.4	13.3
815.6	11.833
815.8	10.132
816	8.103
816.3	8.137
816.5	7.01
816.7	7.507
816.9	6.614
817.1	6.832
817.4	4.577
817.6	5.271
817.8	5.086
818	5.116
818.2	5.437
818.5	4.007
818.7	2.748
818.9	1.858
819.1	2.42
819.3	2.224
819.6	3.891
819.8	4.799
820	3.133
820.2	2.582
820.4	2.759
820.7	2.703
820.9	3.796
821.1	4.649
821.3	2.831
821.5	4.769
821.8	6.648
822	5.829
822.2	5.731
822.4	5.644
822.6	6.697
822.9	7.006
823.1	5.35
823.3	6.225
823.5	5.192
823.7	6.689
823.9	4.735
824.2	5.067
824.4	4.683
824.6	5.716
824.8	4.826
825	4.728
825.3	4.403
825.5	5.591
825.7	6.376
825.9	5.437
826.1	5.395
826.4	4.453
826.6	1.888
826.8	1.251
827	2.435
827.2	2.559
827.5	3.193
827.7	3.661
827.9	3.54
828.1	4.969
828.3	5.241
828.6	5.105
828.8	5.995
829	4.215
829.2	4.287
829.4	5.773
829.6	5.26
829.9	5.825
830.1	5.644
830.3	5.49
830.5	5.06
830.7	6.429
831	6.738
831.2	6.942
831.4	6.342
831.6	6.87
831.8	6.357
832.1	7.153
832.3	6.945
832.5	7.934
832.7	6.844
832.9	7.504
833.1	7.843
833.4	8.386
833.6	10.313
833.8	11.754
834	10.936
834.2	11.705
834.5	10.415
834.7	8.382
834.9	7.123
835.1	5.701
835.3	4.811
835.5	4.068
835.8	5.331
836	6.433
836.2	5.135
836.4	5.897
836.6	4.713
836.9	4.645
837.1	4.799
837.3	4.445
837.5	2.997
837.7	2.439
837.9	1.812
838.2	2.91
838.4	2.337
838.6	4.238
838.8	5.018
839	4.094
839.3	3.8
839.5	5.739
839.7	4.66
839.9	4.445
840.1	4.479
840.3	5.878
840.6	3.351
840.8	4.784
841	3.317
841.2	3.668
841.4	4.634
841.7	5.456
841.9	5.203
842.1	5.309
842.3	6.244
842.5	5.923
842.7	6.376
843	5.686
843.2	2.895
843.4	5.723
843.6	5.837
843.8	6.723
844	6.934
844.3	7.036
844.5	6.844
844.7	6.101
844.9	5.373
845.1	5.603
845.4	3.706
845.6	4.124
845.8	6.591
846	5.041
846.2	3.283
846.4	5.075
846.7	5.263
846.9	5.316
847.1	3.574
847.3	4.947
847.5	3.37
847.7	3.985
848	2.374
848.2	2.397
848.4	1.986
848.6	2.457
848.8	1.982
849	0.379
849.3	0.07
849.5	-0.824
849.7	-1.201
849.9	-0.756
850.1	-3.848
850.3	-2.37
850.6	-3.083
850.8	-4.214
851	-5.312
851.2	-4.365
851.4	-3.713
851.6	-4.656
851.9	-5.074
852.1	-3.188
852.3	-5.647
852.5	-7.643
852.7	-6.583
852.9	-5.504
853.2	-5.821
853.4	-5.806
853.6	-6.922
853.8	-7.827
854	-9.807
854.2	-8.597
854.5	-8.751
854.7	-8.412
854.9	-8.235
855.1	-8.34
855.3	-8.05
855.5	-6.39
855.8	-6.538
856	-7.903
856.2	-9.249
856.4	-7.073
856.6	-6.326
856.8	-5.493
857.1	-4.663
857.3	-5.515
857.5	-5.278
857.7	-2.268
857.9	-2.393
858.1	-1.099
858.4	-1.763
858.6	-1.582
858.8	-3.517
859	-2.472
859.2	-2.853
859.4	-2.54
859.7	-3.543
859.9	-5.206
860.1	-6.168
860.3	-5.455
860.5	-5.383
860.7	-4.686
860.9	-6.213
861.2	-5.233
861.4	-4.674
861.6	-3.86
861.8	-3.124
862	-3.087
862.2	-3.886
862.5	-3.517
862.7	-2.155
862.9	-1.921
863.1	-3.007
863.3	-2.672
863.5	-2.385
863.8	-4.637
864	-2.498
864.2	-1.306
864.4	-2.668
864.6	-3.928
864.8	-5.157
865	-3.758
865.3	-2.408
865.5	-2.536
865.7	-1.608
865.9	-0.398
866.1	-1.435
866.3	-1.152
866.6	0.089
866.8	0.127
867	-0.349
867.2	-0.058
867.4	0.323
867.6	0.904
867.8	0.406
868.1	0.609
868.3	-0.907
868.5	-2.087
868.7	-3.4
868.9	-3.822
869.1	-3.385
869.3	-3.155
869.6	-4.06
869.8	-3.69
870	-4.248
870.2	-4.354
870.4	-5.436
870.6	-6.722
870.9	-7.631
871.1	-8.97
871.3	-8.955
871.5	-9.487
871.7	-7.831
871.9	-9.196
872.1	-9.66
872.4	-11.425
872.6	-13.058
872.8	-12.655
873	-12.421
873.2	-12.334
873.4	-10.501
873.6	-10.26
873.9	-11.222
874.1	-11.331
874.3	-12.168
874.5	-13.654
874.7	-15.657
874.9	-14.963
875.1	-14.989
875.4	-14.842
875.6	-15.585
875.8	-14.854
876	-13.598
876.2	-12.602
876.4	-14.45
876.6	-14.405
876.9	-13.228
877.1	-12.259
877.3	-12.549
877.5	-14.706
877.7	-12.632
877.9	-10.573
878.1	-11.474
878.4	-13.42
878.6	-13.126
878.8	-12.617
879	-13.115
879.2	-11.293
879.4	-12.583
879.6	-11.422
879.9	-12.723
880.1	-13.334
880.3	-13.948
880.5	-12.263
880.7	-10.89
880.9	-10.011
881.1	-9.136
881.3	-7.759
881.6	-8.423
881.8	-9.543
882	-8.65
882.2	-6.206
882.4	-6.315
882.6	-8.287
882.8	-7.922
883.1	-6.926
883.3	-6.798
883.5	-8.14
883.7	-6.383
883.9	-6.545
884.1	-5.485
884.3	-8.042
884.6	-9.4
884.8	-6.496
885	-6.522
885.2	-6.907
885.4	-7.035
885.6	-5.089
885.8	-5.915
886	-4.825
886.3	-5.734
886.5	-5.466
886.7	-5.919
886.9	-4.35
887.1	-4.757
887.3	-6.817
887.5	-6.224
887.8	-5.663
888	-6.421
888.2	-5.3
888.4	-4.531
888.6	-5.342
888.8	-7.443
889	-7.322
889.2	-7.582
889.5	-9.102
889.7	-8.465
889.9	-6.451
890.1	-7.258
890.3	-9.223
890.5	-8.729
890.7	-7.262
890.9	-7.431
891.2	-7.778
891.4	-9.268
891.6	-8.646
891.8	-7.511
892	-8.272
892.2	-9.257
892.4	-10.927
892.6	-11.474
892.9	-12.115
893.1	-11.652
893.3	-11.176
893.5	-12.693
893.7	-13.492
893.9	-13.047
894.1	-13.786
894.3	-14.046
894.6	-13.666
894.8	-14.22
895	-12.892
895.2	-12.165
895.4	-11.067
895.6	-12.742
895.8	-12.413
896	-10.867
896.3	-11.901
896.5	-13.707
896.7	-11.855
896.9	-11.523
897.1	-11.471
897.3	-12.146
897.5	-10.256
897.7	-9.6
898	-8.186
898.2	-9.649
898.4	-11.237
898.6	-10.09
898.8	-10.324
899	-8.963
899.2	-7.058
899.4	-5.779
899.6	-6.266
899.9	-7.126
900.1	-4.493
900.3	-3.784
900.5	-2.457
900.7	-2.204
900.9	-4.324
901.1	-3.615
901.3	-4.35
901.6	-5.346
901.8	-5.025
902	-7.394
902.2	-7.933
902.4	-8.883
902.6	-9.69
902.8	-10.29
903	-11.531
903.2	-13.315
903.5	-13.549
903.7	-14.491
903.9	-14.518
904.1	-14.295
904.3	-14.476
904.5	-16.607
904.7	-15.879
904.9	-15.212
905.1	-15.144
905.4	-13.888
905.6	-14.295
905.8	-15.887
906	-17.32
906.2	-16.43
906.4	-16.336
906.6	-18.504
906.8	-17.294
907	-18.21
907.3	-18.414
907.5	-18.414
907.7	-19.33
907.9	-18.157
908.1	-18.071
908.3	-19.636
908.5	-18.022
908.7	-17.128
908.9	-17.452
909.2	-18.357
909.4	-16.456
909.6	-15.246
909.8	-15.913
910	-16.751
910.2	-16.008
910.4	-17.041
910.6	-17.467
910.8	-19.059
911.1	-15.864
911.3	-13.462
911.5	-14.273
911.7	-14.491
911.9	-14.631
912.1	-13.503
912.3	-14.944
912.5	-13.251
912.7	-13.888
912.9	-13.684
913.2	-12.866
913.4	-14.654
913.6	-13.247
913.8	-13.073
914	-10.596
914.2	-10.147
914.4	-10
914.6	-10.234
914.8	-9.788
915.1	-9.015
915.3	-8.906
915.5	-6.564
915.7	-5.851
915.9	-6.447
916.1	-7.665
916.3	-7.171
916.5	-6.334
916.7	-5.828
916.9	-4.214
917.2	-4.757
917.4	-2.728
917.6	-6.032
917.8	-7.971
918	-8.925
918.2	-8.235
918.4	-10.577
918.6	-11.418
918.8	-10.12
919	-11.61
919.2	-10.626
919.5	-9.506
919.7	-11.384
919.9	-11.229
920.1	-11.882
920.3	-12.704
920.5	-12.655
920.7	-12.413
920.9	-14.013
921.1	-13.575
921.3	-14.386
921.6	-16.034
921.8	-15.793
922	-17.158
922.2	-18.976
922.4	-19.119
922.6	-19.01
922.8	-16.992
923	-17.682
923.2	-18.436
923.4	-19.798
923.6	-19.459
923.9	-20.213
924.1	-20.164
924.3	-21.827
924.5	-20.605
924.7	-20.944
924.9	-19.187
925.1	-18.9
925.3	-17.803
925.5	-17.705
925.7	-18.87
925.9	-20.036
926.2	-18.749
926.4	-19.247
926.6	-19.349
926.8	-19.149
927	-20.522
927.2	-19.877
927.4	-18.878
927.6	-19.809
927.8	-18.47
928	-18.817
928.2	-19.357
928.5	-19.387
928.7	-17.825
928.9	-17.165
929.1	-16.034
929.3	-16.37
929.5	-15.084
929.7	-15.996
929.9	-15.389
930.1	-16.498
930.3	-16.381
930.5	-13.779
930.8	-11.165
931	-10.505
931.2	-11.161
931.4	-11.222
931.6	-10.045
931.8	-9.97
932	-10.12
932.2	-11.059
932.4	-12.266
932.6	-13.349
932.8	-14.156
933	-15.985
933.3	-16.724
933.5	-16.287
933.7	-17.297
933.9	-17.927
934.1	-16.766
934.3	-16.162
934.5	-14.993
934.7	-15.427
934.9	-15.725
935.1	-15.6
935.3	-16.019
935.5	-17.429
935.7	-18.372
936	-19.485
936.2	-19.466
936.4	-19.195
936.6	-17.799
936.8	-18.987
937	-20.465
937.2	-22.046
937.4	-22.17
937.6	-22.943
937.8	-22.585
938	-25.979
938.2	-27.454
938.4	-25.142
938.7	-23.581
938.9	-23.596
939.1	-23.162
939.3	-21.046
939.5	-18.983
939.7	-18.655
939.9	-20.119
940.1	-19.723
940.3	-19.176
940.5	-19.681
940.7	-20.658
940.9	-20.085
941.1	-19.96
941.4	-19.847
941.6	-18.904
941.8	-19.398
942	-18.712
942.2	-19.455
942.4	-19.093
942.6	-16.464
942.8	-17.339
943	-17.814
943.2	-16.049
943.4	-17.214
943.6	-17.033
943.8	-17.52
944	-17.305
944.3	-17.584
944.5	-16.298
944.7	-14.111
944.9	-15.687
945.1	-15.521
945.3	-14.163
945.5	-12.379
945.7	-12.346
945.9	-14.114
946.1	-13.549
946.3	-13.835
946.5	-14.793
946.7	-15.732
946.9	-15.472
947.1	-15.68
947.4	-16.883
947.6	-17.297
947.8	-17.248
948	-17.939
948.2	-16.83
948.4	-17.211
948.6	-16.057
948.8	-15.883
949	-17.067
949.2	-15.872
949.4	-15.796
949.6	-17.165
949.8	-16.215
950	-16.596
950.2	-14.857
950.5	-14.19
950.7	-15.121
950.9	-14.476
951.1	-17.429
951.3	-15.449
951.5	-16.064
951.7	-18.082
951.9	-19.1
952.1	-19.723
952.3	-18.402
952.5	-18.938
952.7	-17.482
952.9	-16.585
953.1	-17.086
953.3	-17.403
953.5	-17.384
953.8	-16.528
954	-14.303
954.2	-15.416
954.4	-15.894
954.6	-17.354
954.8	-17.067
955	-16.551
955.2	-15.208
955.4	-16.37
955.6	-17.841
955.8	-16.777
956	-15.91
956.2	-16.03
956.4	-14.835
956.6	-16.818
956.8	-16.558
957	-16.219
957.2	-15.77
957.5	-14.684
957.7	-16.702
957.9	-16.973
958.1	-15.514
958.3	-17.06
958.5	-18.516
958.7	-19.127
958.9	-19.081
959.1	-18.995
959.3	-18.485
959.5	-18.365
959.7	-18.24
959.9	-18.21
960.1	-18.81
960.3	-19.519
960.5	-17.143
960.7	-15.762
960.9	-14.529
961.1	-15.155
961.4	-16.456
961.6	-19.334
961.8	-19.632
962	-19.922
962.2	-19.013
962.4	-21.589
962.6	-20.13
962.8	-22.11
963	-22.404
963.2	-24.165
963.4	-24.271
963.6	-25.949
963.8	-27.077
964	-28.842
964.2	-29.921
964.4	-28.838
964.6	-27.446
964.8	-25.451
965	-25.278
965.2	-25.862
965.5	-26.138
965.7	-25.821
965.9	-24.248
966.1	-25.485
966.3	-24.101
966.5	-21.001
966.7	-22.555
966.9	-22.034
967.1	-23.792
967.3	-24.222
967.5	-22.679
967.7	-22.521
967.9	-20.586
968.1	-18.32
968.3	-15.702
968.5	-17.15
968.7	-14.612
968.9	-14.439
969.1	-12.994
969.3	-11.452
969.5	-10.264
969.7	-8.657
969.9	-6.862
970.2	-6.055
970.4	-4.72
970.6	-4.203
970.8	-5.383
971	-3.864
971.2	-4.143
971.4	-3.543
971.6	-2.532
971.8	-2.178
972	-2.966
972.2	-2
972.4	-1.544
972.6	-3.822
972.8	-5.497
973	-5.304
973.2	-6.315
973.4	-6.323
973.6	-6.741
973.8	-6.975
974	-6.428
974.2	-6.402
974.4	-9.37
974.6	-10.196
974.8	-10.03
975	-11.233
975.2	-12.685
975.5	-13.405
975.7	-12.21
975.9	-11.795
976.1	-12.772
976.3	-14.054
976.5	-12.711
976.7	-13.79
976.9	-13.062
977.1	-14.009
977.3	-15.532
977.5	-16.468
977.7	-17.018
977.9	-15.917
978.1	-15.947
978.3	-15.646
978.5	-16.841
978.7	-16.637
978.9	-15.382
979.1	-15.894
979.3	-14.601
979.5	-15.159
979.7	-14.895
979.9	-14.869
980.1	-16.445
980.3	-16.909
980.5	-17.165
980.7	-15.185
980.9	-13.541
981.1	-14.435
981.3	-12.621
981.5	-13.168
981.7	-12.172
981.9	-14.22
982.2	-13.583
982.4	-14.525
982.6	-13.153
982.8	-15.114
983	-14.537
983.2	-14.665
983.4	-14.209
983.6	-13.986
983.8	-12.247
984	-12.41
984.2	-12.289
984.4	-12.395
984.6	-13.428
984.8	-13.749
985	-11.957
985.2	-10.716
985.4	-11.919
985.6	-13.884
985.8	-13.447
986	-12.146
986.2	-10.271
986.4	-10.271
986.6	-9.328
986.8	-9.871
987	-9.264
987.2	-10.415
987.4	-10.886
987.6	-11.527
987.8	-11.81
988	-12.368
988.2	-12.621
988.4	-13.119
988.6	-13.032
988.8	-15.246
989	-14.367
989.2	-14.605
989.4	-13.273
989.6	-12.757
989.8	-13.488
990	-13.156
990.2	-13.726
990.4	-14.955
990.6	-14.405
990.8	-12.708
991	-12.176
991.3	-14.065
991.5	-15.291
991.7	-15.446
991.9	-15.683
992.1	-16.404
992.3	-16.238
992.5	-17.652
992.7	-17.082
992.9	-16.958
993.1	-16.728
993.3	-17.678
993.5	-19.04
993.7	-16.852
993.9	-16.785
994.1	-16.475
994.3	-16.042
994.5	-14.559
994.7	-14.28
994.9	-13.541
995.1	-12.312
995.3	-11.546
995.5	-11.203
995.7	-12.783
995.9	-12.191
996.1	-11.497
996.3	-13.85
996.5	-13.903
996.7	-14.812
996.9	-15.016
997.1	-17.701
997.3	-19.538
997.5	-18.799
997.7	-18.387
997.9	-17.709
998.1	-14.567
998.3	-14.763
998.5	-15.853
998.7	-16.204
998.9	-14.231
999.1	-14.737
999.3	-14.688
999.5	-15.928
999.7	-17.622
999.9	-19.277
1000.1	-20.511
1000.3	-19.953
1000.5	-20.703
1000.7	-21.635
1000.9	-21.797
1001.1	-21.356
1001.3	-20.692
1001.5	-21.408
1001.7	-20.835
1001.9	-21.476
1002.1	-21.721
1002.3	-21.899
1002.5	-22.8
1002.7	-23.339
1002.9	-23.419
1003.1	-23.886
1003.3	-22.457
1003.5	-20.22
1003.7	-21.367
1003.9	-20.673
1004.1	-20.337
1004.3	-21.371
1004.5	-19.787
1004.7	-19.353
1004.9	-20.19
1005.1	-21.389
1005.3	-21.19
1005.5	-22.087
1005.7	-19.896
1005.9	-18.783
1006.1	-17.656
1006.3	-16.034
1006.5	-16.626
1006.7	-15.28
1006.9	-14.793
1007.1	-14.808
1007.3	-15.042
1007.5	-14.533
1007.7	-14.752
1007.9	-16.004
1008.1	-15.121
1008.3	-15.578
1008.5	-15.17
1008.7	-11.301
1008.9	-10.637
1009.1	-9.709
1009.3	-11.286
1009.5	-11.459
1009.7	-12.312
1009.9	-11.784
1010.1	-13.394
1010.3	-12.421
1010.5	-13.511
1010.7	-14.525
1010.9	-16.057
1011.1	-15.363
1011.3	-15.608
1011.5	-16.464
1011.7	-16.498
1011.9	-17.071
1012.1	-15.525
1012.3	-15.834
1012.5	-16.939
1012.7	-16.724
1012.9	-18.074
1013.1	-19.523
1013.3	-19.096
1013.5	-18.961
1013.7	-19.888
1013.9	-20.552
1014.1	-19.391
1014.3	-19.36
1014.5	-19.734
1014.7	-19.998
1014.9	-23.426
1015.1	-22.099
1015.3	-23.17
1015.5	-22.623
1015.7	-22.811
1015.9	-22.385
1016.1	-23.166
1016.3	-21.299
1016.5	-23.566
1016.7	-22.709
1016.9	-23.498
1017.1	-23.577
1017.3	-23.811
1017.5	-23.287
1017.7	-23.038
1017.9	-22.268
1018.1	-22.238
1018.3	-22.823
1018.5	-24.007
1018.7	-22.581
1018.9	-22.525
1019.1	-23.151
1019.2	-24.203
1019.4	-25.459
1019.6	-25.157
1019.8	-25.61
1020	-24.931
1020.2	-25.915
1020.4	-23.796
1020.6	-23.973
1020.8	-25.014
1021	-23.121
1021.2	-24.282
1021.4	-23.053
1021.6	-20.854
1021.8	-20.152
1022	-21.506
1022.2	-19.575
1022.4	-18.81
1022.6	-18.919
1022.8	-19.56
1023	-19.161
1023.2	-17.863
1023.4	-17.893
1023.6	-18.848
1023.8	-16.087
1024	-16.532
1024.2	-18.172
1024.4	-18.071
1024.6	-17.116
1024.8	-18.738
1025	-18.335
1025.2	-18.738
1025.4	-15.827
1025.6	-15.438
1025.8	-16.072
1026	-15.638
1026.2	-15.216
1026.4	-14.322
1026.6	-16.422
1026.8	-15.001
1027	-14.525
1027.2	-14.367
1027.4	-14.363
1027.6	-13.756
1027.8	-16.026
1028	-16.815
1028.1	-14.921
1028.3	-16.551
1028.5	-18.406
1028.7	-17.957
1028.9	-19.025
1029.1	-19.262
1029.3	-20.1
1029.5	-20.326
1029.7	-20.613
1029.9	-22.974
1030.1	-20.337
1030.3	-19.594
1030.5	-18.384
1030.7	-17.588
1030.9	-16.079
1031.1	-17.177
1031.3	-16.645
1031.5	-16.754
1031.7	-16.845
1031.9	-16.69
1032.1	-16.705
1032.3	-18.327
1032.5	-19.342
1032.7	-21.054
1032.9	-21.774
1033.1	-21.672
1033.3	-22.363
1033.5	-22.774
1033.7	-24.263
1033.9	-23.158
1034.1	-23.268
1034.3	-22.544
1034.4	-22.283
1034.6	-21.895
1034.8	-20.398
1035	-19.417
1035.2	-18.855
1035.4	-18.108
1035.6	-18.817
1035.8	-18.15
1036	-18.636
1036.2	-21.035
1036.4	-21.009
1036.6	-22.804
1036.8	-24.478
1037	-24.999
1037.2	-24.882
1037.4	-25.666
1037.6	-26.9
1037.8	-26.553
1038	-27.639
1038.2	-27.495
1038.4	-27.322
1038.6	-26.172
1038.8	-24.852
1039	-23.803
1039.2	-24.101
1039.4	-24.399
1039.5	-23.064
1039.7	-22.17
1039.9	-21.212
1040.1	-21.024
1040.3	-22.249
1040.5	-20.99
1040.7	-21.495
1040.9	-22.6
1041.1	-23.98
1041.3	-24.588
1041.5	-25.361
1041.7	-23.928
1041.9	-23.969
1042.1	-23.928
1042.3	-23.641
1042.5	-23.315
1042.7	-23.035
1042.9	-22.618
1043.1	-23.222
1043.3	-22.6
1043.5	-21.185
1043.7	-20.743
1043.8	-20.877
1044	-19.52
1044.2	-19.699
1044.4	-17.995
1044.6	-18.451
1044.8	-18.028
1045	-19.701
1045.2	-19.325
