Data from mesure_FLMT021711__0__22.txt Node

Date: Mon Nov 04 11:50:33 CET 2024
User: jordan.swietlicki
Spectrometer: FLMT02171
Trigger mode: 0
Integration Time (sec): 1.000000E-1
Scans to average: 15
Electric dark correction enabled: true
Nonlinearity correction enabled: false
Boxcar width: 15
XAxis mode: Wavelengths
Number of Pixels in Spectrum: 3648
>>>>>Begin Spectral Data<<<<<
194.7	-41.644
194.9	-39.88
195.2	-35.338
195.5	-34.43
195.7	-30.731
196	-29.823
196.2	-28.408
196.5	-29.993
196.8	-29.088
197	-28.231
197.3	-28.066
197.6	-25.497
197.8	-25.337
198.1	-24.45
198.4	-23.042
198.6	-21.728
198.9	-17.814
199.2	-13.574
199.4	-8.411
199.7	-2.253
200	-2.754
200.2	-5.639
200.5	-6.258
200.7	-7.344
201	-6.356
201.3	-6.91
201.5	-6.605
201.8	-7.329
202.1	-5.884
202.3	-5.421
202.6	-5.364
202.9	-6.345
203.1	-6.322
203.4	-7.763
203.7	-8.724
203.9	-9.456
204.2	-9.332
204.5	-8.939
204.7	-6.869
205	-5.624
205.2	-4.738
205.5	-3.644
205.8	-3.852
206	-0.653
206.3	0.557
206.6	1.232
206.8	1.545
207.1	2.711
207.4	4.268
207.6	5.724
207.9	6.388
208.2	7.406
208.4	9.839
208.7	9.654
208.9	11.204
209.2	10.974
209.5	10.895
209.7	10.925
210	10.853
210.3	10.435
210.5	12
210.8	11.996
211.1	12.709
211.3	13.097
211.6	11.758
211.9	13.429
212.1	13.192
212.4	14.157
212.6	14.289
212.9	12.954
213.2	10.518
213.4	10.642
213.7	10.563
214	10.288
214.2	7.523
214.5	6.969
214.8	7.101
215	6.58
215.3	8.519
215.5	9.428
215.8	7.783
216.1	7.286
216.3	8.609
216.6	7.946
216.9	7.983
217.1	8.3
217.4	7.915
217.7	8.798
217.9	7.146
218.2	7.301
218.5	6.999
218.7	6.045
219	6.06
219.2	7.176
219.5	8.53
219.8	9.711
220	9.386
220.3	10.027
220.6	10.239
220.8	8.5
221.1	10.05
221.4	10.216
221.6	9.386
221.9	9.756
222.1	9.899
222.4	9.281
222.7	10.872
222.9	7.648
223.2	6.214
223.5	3.589
223.7	3.974
224	3.963
224.2	3.375
224.5	3.046
224.8	3.48
225	3.797
225.3	3.616
225.6	3.325
225.8	4.148
226.1	5.803
226.4	5.453
226.6	4.227
226.9	4.894
227.1	5.106
227.4	4.717
227.7	2.843
227.9	2.39
228.2	2.473
228.5	1.41
228.7	0.252
229	0.727
229.3	0.184
229.5	3.046
229.8	3.473
230	3.473
230.3	1.538
230.6	2.028
230.8	0.995
231.1	3.239
231.4	3.08
231.6	7.727
231.9	6.675
232.1	7.444
232.4	6.233
232.7	6.279
232.9	6.252
233.2	5.143
233.5	3.982
233.7	5.008
234	3.661
234.2	2.277
234.5	3.239
234.8	6.18
235	5.162
235.3	5.766
235.6	5.588
235.8	6.29
236.1	7.55
236.4	6.595
236.6	8.202
236.9	8.798
237.1	10.216
237.4	10.239
237.7	6.626
237.9	5.456
238.2	3.914
238.5	5.909
238.7	5.784
239	5.223
239.2	4.725
239.5	7.006
239.8	3.782
240	3.431
240.3	5.607
240.6	5.558
240.8	4.212
241.1	3.823
241.3	3.111
241.6	3.043
241.9	1.315
242.1	1.692
242.4	3.495
242.7	2.635
242.9	1.643
243.2	2.413
243.4	2.021
243.7	1.99
244	0.682
244.2	0.919
244.5	1.549
244.8	1.625
245	2.262
245.3	3.167
245.5	3.657
245.8	4.906
246.1	4.921
246.3	4.348
246.6	3.684
246.9	5.6
247.1	5.592
247.4	6.328
247.6	7.199
247.9	6.825
248.2	6.961
248.4	4.102
248.7	5.094
248.9	5.072
249.2	4.71
249.5	5.935
249.7	6.12
250	5.196
250.3	5.358
250.5	3.544
250.8	5.641
251	4.038
251.3	4.77
251.6	6.354
251.8	5.879
252.1	5.947
252.4	3.559
252.6	3.914
252.9	2.36
253.1	1.376
253.4	-0.695
253.7	-0.314
253.9	1.183
254.2	1.813
254.4	2.205
254.7	2.492
255	2.334
255.2	3.865
255.5	2.941
255.8	2.168
256	2.236
256.3	2.198
256.5	1.892
256.8	1.191
257.1	2.326
257.3	1.941
257.6	2.217
257.8	3.642
258.1	5.253
258.4	5.615
258.6	6.173
258.9	5.109
259.2	5.181
259.4	4.468
259.7	1.617
259.9	0.078
260.2	1.915
260.5	3.08
260.7	2.292
261	2.156
261.2	1.594
261.5	1.892
261.8	0.663
262	1.247
262.3	1.708
262.6	2.017
262.8	1.394
263.1	0.516
263.3	-1.691
263.6	-1.046
263.9	-2.113
264.1	-2.305
264.4	-1.37
264.6	-0.371
264.9	-1.144
265.2	-1.215
265.4	-1.223
265.7	-0.834
266	-2.554
266.2	-1.17
266.5	-1.815
266.7	-3.425
267	-5.432
267.3	-4.723
267.5	-4.021
267.8	-1.442
268	0.327
268.3	-0.714
268.6	-1.619
268.8	0.504
269.1	-1.129
269.3	-2.117
269.6	-2.554
269.9	-1.89
270.1	-3.976
270.4	-3.335
270.6	-3.003
270.9	-3.437
271.2	-3.984
271.4	-5.281
271.7	-6.929
272	-7.461
272.2	-5.915
272.5	-7.05
272.7	-6.473
273	-4.9
273.3	-4.353
273.5	-2.445
273.8	-3.806
274	-2.335
274.3	-4.561
274.6	-4.87
274.8	-1.517
275.1	0.874
275.3	1.851
275.6	1.628
275.9	-0.352
276.1	-0.465
276.4	-1.031
276.6	-0.125
276.9	-0.944
277.2	1.802
277.4	2.179
277.7	4.668
277.9	4.653
278.2	5.347
278.5	6.011
278.7	6.656
279	5.894
279.2	6.071
279.5	7.451
279.8	8.391
280	9.13
280.3	6.675
280.5	6.007
280.8	6.263
281.1	5.422
281.3	6.177
281.6	4.348
281.9	6.267
282.1	5.23
282.4	5.219
282.6	6.331
282.9	4.876
283.2	3.269
283.4	1.787
283.7	1.07
283.9	1.017
284.2	1.87
284.5	1.542
284.7	0.659
285	-0.235
285.2	-2.102
285.5	-0.31
285.8	-2.2
286	0.746
286.3	1.206
286.5	-0.966
286.8	-0.333
287.1	1.323
287.3	1.1
287.6	0.452
287.8	0.576
288.1	-1.317
288.4	-1.332
288.6	1.07
288.9	0.478
289.1	1.157
289.4	-1.31
289.7	-0.691
289.9	-2.762
290.2	-1.264
290.4	0.81
290.7	-0.348
290.9	-1.909
291.2	-0.563
291.5	1.873
291.7	2.567
292	4.683
292.2	3.126
292.5	4.917
292.8	7.108
293	5.852
293.3	7.067
293.5	8.259
293.8	8.866
294.1	6.92
294.3	6.082
294.6	6.441
294.8	5.988
295.1	6.196
295.4	6.923
295.6	6.935
295.9	7.821
296.1	7.715
296.4	8.779
296.7	5.268
296.9	5.241
297.2	3.095
297.4	4.566
297.7	4.144
298	5.453
298.2	4.317
298.5	4.913
298.7	6.316
299	8.228
299.3	7.795
299.5	5.441
299.8	5.6
300	5.539
300.3	6.384
300.5	5.916
300.8	4.231
301.1	6.607
301.3	6.965
301.6	4.174
301.8	1.93
302.1	1.3
302.4	1.413
302.6	1.591
302.9	1.572
303.1	-0.197
303.4	0.154
303.7	1.029
303.9	-0.853
304.2	0.391
304.4	-0.337
304.7	2.085
304.9	0.474
305.2	3.295
305.5	2.658
305.7	2.141
306	2.571
306.2	4.366
306.5	3.691
306.8	2.22
307	0.361
307.3	0.727
307.5	0.942
307.8	-0.152
308.1	-2.302
308.3	-1.977
308.6	-2.724
308.8	-1.528
309.1	-0.917
309.3	0.225
309.6	0.429
309.9	3.028
310.1	2.126
310.4	3.043
310.6	3.665
310.9	2.703
311.2	3.929
311.4	3.393
311.7	4.148
311.9	5.162
312.2	5.758
312.5	5.698
312.7	5.528
313	5.551
313.2	5.011
313.5	5.173
313.7	3.925
314	2.647
314.3	1.108
314.5	1.338
314.8	3.193
315	4.54
315.3	3.171
315.6	2.088
315.8	1.87
316.1	2.673
316.3	1.202
316.6	2.077
316.8	1.112
317.1	-1.004
317.4	-3.497
317.6	-3.995
317.9	-5.534
318.1	-4.877
318.4	-4.915
318.6	-5.549
318.9	-5.432
319.2	-5.839
319.4	-6.258
319.7	-7.661
319.9	-8.532
320.2	-8.26
320.5	-7.427
320.7	-7.823
321	-7.514
321.2	-8.46
321.5	-7.74
321.7	-5.643
322	-4.236
322.3	-5.224
322.5	-5.545
322.8	-7.804
323	-8.389
323.3	-7.069
323.5	-5.662
323.8	-4.798
324.1	-4.972
324.3	-3.493
324.6	-5.074
324.8	-4.38
325.1	-5.198
325.4	-4.546
325.6	-2.807
325.9	-2.826
326.1	-2.045
326.4	-2.739
326.6	-2.573
326.9	-1.947
327.2	-2.362
327.4	-2.173
327.7	-1.6
327.9	0.538
328.2	-0.008
328.4	-0.084
328.7	2.432
329	3.19
329.2	3.514
329.5	2.865
329.7	2.609
330	2.59
330.2	4.476
330.5	5.117
330.8	5.89
331	7.512
331.3	6.248
331.5	5.615
331.8	4.136
332	4.238
332.3	2.831
332.6	3.936
332.8	3.341
333.1	5.634
333.3	6.991
333.6	7.146
333.8	8.198
334.1	7.527
334.4	6.433
334.6	5.92
334.9	5.46
335.1	5.841
335.4	4.676
335.6	5.962
335.9	3.872
336.2	3.48
336.4	3.148
336.7	0.561
336.9	1.689
337.2	1.542
337.4	1.526
337.7	1.195
338	-0.959
338.2	-1.31
338.5	-2.437
338.7	-2.177
339	-2.392
339.2	-0.171
339.5	-1.185
339.8	-0.348
340	0.644
340.3	1.259
340.5	0.987
340.8	4.378
341	3.982
341.3	2.175
341.6	2.036
341.8	2.039
342.1	0.58
342.3	2.141
342.6	3.503
342.8	3.884
343.1	3.62
343.4	4.687
343.6	2.824
343.9	4.668
344.1	5.192
344.4	5.517
344.6	5.253
344.9	4.272
345.1	4.423
345.4	3.891
345.7	3.401
345.9	4.827
346.2	3.748
346.4	3.823
346.7	3.439
346.9	3.314
347.2	0.516
347.5	1.873
347.7	1.919
348	0.406
348.2	0.776
348.5	1.093
348.7	1.741
349	1.915
349.2	3.91
349.5	3.31
349.8	2.971
350	3.544
350.3	3.752
350.5	3.491
350.8	3.838
351	4.529
351.3	5.441
351.6	4.966
351.8	3.688
352.1	2.956
352.3	2.579
352.6	3.669
352.8	2.552
353.1	3.073
353.3	3.054
353.6	2.59
353.9	2.002
354.1	2.122
354.4	2.586
354.6	4.321
354.9	3.103
355.1	5.053
355.4	4.864
355.6	6.188
355.9	6.822
356.2	6.893
356.4	7.934
356.7	4.17
356.9	4.476
357.2	3.721
357.4	4.423
357.7	3.782
358	7.055
358.2	6.097
358.5	5.811
358.7	5.411
359	5.637
359.2	5.822
359.5	6.682
359.7	8.949
360	10.239
360.3	12.781
360.5	12.286
360.8	13.139
361	14.293
361.3	14.097
361.5	15.76
361.8	16.337
362	17.751
362.3	17.517
362.6	17.404
362.8	19.592
363.1	20.708
363.3	21.806
363.6	22.364
363.8	23.948
364.1	23.495
364.3	23.872
364.6	24.755
364.8	25.747
365.1	26.071
365.4	28.474
365.6	29.933
365.9	28.492
366.1	29.858
366.4	29.767
366.6	30.476
366.9	31.385
367.1	31.14
367.4	33.731
367.7	33.554
367.9	33.738
368.2	32.475
368.4	31.37
368.7	32.69
368.9	33.682
369.2	32.882
369.4	33.546
369.7	35.24
370	34.085
370.2	34.538
370.5	34.942
370.7	35.077
371	35.428
371.2	35.858
371.5	36.507
371.7	36.42
372	37.186
372.2	36.582
372.5	37.906
372.8	37.321
373	36.586
373.3	34.225
373.5	36.171
373.8	35.983
374	35.53
374.3	37.14
374.5	38.415
374.8	40.041
375	40.146
375.3	39.271
375.6	38.977
375.8	39.482
376.1	40.576
376.3	42.93
376.6	41.877
376.8	39.739
377.1	43.148
377.3	42.138
377.6	40.882
377.8	42.737
378.1	43.823
378.4	43.265
378.6	43.276
378.9	40.98
379.1	40.908
379.4	39.735
379.6	38.332
379.9	37.506
380.1	37.763
380.4	36.741
380.6	36.805
380.9	36.488
381.2	36.763
381.4	35.986
381.7	37.352
381.9	38.619
382.2	38.939
382.4	37.985
382.7	35.564
382.9	36.322
383.2	37.167
383.4	37.491
383.7	39.98
383.9	38.664
384.2	38.592
384.5	40.806
384.7	42.115
385	41.617
385.2	42.979
385.5	44.397
385.7	44.597
386	45.928
386.2	47.61
386.5	46.976
386.7	49.631
387	50.306
387.2	52.954
387.5	56.526
387.8	59.803
388	62.145
388.3	65.125
388.5	67.086
388.8	70.469
389	72.354
389.3	71.642
389.5	71.185
389.8	72.728
390	71.6
390.3	72.679
390.5	73.882
390.8	77.02
391.1	77.831
391.3	79.992
391.6	79.969
391.8	83.152
392.1	84.446
392.3	86.215
392.6	87.35
392.8	89.303
393.1	93.667
393.3	95.975
393.6	97.54
393.8	98.683
394.1	101.53
394.4	106.531
394.6	110.258
394.9	114.802
395.1	117.774
395.4	118.924
395.6	123.246
395.9	126.373
396.1	129.028
396.4	133.369
396.6	137.665
396.9	140.81
397.1	145.886
397.4	152.151
397.6	156.775
397.9	164.072
398.2	170.322
398.4	178.774
398.7	183.699
398.9	188.704
399.2	194.765
399.4	200.384
399.7	205.177
399.9	210.861
400.2	216.054
400.4	223.499
400.7	230.258
400.9	235.051
401.2	241.798
401.4	249.307
401.7	254.976
401.9	260.373
402.2	262.643
402.5	267.154
402.7	270.009
403	274.391
403.2	281.459
403.5	285.355
403.7	290.469
404	296.492
404.2	300.916
404.5	307.893
404.7	316.002
405	324.186
405.2	330.484
405.5	337.129
405.7	343.673
406	349.341
406.2	353.931
406.5	359.174
406.7	364.073
407	368.987
407.3	374.591
407.5	380.641
407.8	387.388
408	392.483
408.3	398.638
408.5	405.977
408.8	411.046
409	418.325
409.3	424.435
409.5	432.562
409.8	438.393
410	447.776
410.3	455.24
410.5	464.71
410.8	469.839
411	474.697
411.3	481.565
411.5	487.844
411.8	492.962
412	498.849
412.3	504.22
412.6	509.643
412.8	513
413.1	516.3
413.3	521.361
413.6	524.639
413.8	528.915
414.1	532.955
414.3	537.25
414.6	542.108
414.8	543.684
415.1	547.12
415.3	551.284
415.6	555.817
415.8	559.506
416.1	562.466
416.3	561.991
416.6	566.362
416.8	567.735
417.1	572.363
417.3	573.098
417.6	577.171
417.8	579.626
418.1	581.848
418.4	583.322
418.6	587.165
418.9	589.413
419.1	591.016
419.4	591.963
419.6	593.271
419.9	594.78
420.1	594.169
420.4	595.448
420.6	596.308
420.9	596.255
421.1	596.142
421.4	597.941
421.6	598.269
421.9	598.766
422.1	598.235
422.4	600.29
422.6	604.367
422.9	604.835
423.1	606.019
423.4	606.871
423.6	607.754
423.9	609.176
424.1	612.359
424.4	611.231
424.6	610.296
424.9	608.591
425.1	608.286
425.4	604.872
425.6	604.182
425.9	600.931
426.2	598.608
426.4	594.852
426.7	592.419
426.9	587.641
427.2	584.258
427.4	581.95
427.7	580.283
427.9	578.269
428.2	577.692
428.4	578.797
428.7	580.905
428.9	582.885
429.2	584.182
429.4	587.09
429.7	588.493
429.9	588.731
430.2	587.973
430.4	587.414
430.7	590.432
430.9	590.85
431.2	591.269
431.4	593.475
431.7	595.606
431.9	596.251
432.2	601.542
432.4	605.189
432.7	608.384
432.9	613.901
433.2	620.422
433.4	622.561
433.7	629.24
433.9	633.784
434.2	638.367
434.4	643.277
434.7	649.783
434.9	655.644
435.2	659.125
435.4	663.058
435.7	667.901
435.9	670.488
436.2	673.532
436.4	675.229
436.7	676.349
436.9	677.009
437.2	678.042
437.4	680.826
437.7	686.679
437.9	692.125
438.2	695.406
438.4	699.306
438.7	702.58
438.9	704.918
439.2	706.147
439.4	706.208
439.7	710.16
439.9	710.579
440.2	712.351
440.5	715.146
440.7	716.274
441	717.141
441.2	721.365
441.5	721.799
441.7	723.654
442	726.702
442.2	729.7
442.5	731.503
442.7	734.475
443	738.725
443.2	742.372
443.5	744.001
443.7	746.641
444	748.263
444.2	752.163
444.5	756.025
444.7	761.282
445	763.764
445.2	766.004
445.5	767.185
445.7	769.704
446	772.287
446.2	774.075
446.5	777.65
446.7	781.946
447	786.826
447.2	792.589
447.5	796.708
447.7	798.171
448	801.18
448.2	804.288
448.5	806.46
448.7	810.251
449	810.5
449.2	811.914
449.5	813.788
449.7	815.938
450	818.239
450.2	822.531
450.5	824.959
450.7	828.965
451	831.043
451.2	835.305
451.5	836.817
451.7	840.871
452	845.11
452.2	847.154
452.5	848.95
452.7	852.774
452.9	856.263
453.2	858.676
453.4	862.41
453.7	867.366
453.9	869.063
454.2	870.349
454.4	871.058
454.7	874.275
454.9	874.547
455.2	874.147
455.4	876.889
455.7	880.973
455.9	880.362
456.2	884.058
456.4	885.759
456.7	890.685
456.9	894.558
457.2	898.344
457.4	904.281
457.7	909.851
457.9	914.222
458.2	918.393
458.4	921.626
458.7	926.234
458.9	928.301
459.2	932.665
459.4	937.575
459.7	942.022
459.9	944.058
460.2	946.86
460.4	948.501
460.7	952.966
460.9	956.527
461.2	956.372
461.4	955.995
461.7	959.536
461.9	963.421
462.2	965.699
462.4	966.63
462.7	970.511
462.9	973.046
463.2	974.954
463.4	975.471
463.7	980.434
463.9	980.969
464.2	982.587
464.4	982.949
464.7	986.065
464.9	988.041
465.2	989.908
465.4	989.421
465.7	990.986
465.9	993.83
466.2	995.316
466.4	995.961
466.6	998.201
466.9	997.749
467.1	996.184
467.4	995.267
467.6	998.284
467.9	998.797
468.1	1001.577
468.4	1001.705
468.6	1003.149
468.9	1005.812
469.1	1009.108
469.4	1010.956
469.6	1012.254
469.9	1014.373
470.1	1018.59
470.4	1018.895
470.6	1022.655
470.9	1027.162
471.1	1031.729
471.4	1032.11
471.6	1036.21
471.9	1041.958
472.1	1046.416
472.4	1049.056
472.6	1053.378
472.9	1054.943
473.1	1060.623
473.4	1064.179
473.6	1067.913
473.9	1070.485
474.1	1076.003
474.3	1080.321
474.6	1088.694
474.8	1093.977
475.1	1098.918
475.3	1103.127
475.6	1109.878
475.8	1115.697
476.1	1122.655
476.3	1127.509
476.6	1133.959
476.8	1139.872
477.1	1147.43
477.3	1154.932
477.6	1163.783
477.8	1170.198
478.1	1178.564
478.3	1186.54
478.6	1195.418
478.8	1199.978
479.1	1207.562
479.3	1212.933
479.6	1218.801
479.8	1225.465
480.1	1232.759
480.3	1238.567
480.5	1246.024
480.8	1249.644
481	1255.893
481.3	1260.461
481.5	1265.156
481.8	1266.925
482	1271.062
482.3	1270.764
482.5	1270.632
482.8	1270.259
483	1271.545
483.3	1271.903
483.5	1274.653
483.8	1275.007
484	1276.995
484.3	1278.341
484.5	1281.63
484.8	1284.873
485	1286.167
485.2	1286.921
485.5	1290.579
485.7	1292.971
486	1295.746
486.2	1297.609
486.5	1303.444
486.7	1308.362
487	1314.679
487.2	1316.995
487.5	1321.573
487.7	1326.582
488	1328.498
488.2	1330.089
488.5	1333.016
488.7	1334.464
489	1337.692
489.2	1342.154
489.5	1347.17
489.7	1352.895
489.9	1358.982
490.2	1367.012
490.4	1377.187
490.7	1385.296
490.9	1393.834
491.2	1399.85
491.4	1407.272
491.7	1416.075
491.9	1422.233
492.2	1427.136
492.4	1429.599
492.7	1435.66
492.9	1442.35
493.2	1445.334
493.4	1448.871
493.6	1450.629
493.9	1454.445
494.1	1454.362
494.4	1455.863
494.6	1455.045
494.9	1455.769
495.1	1455.362
495.4	1455.577
495.6	1460.431
495.9	1465.5
496.1	1469.384
496.4	1473.091
496.6	1475.366
496.9	1480.766
497.1	1481.128
497.3	1481.528
497.6	1481.649
497.8	1483.652
498.1	1480.981
498.3	1479.971
498.6	1476.395
498.8	1475.245
499.1	1474.189
499.3	1472.609
499.6	1472.684
499.8	1471.387
500.1	1469.301
500.3	1466.661
500.6	1462.573
500.8	1459.774
501	1459.145
501.3	1457.817
501.5	1454.577
501.8	1455.528
502	1457.229
502.3	1457.07
502.5	1456.576
502.8	1458.217
503	1460.397
503.3	1458.62
503.5	1454.917
503.8	1454.306
504	1452.273
504.2	1452.941
504.5	1449.863
504.7	1452.092
505	1451.839
505.2	1455.581
505.5	1456.425
505.7	1459.035
506	1460.197
506.2	1464.666
506.5	1464.112
506.7	1463.81
506.9	1463.731
507.2	1465.409
507.4	1464.425
507.7	1467.906
507.9	1470.421
508.2	1474.66
508.4	1476.071
508.7	1477.021
508.9	1477.991
509.2	1479.522
509.4	1479.65
509.7	1478.998
509.9	1479.759
510.1	1478.982
510.4	1476.342
510.6	1472.767
510.9	1472.861
511.1	1473.808
511.4	1473.733
511.6	1474.966
511.9	1473.031
512.1	1472.186
512.4	1471.628
512.6	1470.067
512.8	1464.308
513.1	1458.696
513.3	1453.8
513.6	1447.845
513.8	1442.237
514.1	1437.527
514.3	1432.265
514.6	1427.295
514.8	1419.812
515.1	1416.41
515.3	1410.61
515.5	1406.808
515.8	1401.69
516	1399.118
516.3	1396.633
516.5	1393.959
516.8	1391.771
517	1388.89
517.3	1386.838
517.5	1386.371
517.7	1387.295
518	1388.611
518.2	1388.358
518.5	1386.955
518.7	1386.774
519	1385.085
519.2	1382.365
519.5	1381.336
519.7	1380.008
520	1379.756
520.2	1381.343
520.4	1385.269
520.7	1392.171
520.9	1396.659
521.2	1403.15
521.4	1407.276
521.7	1414.091
521.9	1419.016
522.2	1421.513
522.4	1427.747
522.6	1431.198
522.9	1433.212
523.1	1433.653
523.4	1434.532
523.6	1432.944
523.9	1432.624
524.1	1431.662
524.4	1429.75
524.6	1429.49
524.8	1428.392
525.1	1428.053
525.3	1428.89
525.6	1429.878
525.8	1431.655
526.1	1433.159
526.3	1434.129
526.6	1435.682
526.8	1438.338
527	1441.985
527.3	1443.022
527.5	1443.919
527.8	1444.508
528	1444.79
528.3	1445.258
528.5	1445.198
528.8	1442.648
529	1440.065
529.2	1439.356
529.5	1436.572
529.7	1438.315
530	1437.38
530.2	1438.466
530.5	1437.836
530.7	1438.632
531	1439.322
531.2	1442.516
531.4	1443.538
531.7	1447.449
531.9	1449.324
532.2	1451.719
532.4	1452.729
532.7	1453.691
532.9	1451.979
533.2	1449.637
533.4	1447.917
533.6	1445.971
533.9	1442.614
534.1	1440.725
534.4	1439.28
534.6	1438.994
534.9	1437.681
535.1	1435.302
535.3	1433.974
535.6	1431.56
535.8	1426.91
536.1	1425.413
536.3	1424.376
536.6	1424.941
536.8	1421.834
537.1	1422.196
537.3	1418.04
537.5	1416.011
537.8	1413.601
538	1412.394
538.3	1408.634
538.5	1406.314
538.8	1404.613
539	1401.943
539.2	1398.485
539.5	1395.758
539.7	1393.823
540	1391.771
540.2	1389.882
540.5	1388.388
540.7	1387.604
540.9	1386.352
541.2	1385.22
541.4	1388.06
541.7	1389.784
541.9	1388.747
542.2	1383.259
542.4	1382.577
542.7	1381.566
542.9	1380.6
543.1	1379.706
543.4	1380.868
543.6	1379.801
543.9	1379.74
544.1	1378.122
544.4	1377.033
544.6	1374.966
544.8	1377.078
545.1	1375.467
545.3	1374.853
545.6	1374.921
545.8	1376.984
546.1	1377.489
546.3	1376.339
546.5	1376.957
546.8	1377.889
547	1379.077
547.3	1377.217
547.5	1375.558
547.8	1374.11
548	1373.201
548.2	1373.167
548.5	1370.135
548.7	1370.021
549	1365.258
549.2	1363.542
549.5	1360.989
549.7	1360.4
549.9	1358.115
550.2	1356.927
550.4	1354.438
550.7	1352.842
550.9	1348.535
551.2	1349.003
551.4	1347.197
551.6	1346.167
551.9	1346.857
552.1	1346.831
552.4	1344.296
552.6	1341.306
552.9	1339.808
553.1	1337.527
553.3	1334.985
553.6	1332.19
553.8	1329.58
554.1	1328.136
554.3	1323.338
554.5	1318.228
554.8	1315.177
555	1312.073
555.3	1307.212
555.5	1304.059
555.8	1298.062
556	1295.132
556.2	1288.822
556.5	1286.257
556.7	1279.778
557	1277.3
557.2	1273.902
557.5	1273.231
557.7	1270.934
557.9	1267.012
558.2	1263.859
558.4	1262.965
558.7	1256.127
558.9	1252.967
559.2	1249.29
559.4	1244.722
559.6	1242.388
559.9	1240.43
560.1	1238.183
560.4	1236.716
560.6	1234.536
560.8	1231.432
561.1	1227.657
561.3	1226.329
561.6	1221.898
561.8	1220.525
562.1	1218.364
562.3	1216.425
562.5	1214.241
562.8	1214.769
563	1212.378
563.3	1213.159
563.5	1212.194
563.7	1212.126
564	1209.821
564.2	1209.331
564.5	1208.169
564.7	1208.999
565	1207.796
565.2	1204.673
565.4	1203.531
565.7	1204.262
565.9	1201.784
566.2	1201.26
566.4	1199.661
566.6	1200.038
566.9	1200.242
567.1	1199.257
567.4	1196.304
567.6	1196.157
567.9	1192.344
568.1	1191.835
568.3	1191.232
568.6	1192.129
568.8	1191.782
569.1	1190.221
569.3	1188.441
569.5	1189.572
569.8	1189.58
570	1189.146
570.3	1187.928
570.5	1188.584
570.7	1186.65
571	1186.721
571.2	1185.458
571.5	1183.693
571.7	1182.222
572	1180.415
572.2	1176.369
572.4	1174.675
572.7	1173.118
572.9	1173.28
573.2	1169.569
573.4	1165.397
573.6	1162.716
573.9	1160.442
574.1	1156.885
574.4	1150.806
574.6	1148.422
574.8	1144.53
575.1	1140.645
575.3	1138.929
575.6	1134.611
575.8	1131.405
576	1127.4
576.3	1121.441
576.5	1121.566
576.8	1120.491
577	1117.062
577.3	1114.671
577.5	1110.919
577.7	1108.584
578	1105.446
578.2	1102.663
578.5	1098.541
578.7	1096.787
578.9	1096.131
579.2	1093.291
579.4	1091.228
579.7	1089.829
579.9	1085.948
580.1	1085.077
580.4	1082.942
580.6	1081.973
580.9	1083.968
581.1	1082.859
581.3	1081.565
581.6	1078.017
581.8	1077.96
582.1	1075.618
582.3	1075.094
582.5	1074.615
582.8	1073.808
583	1073.974
583.3	1073.8
583.5	1070.259
583.7	1070.266
584	1066.732
584.2	1063.413
584.5	1060.328
584.7	1056.3
584.9	1051.967
585.2	1045.45
585.4	1039.295
585.7	1031.492
585.9	1024.741
586.1	1017.56
586.4	1008.81
586.6	1003.734
586.9	996.07
587.1	988.75
587.3	982.354
587.6	975.791
587.8	969.146
588.1	962.655
588.3	954.83
588.5	948.663
588.8	942.474
589	938.114
589.3	933.351
589.5	927.977
589.7	925.789
590	921.132
590.2	916.941
590.5	910.945
590.7	904.458
590.9	903.085
591.2	897.911
591.4	893.611
591.7	891.782
591.9	889.663
592.1	887.656
592.4	887.245
592.6	886.672
592.9	887.2
593.1	889.889
593.3	892.291
593.6	894.588
593.8	898.748
594.1	900.905
594.3	903.783
594.5	905.94
594.8	907.547
595	911.084
595.3	913.219
595.5	917.42
595.7	921.622
596	926.008
596.2	928.871
596.4	935.026
596.7	937.832
596.9	940.536
597.2	940.445
597.4	943.892
597.6	945.22
597.9	947.95
598.1	952.401
598.4	954.566
598.6	959.012
598.8	961.822
599.1	962.199
599.3	966.095
599.6	967.83
599.8	971.507
600	975.278
600.3	978.533
600.5	979.37
600.7	982.222
601	984.22
601.2	986.442
601.5	987.381
601.7	989.825
601.9	992.612
602.2	994.822
602.4	994.603
602.7	993.472
602.9	993.046
603.1	991.854
603.4	990.519
603.6	990.903
603.9	987.777
604.1	986.74
604.3	985.744
604.6	985.043
604.8	982.165
605	982.041
605.3	980.211
605.5	977.605
605.8	974.63
606	972.925
606.2	970.485
606.5	967.652
606.7	961.358
607	957.443
607.2	951.545
607.4	946.012
607.7	941.516
607.9	938.624
608.1	935.075
608.4	930.609
608.6	925.774
608.9	921.72
609.1	915.991
609.3	910.579
609.6	906.536
609.8	902.67
610.1	898.627
610.3	891.231
610.5	885.744
610.8	880.132
611	874.814
611.2	870.247
611.5	865.857
611.7	860.2
612	856.674
612.2	852.054
612.4	846.257
612.7	840.834
612.9	836.534
613.1	831.552
613.4	826.181
613.6	821.218
613.9	818.703
614.1	815.535
614.3	812.8
614.6	811.047
614.8	808.803
615	805.371
615.3	801.06
615.5	796.998
615.8	792.653
616	789.576
616.2	785.717
616.5	784.239
616.7	783.176
616.9	779.389
617.2	776.455
617.4	776.217
617.7	774.946
617.9	772.514
618.1	769.674
618.4	767.147
618.6	763.73
618.8	763.308
619.1	763.443
619.3	760.502
619.6	758.393
619.8	755.927
620	754.595
620.3	751.861
620.5	751.122
620.7	747.592
621	745.14
621.2	740.573
621.5	738.695
621.7	737.103
621.9	733.785
622.2	730.643
622.4	729.376
622.6	727.267
622.9	723.854
623.1	723.315
623.4	719.114
623.6	717.119
623.8	714.52
624.1	709.787
624.3	706.913
624.5	703.609
624.8	699.08
625	695.761
625.3	693.969
625.5	691.835
625.7	690.183
626	687.079
626.2	682.104
626.4	677.892
626.7	674.233
626.9	672.242
627.1	669.968
627.4	666.781
627.6	664.171
627.9	661.761
628.1	660.056
628.3	658.408
628.6	657.462
628.8	655.508
629	652.544
629.3	651.597
629.5	650.22
629.8	646.121
630	645.193
630.2	642.312
630.5	640.181
630.7	639.219
630.9	637.439
631.2	634.233
631.4	633.377
631.6	631.163
631.9	629.462
632.1	628.81
632.4	628.908
632.6	627.622
632.8	627.335
633.1	625.548
633.3	625.951
633.5	624.982
633.8	624.771
634	627.003
634.2	626.577
634.5	625.551
634.7	626.604
635	626.011
635.2	625.419
635.4	626.969
635.7	628.327
635.9	626.702
636.1	627.388
636.4	626.683
636.6	623.756
636.8	623.503
637.1	623.56
637.3	622.459
637.5	622.636
637.8	621.821
638	620.829
638.3	619.049
638.5	619.773
638.7	617.628
639	619.34
639.2	618.672
639.4	616.04
639.7	614.893
639.9	611.978
640.1	613.856
640.4	614.154
640.6	611.235
640.9	611.465
641.1	609.941
641.3	605.947
641.6	604.571
641.8	602.727
642	599.789
642.3	597.164
642.5	595.617
642.7	590.284
643	588.116
643.2	585.457
643.4	580.89
643.7	578.831
643.9	576.869
644.1	572.321
644.4	570.982
644.6	567.411
644.9	565.676
645.1	562.802
645.3	560.147
645.6	557.073
645.8	553.026
646	551.997
646.3	547.422
646.5	543.828
646.7	543.473
647	540.535
647.2	539.125
647.4	533.796
647.7	529.568
647.9	529.557
648.1	527.328
648.4	523.922
648.6	522.214
648.9	520.105
649.1	520.335
649.3	520.09
649.6	518.517
649.8	516.198
650	515.376
650.3	511.759
650.5	511.944
650.7	510.628
651	508.723
651.2	509.768
651.4	508.727
651.7	505.174
651.9	503.541
652.1	501.648
652.4	500.083
652.6	499.151
652.8	497.884
653.1	495.172
653.3	491.899
653.5	489.606
653.8	487.614
654	485.578
654.3	482.5
654.5	480.931
654.7	478.178
655	475.9
655.2	473.566
655.4	469.968
655.7	470.797
655.9	471.133
656.1	471.472
656.4	467.784
656.6	464.876
656.8	469.564
657.1	470.944
657.3	470.869
657.5	469.477
657.8	469.093
658	469.341
658.2	469.937
658.5	467.573
658.7	467.716
658.9	469.176
659.2	469.123
659.4	468.059
659.6	468.218
659.9	469.168
660.1	469.002
660.3	469.919
660.6	470.439
660.8	471.555
661	472.061
661.3	470.975
661.5	470.982
661.8	470.929
662	470.352
662.2	470.858
662.5	469.7
662.7	470.741
662.9	468.123
663.2	467.014
663.4	461.919
663.6	460.89
663.9	461.418
664.1	455.666
664.3	453.528
664.6	452.185
664.8	450.25
665	448.561
665.3	447.331
665.5	445.05
665.7	445.985
666	445.306
666.2	442.247
666.4	441.463
666.7	439.924
666.9	437.767
667.1	435.425
667.4	435.417
667.6	434.124
667.8	432.657
668.1	431.382
668.3	430.345
668.5	430.303
668.8	429.168
669	427.094
669.2	427.931
669.5	427.81
669.7	427.222
669.9	424.687
670.2	423.552
670.4	421.938
670.6	422.549
670.9	423.017
671.1	419.509
671.3	417.789
671.6	414.252
671.8	413.558
672	413.833
672.3	413.324
672.5	412.645
672.7	410.439
673	408.81
673.2	406.471
673.4	408.033
673.7	407.241
673.9	406.181
674.1	405.332
674.4	403.903
674.6	401.757
674.8	400.256
675.1	398.966
675.3	396.715
675.5	396.322
675.8	394.414
676	394.229
676.2	395.149
676.5	393.43
676.7	393.792
676.9	392.811
677.2	391.706
677.4	390.224
677.6	389.047
677.9	388.195
678.1	385.77
678.3	385.891
678.5	384.665
678.8	383.398
679	381.546
679.2	380.494
679.5	380.384
679.7	378.506
679.9	379.324
680.2	376.884
680.4	377.82
680.6	374.108
680.9	373.852
681.1	373.445
681.3	373.641
681.6	372.042
681.8	371.842
682	370.876
682.3	370.971
682.5	370.544
682.7	367.912
683	365.11
683.2	361.648
683.4	358.487
683.7	354.357
683.9	350.59
684.1	346.686
684.4	344.695
684.6	341.568
684.8	336.435
685.1	333.313
685.3	330.084
685.5	327.595
685.7	323.76
686	322.27
686.2	319.124
686.4	315.79
686.7	310.179
686.9	307.618
687.1	303.537
687.4	301.693
687.6	297.408
687.8	295.938
688.1	293.177
688.3	290.495
688.5	286.928
688.8	287.659
689	284.48
689.2	284.054
689.5	281.508
689.7	278.845
689.9	276.085
690.2	274.915
690.4	274.195
690.6	271.476
690.8	271.284
691.1	268.753
691.3	267.35
691.5	266.019
691.8	265.532
692	267.406
692.2	268.9
692.5	267.968
692.7	267.769
692.9	268.576
693.2	266.664
693.4	266.841
693.6	266.909
693.9	268.221
694.1	268.636
694.3	269.937
694.5	269.368
694.8	269.311
695	269.217
695.2	267.222
695.5	266.803
695.7	266.007
695.9	265.023
696.2	263.409
696.4	261.821
696.6	260.825
696.9	260.524
697.1	263.522
697.3	264.257
697.6	264.446
697.8	264.778
698	265.638
698.2	264.672
698.5	265.449
698.7	266.377
698.9	267.512
699.2	267.259
699.4	263.537
699.6	264.8
699.9	262.421
700.1	262.089
700.3	264.057
700.6	263.937
700.8	264.118
701	263.477
701.2	262.16
701.5	261.353
701.7	261.44
701.9	260.656
702.2	261.048
702.4	262.326
702.6	262.96
702.9	262.504
703.1	260.26
703.3	262.673
703.6	263.043
703.8	262.832
704	262.805
704.2	259.626
704.5	259.32
704.7	259.683
704.9	260.459
705.2	259.505
705.4	260.882
705.6	261.399
705.9	261.504
706.1	261.24
706.3	260.369
706.5	259.63
706.8	259.188
707	260.377
707.2	260.399
707.5	259.072
707.7	258.234
707.9	257.476
708.2	256.164
708.4	255.953
708.6	255.157
708.8	254.082
709.1	254.335
709.3	251.962
709.5	251.038
709.8	250.793
710	252.177
710.2	251.053
710.5	249.579
710.7	247.388
710.9	247.037
711.1	246.128
711.4	245.992
711.6	244.431
711.8	243.726
712.1	242.67
712.3	242.534
712.5	241.391
712.8	241.221
713	238.283
713.2	235.289
713.4	233.878
713.7	233.554
713.9	230.752
714.1	229.715
714.4	226.569
714.6	223.069
714.8	218.981
715.1	216.152
715.3	214.052
715.5	209.239
715.7	205
716	200.471
716.2	195.123
716.4	192.064
716.7	187.889
716.9	184.563
717.1	178.483
717.3	176.514
717.6	173.067
717.8	171.133
718	168.119
718.3	166.252
718.5	164.468
718.7	163.152
718.9	161.029
719.2	158.536
719.4	156.054
719.6	153.184
719.9	149.65
720.1	149.145
720.3	147.527
720.6	144.231
720.8	142.202
721	141.561
721.2	139.305
721.5	138.193
721.7	137.974
721.9	138.351
722.2	136.854
722.4	135.9
722.6	138.608
722.8	139.177
723.1	141.512
723.3	144.585
723.5	145.113
723.8	146.252
724	144.721
724.2	145.121
724.4	145.66
724.7	147.237
724.9	147.357
725.1	147.576
725.4	147.931
725.6	145.717
725.8	144.321
726	142.296
726.3	139.694
726.5	138.988
726.7	138.34
727	136.809
727.2	134.583
727.4	135.115
727.6	135.673
727.9	136.616
728.1	135.651
728.3	135.119
728.6	136.888
728.8	137.94
729	138.019
729.2	140.403
729.5	140.927
729.7	139.848
729.9	140.829
730.2	140.456
730.4	140.071
730.6	140.655
730.8	139.509
731.1	141.693
731.3	143.175
731.5	141.836
731.7	140.278
732	140.64
732.2	140.916
732.4	140.648
732.7	142.715
732.9	142.428
733.1	142.794
733.3	144.472
733.6	145.389
733.8	146.094
734	150.341
734.3	152.064
734.5	155.059
734.7	156.88
734.9	156.375
735.2	159.317
735.4	160.637
735.6	160.309
735.9	160.38
736.1	161.47
736.3	162.194
736.5	162.56
736.8	163.382
737	162.745
737.2	162.36
737.4	161.915
737.7	161.794
737.9	164.966
738.1	163.646
738.4	164.223
738.6	165.743
738.8	166.015
739	164.487
739.3	164.563
739.5	163.322
739.7	162.858
739.9	165.728
740.2	167.086
740.4	167.195
740.6	166.746
740.9	167.565
741.1	166.045
741.3	165.89
741.5	162.918
741.8	161.783
742	162.458
742.2	161.836
742.4	161.896
742.7	162.7
742.9	162.718
743.1	161.557
743.4	158.921
743.6	158.687
743.8	157.91
744	159.154
744.3	160.29
744.5	159.931
744.7	160.437
744.9	159.49
745.2	162.187
745.4	160.776
745.6	160.173
745.8	160.342
746.1	161.836
746.3	163.111
746.5	165.468
746.8	164.042
747	163.22
747.2	164.076
747.4	165.807
747.7	165.498
747.9	165.762
748.1	164.088
748.3	164.895
748.6	166.022
748.8	164.944
749	164.917
749.2	163.812
749.5	163.001
749.7	161.719
749.9	161.719
750.2	163.899
750.4	164.148
750.6	164.099
750.8	164.189
751.1	162.824
751.3	161.18
751.5	162.213
751.7	163.02
752	161.813
752.2	160.011
752.4	159.758
752.6	159.479
752.9	158.826
753.1	157.661
753.3	156.748
753.5	155.115
753.8	156.903
754	155.081
754.2	154.033
754.4	152.536
754.7	152.094
754.9	150.733
755.1	150.556
755.4	148.979
755.6	149.111
755.8	148.787
756	146.192
756.3	143.345
756.5	140.041
756.7	136.631
756.9	133.041
757.2	127.512
757.4	123.971
757.6	118.366
757.8	113.105
758.1	110.91
758.3	109.16
758.5	103.865
758.7	98.355
759	93.297
759.2	90.661
759.4	87.678
759.6	84.661
759.9	81.662
760.1	78.909
760.3	74.583
760.5	71.34
760.8	66.682
761	63.725
761.2	60.067
761.4	57.359
761.7	55.202
761.9	53.81
762.1	51.63
762.3	48.949
762.6	44.8
762.8	42.88
763	42.319
763.2	44.762
763.5	44.872
763.7	44.612
763.9	45.792
764.1	46.988
764.4	47.93
764.6	51.072
764.8	54.225
765	54.033
765.3	53.501
765.5	55.466
765.7	57.046
765.9	59.712
766.2	60.542
766.4	62.681
766.6	63.292
766.8	64.668
767.1	65.83
767.3	67.546
767.5	69.254
767.7	71.936
768	73.301
768.2	75.345
768.4	76.099
768.6	75.752
768.9	74.987
769.1	76.216
769.3	77.947
769.5	78.807
769.8	80.433
770	81.606
770.2	79.916
770.4	82.024
770.7	83.08
770.9	83.737
771.1	83.303
771.3	84.947
771.6	85.577
771.8	86.297
772	85.683
772.2	84.796
772.5	85.355
772.7	85.668
772.9	84.691
773.1	83.201
773.4	83.393
773.6	84.555
773.8	83.405
774	83.246
774.3	82.368
774.5	81.655
774.7	80.399
774.9	80.293
775.2	80.082
775.4	80.542
775.6	79.875
775.8	81.579
776	81.783
776.3	80.516
776.5	80.339
776.7	79.682
776.9	79.203
777.2	79.053
777.4	77.186
777.6	76.786
777.8	76.22
778.1	76.322
778.3	74.723
778.5	73.769
778.7	73.316
779	72.792
779.2	73.806
779.4	72.826
779.6	72.558
779.9	72.177
780.1	72.385
780.3	70.895
780.5	68.538
780.7	67.874
781	68.492
781.2	69.213
781.4	67.504
781.6	67.716
781.9	68.036
782.1	65.807
782.3	64.642
782.5	64.238
782.8	62.926
783	63.129
783.2	62.798
783.4	62.62
783.7	61.206
783.9	59.46
784.1	57.725
784.3	57.657
784.5	56.707
784.8	53.584
785	52.23
785.2	51.619
785.4	50.314
785.7	48.364
785.9	49.975
786.1	49.032
786.3	48.885
786.6	48.274
786.8	49.066
787	48.817
787.2	48.941
787.4	49.356
787.7	50.469
787.9	49.371
788.1	49.352
788.3	50.216
788.6	49.443
788.8	46.512
789	45.377
789.2	44.234
789.5	43.937
789.7	41.455
789.9	39.407
790.1	37.778
790.3	36.79
790.6	37.129
790.8	37.027
791	38.053
791.2	38.528
791.5	40.433
791.7	41.421
791.9	42.473
792.1	42.107
792.3	41.874
792.6	41.704
792.8	39.169
793	40.478
793.2	40.765
793.5	40.697
793.7	39.89
793.9	38.472
794.1	37.204
794.3	36.639
794.6	36.643
794.8	35.285
795	34.896
795.2	33.931
795.5	33.316
795.7	34.021
795.9	35.356
796.1	34.745
796.3	34.647
796.6	36.722
796.8	36.982
797	39.365
797.2	41.093
797.5	42.383
797.7	43.118
797.9	40.422
798.1	40.606
798.3	47.252
798.6	47.791
798.8	49.873
799	50.853
799.2	51.132
799.5	51.559
799.7	52.848
799.9	50.763
800.1	49.198
800.3	48.492
800.6	48.696
800.8	49.631
801	50.631
801.2	49.903
801.5	49.465
801.7	48.232
801.9	47.659
802.1	48.277
802.3	48.915
802.6	48.21
802.8	47.391
803	48.036
803.2	48.953
803.4	46.916
803.7	47.169
803.9	46.015
804.1	44.751
804.3	43.194
804.6	43.02
804.8	45.249
805	43.408
805.2	33.984
805.4	32.901
805.7	30.355
805.9	28.455
806.1	28.655
806.3	28.285
806.5	27.244
806.8	25.95
807	27.233
807.2	27.097
807.4	27.455
807.6	25.181
807.9	23.755
808.1	24.623
808.3	25.064
808.5	28.692
808.8	29.201
809	27.915
809.2	28.971
809.4	29.145
809.6	28.655
809.9	27.157
810.1	25.705
810.3	27.335
810.5	26.607
810.7	24.521
811	23.095
811.2	22.707
811.4	22.639
811.6	21.824
811.8	22.345
812.1	23.559
812.3	23.552
812.5	22.718
812.7	22.862
812.9	22.337
813.2	22.835
813.4	21.681
813.6	22.07
813.8	20.659
814	19.558
814.3	18.641
814.5	20.471
814.7	19.245
814.9	16.458
815.2	14.934
815.4	12.588
815.6	10.959
815.8	10.076
816	8.191
816.3	8.647
816.5	7.772
816.7	8.734
816.9	9.299
817.1	8.915
817.4	7.35
817.6	7.953
817.8	7.723
818	6.407
818.2	5.637
818.5	5.343
818.7	3.473
818.9	1.247
819.1	2.839
819.3	3.295
819.6	4.272
819.8	5.932
820	4.728
820.2	4.31
820.4	4.925
820.7	3.967
820.9	5.558
821.1	5.034
821.3	3.699
821.5	5.075
821.8	7.063
822	6.49
822.2	7.267
822.4	7.236
822.6	7.844
822.9	8.025
823.1	6.576
823.3	7.071
823.5	5.709
823.7	6.637
823.9	5.279
824.2	5.773
824.4	5.769
824.6	6.463
824.8	6.365
825	6.38
825.3	5.607
825.5	6.637
825.7	7.689
825.9	5.916
826.1	5.547
826.4	5.03
826.6	2.126
826.8	0.693
827	1.715
827.2	1.9
827.5	3.955
827.7	3.714
827.9	4.325
828.1	5.668
828.3	5.626
828.6	5.573
828.8	5.766
829	4.544
829.2	4.864
829.4	5.83
829.6	5.298
829.9	5.671
830.1	5.373
830.3	5.264
830.5	4.74
830.7	4.487
831	4.227
831.2	4.053
831.4	3.548
831.6	4.151
831.8	4.189
832.1	4.495
832.3	5.298
832.5	6.282
832.7	5.298
832.9	5.913
833.1	6.543
833.4	7.41
833.6	10.129
833.8	10.782
834	10.552
834.2	10.322
834.5	8.854
834.7	6.916
834.9	6.211
835.1	5.66
835.3	5.298
835.5	4.559
835.8	4.634
836	4.804
836.2	3.744
836.4	4.563
836.6	4.019
836.9	3.676
837.1	4.774
837.3	5.132
837.5	4.71
837.7	4.476
837.9	3.435
838.2	4.811
838.4	4.502
838.6	5.724
838.8	5.622
839	4.845
839.3	4.951
839.5	6.448
839.7	6.32
839.9	5.026
840.1	5.162
840.3	6.041
840.6	4.6
840.8	5.713
841	4.11
841.2	5.539
841.4	5.762
841.7	6.011
841.9	5.784
842.1	5.969
842.3	7.165
842.5	7.983
842.7	9.035
843	8.956
843.2	7.267
843.4	9.507
843.6	9.876
843.8	9.967
844	8.798
844.3	9.002
844.5	8.82
844.7	9.511
844.9	9.032
845.1	9.194
845.4	7.704
845.6	8.545
845.8	10.363
846	9.062
846.2	8.391
846.4	8.455
846.7	8.715
846.9	9.145
847.1	7.595
847.3	8.956
847.5	7.583
847.7	8.164
848	7.006
848.2	8.149
848.4	8.138
848.6	7.655
848.8	6.682
849	6.765
849.3	5.815
849.5	5.155
849.7	4.698
849.9	4.325
850.1	1.7
850.3	3.563
850.6	4.035
850.8	3.476
851	2.334
851.2	2.073
851.4	1.696
851.6	0.406
851.9	0.497
852.1	1.508
852.3	-0.657
852.5	-2.396
852.7	-1.378
852.9	-0.476
853.2	0.018
853.4	-0.876
853.6	-1.657
853.8	-3.486
854	-5.387
854.2	-3.648
854.5	-3.72
854.7	-3.897
854.9	-4.142
855.1	-4.704
855.3	-3.889
855.5	-2.977
855.8	-3.772
856	-5.47
856.2	-7.363
856.4	-5.488
856.6	-4.089
856.8	-3.629
857.1	-2.822
857.3	-4.146
857.5	-4.282
857.7	-1.985
857.9	-1.23
858.1	0.274
858.4	-0.193
858.6	-0.465
858.8	-1.57
859	-0.921
859.2	-1.819
859.4	-2.63
859.7	-3.837
859.9	-4.772
860.1	-4.451
860.3	-4.727
860.5	-4.621
860.7	-4.085
860.9	-6.031
861.2	-4.953
861.4	-4.361
861.6	-3.667
861.8	-2.577
862	-2.539
862.2	-2.2
862.5	-2.264
862.7	-0.97
862.9	-0.159
863.1	-0.744
863.3	-1.015
863.5	-0.246
863.8	-3.278
864	-1.543
864.2	-0.269
864.4	-1.227
864.6	-2.124
864.8	-3.218
865	-2.897
865.3	-2.286
865.5	-2.056
865.7	-0.325
865.9	0.029
866.1	-0.789
866.3	-0.902
866.6	-0.144
866.8	-0.442
867	-1.566
867.2	-0.706
867.4	-0.612
867.6	-0.782
867.8	-1.408
868.1	-1.985
868.3	-2.66
868.5	-3.29
868.7	-4.308
868.9	-4.806
869.1	-4.142
869.3	-4.044
869.6	-5.123
869.8	-5.669
870	-6.431
870.2	-7.091
870.4	-7.31
870.6	-8.736
870.9	-9.445
871.1	-10.504
871.3	-10.169
871.5	-10.795
871.7	-8.683
871.9	-10.157
872.1	-10.64
872.4	-12.681
872.6	-13.224
872.8	-12.13
873	-12.507
873.2	-13.039
873.4	-11.662
873.6	-10.512
873.9	-11.534
874.1	-11.821
874.3	-12.22
874.5	-13.605
874.7	-14.766
874.9	-15.185
875.1	-16.629
875.4	-16.32
875.6	-17.138
875.8	-17.104
876	-15.456
876.2	-14.106
876.4	-15.098
876.6	-14.759
876.9	-13.733
877.1	-13.54
877.3	-14.283
877.5	-15.875
877.7	-14.408
877.9	-13.258
878.1	-14.008
878.4	-16.516
878.6	-16.456
878.8	-16.135
879	-16.886
879.2	-15.083
879.4	-16.614
879.6	-14.898
879.9	-16.626
880.1	-17.055
880.3	-18.044
880.5	-16.437
880.7	-14.698
880.9	-14.348
881.1	-13.503
881.3	-12.096
881.6	-12.141
881.8	-12.835
882	-12.349
882.2	-10.297
882.4	-10.184
882.6	-11.504
882.8	-11.772
883.1	-11.123
883.3	-11.338
883.5	-12.371
883.7	-10.508
883.9	-10.833
884.1	-10.15
884.3	-11.809
884.6	-13.243
884.8	-10.542
885	-9.98
885.2	-10.086
885.4	-10.331
885.6	-8.042
885.8	-8.411
886	-7.023
886.3	-8.113
886.5	-7.751
886.7	-7.714
886.9	-6.56
887.1	-7.382
887.3	-9.543
887.5	-9.313
887.8	-8.709
888	-9.407
888.2	-8.649
888.4	-7.842
888.6	-7.936
888.8	-10.127
889	-9.788
889.2	-10.67
889.5	-11.979
889.7	-11.643
889.9	-9.456
890.1	-9.875
890.3	-11.225
890.5	-10.388
890.7	-9.667
890.9	-9.856
891.2	-9.501
891.4	-11.176
891.6	-10.463
891.8	-9.12
892	-10.346
892.2	-11.64
892.4	-14.001
892.6	-14.551
892.9	-15.004
893.1	-14.174
893.3	-13.812
893.5	-14.317
893.7	-14.612
893.9	-13.476
894.1	-13.439
894.3	-13.548
894.6	-14.106
894.8	-14.287
895	-12.911
895.2	-12.443
895.4	-11.229
895.6	-12.986
895.8	-12.277
896	-10.81
896.3	-11.87
896.5	-13.386
896.7	-12.251
896.9	-12.696
897.1	-12.417
897.3	-13.046
897.5	-10.674
897.7	-10.486
898	-9.249
898.2	-10.946
898.4	-12.356
898.6	-10.874
898.8	-10.949
899	-9.173
899.2	-7.804
899.4	-6.65
899.6	-7.336
899.9	-8.068
900.1	-5.798
900.3	-5.371
900.5	-5.009
900.7	-5.315
900.9	-6.827
901.1	-5.387
901.3	-6.42
901.6	-7.352
901.8	-7.729
902	-9.682
902.2	-10.003
902.4	-10.75
902.6	-11.093
902.8	-11.896
903	-13.314
903.2	-14.193
903.5	-14.155
903.7	-15.223
903.9	-15.011
904.1	-15.841
904.3	-15.098
904.5	-15.939
904.7	-14.544
904.9	-13.748
905.1	-14.608
905.4	-12.816
905.6	-12.892
905.8	-14.453
906	-14.819
906.2	-14.532
906.4	-13.906
906.6	-15.385
906.8	-13.755
907	-14.321
907.3	-14.378
907.5	-14.966
907.7	-16.279
907.9	-14.679
908.1	-15.226
908.3	-17.055
908.5	-14.97
908.7	-14.193
908.9	-14.329
909.2	-15.63
909.4	-13.88
909.6	-13.141
909.8	-14.027
910	-14.423
910.2	-13.046
910.4	-13.537
910.6	-12.956
910.8	-15.106
911.1	-13.484
911.3	-12.439
911.5	-13.231
911.7	-12.892
911.9	-13.952
912.1	-13.929
912.3	-14.736
912.5	-13.292
912.7	-13.665
912.9	-13.586
913.2	-14.208
913.4	-15.977
913.6	-15.249
913.8	-14.804
914	-12.662
914.2	-12.217
914.4	-12.564
914.6	-12.96
914.8	-11.342
915.1	-10.961
915.3	-10.55
915.5	-9.709
915.7	-9.445
915.9	-9.645
916.1	-9.924
916.3	-9.539
916.5	-9.23
916.7	-9.147
916.9	-7.57
917.2	-8.709
917.4	-6.616
917.6	-8.943
917.8	-10.059
918	-11.183
918.2	-10.821
918.4	-11.723
918.6	-12.322
918.8	-11.768
919	-13.804
919.2	-11.613
919.5	-11.225
919.7	-12.677
919.9	-12.858
920.1	-13.144
920.3	-13.827
920.5	-13.842
920.7	-13.574
920.9	-14.879
921.1	-13.503
921.3	-14.612
921.6	-16.686
921.8	-16.859
922	-17.15
922.2	-18.722
922.4	-19.032
922.6	-19.662
922.8	-18.36
923	-19.043
923.2	-21.129
923.4	-23.252
923.6	-23.535
923.9	-24.108
924.1	-24.304
924.3	-25.786
924.5	-23.769
924.7	-23.712
924.9	-22.747
925.1	-22.241
925.3	-21.521
925.5	-21.019
925.7	-23.128
925.9	-24.217
926.2	-22.807
926.4	-23.233
926.6	-22.965
926.8	-23.384
927	-24.229
927.2	-23.346
927.4	-23.218
927.6	-24.481
927.8	-23.705
928	-23.644
928.2	-23.999
928.5	-24.38
928.7	-22.86
928.9	-21.887
929.1	-20.759
929.3	-20.801
929.5	-18.994
929.7	-18.47
929.9	-17.527
930.1	-17.621
930.3	-17.693
930.5	-16.086
930.8	-13.88
931	-13.827
931.2	-15.124
931.4	-16.388
931.6	-15.826
931.8	-15.596
932	-15.984
932.2	-17.353
932.4	-17.866
932.6	-18.621
932.8	-18.587
933	-20.537
933.3	-20.208
933.5	-20.058
933.7	-20.842
933.9	-20.812
934.1	-19.284
934.3	-18.839
934.5	-18.006
934.7	-18.489
934.9	-18.451
935.1	-17.583
935.3	-17.938
935.5	-19.209
935.7	-20.408
936	-21.63
936.2	-21.038
936.4	-21.019
936.6	-20.001
936.8	-20.107
937	-21.083
937.2	-22.52
937.4	-22.965
937.6	-23.022
937.8	-22.181
938	-24.689
938.2	-25.817
938.4	-24.161
938.7	-21.713
938.9	-21.51
939.1	-21.664
939.3	-20.114
939.5	-18.5
939.7	-19.13
939.9	-20.231
940.1	-19.895
940.3	-19.692
940.5	-21.019
940.7	-21.464
940.9	-21.521
941.1	-20.97
941.4	-21.283
941.6	-21.057
941.8	-21.838
942	-20.427
942.2	-19.831
942.4	-18.866
942.6	-16.969
942.8	-17.406
943	-18.394
943.2	-18.108
943.4	-18.232
943.6	-18.3
943.8	-19.062
944	-18.986
944.3	-19.062
944.5	-18.832
944.7	-16.708
944.9	-17.376
945.1	-16.742
945.3	-16.429
945.5	-14.992
945.7	-15.045
945.9	-16.128
946.1	-14.532
946.3	-14.898
946.5	-15.671
946.7	-15.656
946.9	-14.581
947.1	-15.106
947.4	-15.566
947.6	-17.022
947.8	-16.95
948	-17.874
948.2	-16.908
948.4	-17.821
948.6	-17.252
948.8	-17.946
949	-19.458
949.2	-18.549
949.4	-18.334
949.6	-19.137
949.8	-18.572
950	-18.375
950.2	-15.351
950.5	-14.74
950.7	-15.087
950.9	-13.838
951.1	-16.539
951.3	-15.72
951.5	-17.01
951.7	-19.492
951.9	-19.748
952.1	-21.012
952.3	-20.506
952.5	-21.506
952.7	-19.673
952.9	-19.443
953.1	-19.895
953.3	-20.257
953.5	-19.967
953.8	-18.715
954	-17.089
954.2	-18.485
954.4	-18.164
954.6	-19.956
954.8	-19.824
955	-20.503
955.2	-18.881
955.4	-19.315
955.6	-20.604
955.8	-19.831
956	-19.352
956.2	-18.99
956.4	-18.421
956.6	-20.966
956.8	-21.14
957	-21.43
957.2	-20.755
957.5	-20.148
957.7	-21.675
957.9	-21.864
958.1	-19.903
958.3	-21.313
958.5	-21.936
958.7	-22.709
958.9	-22.615
959.1	-23.557
959.3	-23.508
959.5	-24.07
959.7	-25.002
959.9	-25.108
960.1	-25.771
960.3	-24.87
960.5	-22.524
960.7	-21.86
960.9	-20.186
961.1	-20.782
961.4	-21.151
961.6	-23.859
961.8	-23.972
962	-24.406
962.2	-23.207
962.4	-25.036
962.6	-24.7
962.8	-25.504
963	-25.862
963.2	-26.13
963.4	-25.409
963.6	-26.808
963.8	-27.563
964	-28.936
964.2	-29.648
964.4	-28.687
964.6	-27.227
964.8	-26.081
965	-25.666
965.2	-25.839
965.5	-25.36
965.7	-24.236
965.9	-23.557
966.1	-23.814
966.3	-21.989
966.5	-19.435
966.7	-22.369
966.9	-21.408
967.1	-22.977
967.3	-23.524
967.5	-22.271
967.7	-22.528
967.9	-21.608
968.1	-20.235
968.3	-17.659
968.5	-18.839
968.7	-17.014
968.9	-16.588
969.1	-15.973
969.3	-14.28
969.5	-13.959
969.7	-13.804
969.9	-12.549
970.2	-11.259
970.4	-9.999
970.6	-10.312
970.8	-10.825
971	-9.607
971.2	-9.697
971.4	-9.369
971.6	-9.433
971.8	-9.739
972	-11.191
972.2	-9.954
972.4	-9.603
972.6	-12.19
972.8	-14.48
973	-12.718
973.2	-13.593
973.4	-12.975
973.6	-12.884
973.8	-13.861
974	-13.695
974.2	-13.642
974.4	-15.86
974.6	-17.606
974.8	-16.682
975	-17.172
975.2	-18.455
975.5	-19.266
975.7	-19.307
975.9	-18.179
976.1	-18.383
976.3	-19.752
976.5	-18.628
976.7	-19.054
976.9	-17.757
977.1	-18.945
977.3	-19.477
977.5	-20.872
977.7	-20.834
977.9	-19.496
978.1	-19.167
978.3	-18.553
978.5	-20.129
978.7	-19.963
978.9	-18.692
979.1	-18.583
979.3	-18.149
979.5	-18.33
979.7	-19.141
979.9	-19.254
980.1	-19.703
980.3	-19.888
980.5	-19.861
980.7	-18.443
980.9	-15.754
981.1	-16.527
981.3	-16.222
981.5	-15.766
981.7	-15.788
981.9	-16.912
982.2	-17.353
982.4	-18.515
982.6	-15.886
982.8	-18.696
983	-18.564
983.2	-18.213
983.4	-17.24
983.6	-17.991
983.8	-15.603
984	-15.849
984.2	-15.404
984.4	-15.619
984.6	-17.033
984.8	-16.701
985	-14.97
985.2	-14.28
985.4	-14.913
985.6	-16.316
985.8	-16.931
986	-15.241
986.2	-13.948
986.4	-13.846
986.6	-12.036
986.8	-12.752
987	-11.851
987.2	-13.367
987.4	-14.706
987.6	-14.389
987.8	-15.2
988	-14.453
988.2	-14.483
988.4	-14.54
988.6	-13.714
988.8	-17.38
989	-15.23
989.2	-15.879
989.4	-15.366
989.6	-15.864
989.8	-16.241
990	-15.196
990.2	-15.739
990.4	-17.233
990.6	-16.377
990.8	-14.234
991	-14.151
991.3	-14.94
991.5	-15.935
991.7	-17.172
991.9	-17.033
992.1	-16.773
992.3	-16.226
992.5	-17.406
992.7	-17.504
992.9	-18.794
993.1	-17.757
993.3	-18.413
993.5	-19.835
993.7	-18.36
993.9	-17.832
994.1	-17.855
994.3	-17.599
994.5	-16.961
994.7	-16.592
994.9	-16.395
995.1	-15.536
995.3	-15.128
995.5	-14.246
995.7	-16.033
995.9	-14.804
996.1	-14.578
996.3	-17.964
996.5	-18.013
996.7	-18.673
996.9	-19.601
997.1	-22.441
997.3	-23.267
997.5	-24.293
997.7	-23.697
997.9	-22.954
998.1	-21.038
998.3	-20.782
998.5	-22
998.7	-21.702
998.9	-19.805
999.1	-20.273
999.3	-20.137
999.5	-21.219
999.7	-21.415
999.9	-22.72
1000.1	-24.802
1000.3	-24.033
1000.5	-24.342
1000.7	-24.938
1000.9	-25.809
1001.1	-25.549
1001.3	-24.372
1001.5	-26.635
1001.7	-26.65
1001.9	-26.303
1002.1	-27.499
1002.3	-27.476
1002.5	-27.815
1002.7	-27.8
1002.9	-27.8
1003.1	-27.548
1003.3	-26.397
1003.5	-25.043
1003.7	-24.934
1003.9	-23.569
1004.1	-22.483
1004.3	-23.177
1004.5	-22.977
1004.7	-22.479
1004.9	-23.859
1005.1	-24.613
1005.3	-23.863
1005.5	-25.436
1005.7	-23.686
1005.9	-24.625
1006.1	-23.821
1006.3	-22.177
1006.5	-23.803
1006.7	-23.139
1006.9	-22.543
1007.1	-22.667
1007.3	-22.713
1007.5	-22.136
1007.7	-21.189
1007.9	-22.716
1008.1	-22.264
1008.3	-22.124
1008.5	-21.675
1008.7	-18.308
1008.9	-17.406
1009.1	-15.671
1009.3	-17.233
1009.5	-16.588
1009.7	-17.731
1009.9	-17.252
1010.1	-19.53
1010.3	-18.285
1010.5	-19.205
1010.7	-19.846
1010.9	-20.917
1011.1	-20.612
1011.3	-21.253
1011.5	-22.234
1011.7	-21.389
1011.9	-23.112
1012.1	-20.239
1012.3	-19.948
1012.5	-20.533
1012.7	-19.786
1012.9	-20.623
1013.1	-21.758
1013.3	-20.861
1013.5	-20.638
1013.7	-21.2
1013.9	-22.641
1014.1	-21.642
1014.3	-22.173
1014.5	-22.509
1014.7	-22.49
1014.9	-26.032
1015.1	-25.632
1015.3	-27.94
1015.5	-28.147
1015.7	-28.343
1015.9	-27.167
1016.1	-28.747
1016.3	-26.767
1016.5	-29.513
1016.7	-27.932
1016.9	-28.332
1017.1	-28.551
1017.3	-28.102
1017.5	-27.152
1017.7	-26.873
1017.9	-27.072
1018.1	-26.348
1018.3	-27.714
1018.5	-28.672
1018.7	-28.4
1018.9	-27.959
1019.1	-29.309
1019.2	-30.025
1019.4	-30.836
1019.6	-31.127
1019.8	-31.617
1020	-29.679
1020.2	-30.312
1020.4	-27.77
1020.6	-27.872
1020.8	-29.992
1021	-27.45
1021.2	-29.015
1021.4	-27.348
1021.6	-23.931
1021.8	-23.546
1022	-24.165
1022.2	-22.317
1022.4	-22.626
1022.6	-22.935
1022.8	-24.342
1023	-24.734
1023.2	-24.195
1023.4	-24.723
1023.6	-25.439
1023.8	-22
1024	-21.845
1024.2	-23.422
1024.4	-23.192
1024.6	-22.72
1024.8	-23.92
1025	-23.554
1025.2	-23.252
1025.4	-20.604
1025.6	-20.733
1025.8	-20.823
1026	-20.785
1026.2	-20.638
1026.4	-19.65
1026.6	-21.868
1026.8	-19.884
1027	-18.986
1027.2	-18.643
1027.4	-18.432
1027.6	-18.345
1027.8	-20.989
1028	-21.939
1028.1	-20.729
1028.3	-22.286
1028.5	-22.89
1028.7	-22.411
1028.9	-23.399
1029.1	-23.18
1029.3	-23.595
1029.5	-23.358
1029.7	-23.418
1029.9	-25.617
1030.1	-23.799
1030.3	-22.954
1030.5	-21.117
1030.7	-20.197
1030.9	-18.515
1031.1	-18.707
1031.3	-18.903
1031.5	-19.669
1031.7	-19.926
1031.9	-19.929
1032.1	-20.578
1032.3	-22.63
1032.5	-23.686
1032.7	-24.855
1032.9	-26.854
1033.1	-26.68
1033.3	-26.963
1033.5	-27.114
1033.7	-27.857
1033.9	-27.22
1034.1	-26.805
1034.3	-25.669
1034.4	-25.364
1034.6	-25.462
1034.8	-23.893
1035	-22.784
1035.2	-22.724
1035.4	-21.449
1035.6	-21.608
1035.8	-21.249
1036	-22.075
1036.2	-24.591
1036.4	-24.881
1036.6	-26.488
1036.8	-28.347
1037	-28.822
1037.2	-30.444
1037.4	-30.874
1037.6	-32.115
1037.8	-31.376
1038	-31.357
1038.2	-30.52
1038.4	-29.743
1038.6	-28.415
1038.8	-27.14
1039	-25.277
1039.2	-25.817
1039.4	-26.416
1039.5	-24.644
1039.7	-24.259
1039.9	-23.414
1040.1	-23.87
1040.3	-25.028
1040.5	-23.803
1040.7	-24.693
1040.9	-26.137
1041.1	-27.57
1041.3	-28.064
1041.5	-29.452
1041.7	-28.672
1041.9	-29.098
1042.1	-29.482
1042.3	-28.796
1042.5	-28.03
1042.7	-28.401
1042.9	-27.742
1043.1	-28.121
1043.3	-26.92
1043.5	-25.43
1043.7	-24.464
1043.8	-24.818
1044	-24.874
1044.2	-24.846
1044.4	-23.938
1044.6	-24.757
1044.8	-25.302
1045	-27.618
1045.2	-26.496
