Data from mesure_FLMT021711__5__27.txt Node

Date: Mon Nov 04 11:51:14 CET 2024
User: jordan.swietlicki
Spectrometer: FLMT02171
Trigger mode: 0
Integration Time (sec): 1.000000E-1
Scans to average: 15
Electric dark correction enabled: true
Nonlinearity correction enabled: false
Boxcar width: 15
XAxis mode: Wavelengths
Number of Pixels in Spectrum: 3648
>>>>>Begin Spectral Data<<<<<
194.7	-37.44
194.9	-36.112
195.2	-31.366
195.5	-31.759
195.7	-28.254
196	-26.932
196.2	-25.778
196.5	-26.981
196.8	-25.707
197	-24.791
197.3	-24.284
197.6	-21.393
197.8	-21.858
198.1	-20.713
198.4	-19.439
198.6	-18.228
198.9	-14.706
199.2	-10.923
199.4	-6.457
199.7	-0.382
200	-0.238
200.2	-2.177
200.5	-2.252
200.7	-2.878
201	-1.513
201.3	-1.588
201.5	-1.49
201.8	-1.811
202.1	-0.238
202.3	-0.178
202.6	-0.563
202.9	-0.785
203.1	0.045
203.4	-1.999
203.7	-1.211
203.9	-1.962
204.2	-2.267
204.5	-1.698
204.7	0.003
205	1.108
205.2	1.614
205.5	2.149
205.8	1.323
206	5.457
206.3	6.29
206.6	7.731
206.8	7.95
207.1	8.674
207.4	10.167
207.6	12.456
207.9	12.294
208.2	12.581
208.4	14.033
208.7	14.161
208.9	15.685
209.2	14.78
209.5	14.946
209.7	15.704
210	16.205
210.3	16.228
210.5	18.657
210.8	19.479
211.1	19.928
211.3	19.833
211.6	19.328
211.9	19.637
212.1	19.173
212.4	19.592
212.6	19.592
212.9	19.249
213.2	16.948
213.4	18.129
213.7	19.181
214	19.256
214.2	15.621
214.5	15.436
214.8	14.501
215	14.082
215.3	16.692
215.5	17.45
215.8	15.251
216.1	15.583
216.3	15.647
216.6	14.685
216.9	14.78
217.1	15.198
217.4	15.379
217.7	15.142
217.9	12.291
218.2	12.521
218.5	11.849
218.7	9.956
219	10.02
219.2	10.967
219.5	11.668
219.8	13.018
220	12.766
220.3	14.621
220.6	15.715
220.8	14.783
221.1	15.262
221.4	15.394
221.6	14.55
221.9	14.565
222.1	13.622
222.4	13.079
222.7	14.229
222.9	12.275
223.2	11.442
223.5	9.028
223.7	10.239
224	9.798
224.2	9.19
224.5	10.111
224.8	10.103
225	9.549
225.3	8.975
225.6	8.647
225.8	9.507
226.1	11.755
226.4	10.593
226.6	9.997
226.9	10.906
227.1	10.812
227.4	10.394
227.7	9.311
227.9	8.108
228.2	8.455
228.5	6.747
228.7	5.57
229	5.491
229.3	5.985
229.5	9.134
229.8	8.561
230	8.097
230.3	6.894
230.6	8.383
230.8	6.754
231.1	8.323
231.4	7.965
231.6	12.238
231.9	10.955
232.1	12.128
232.4	11.118
232.7	10.126
232.9	10.348
233.2	9.469
233.5	9.304
233.7	10.005
234	9.187
234.2	7.852
234.5	9.168
234.8	11.427
235	11.186
235.3	11.423
235.6	11.51
235.8	11.736
236.1	13.147
236.4	13.377
236.6	14.557
236.9	15.368
237.1	16.846
237.4	16.503
237.7	12.837
237.9	12.777
238.2	11.423
238.5	13.184
238.7	12.777
239	13.603
239.2	12.656
239.5	14.591
239.8	10.767
240	9.371
240.3	11.012
240.6	11.442
240.8	11.14
241.1	10.876
241.3	11.02
241.6	10.318
241.9	8.278
242.1	8.429
242.4	9.707
242.7	8.866
242.9	8.666
243.2	8.176
243.4	8.097
243.7	7.116
244	6.249
244.2	7.112
244.5	6.049
244.8	6.433
245	6.358
245.3	7.146
245.5	6.328
245.8	7.795
246.1	7.742
246.3	7.606
246.6	7.923
246.9	9.141
247.1	9.111
247.4	10.054
247.6	11.453
247.9	11.295
248.2	11.419
248.4	8.87
248.7	8.881
248.9	8.455
249.2	8.5
249.5	9.183
249.7	9.288
250	9.251
250.3	9.153
250.5	8.941
250.8	10.635
251	8.73
251.3	9.443
251.6	11.559
251.8	11.91
252.1	12.728
252.4	9.104
252.6	10.209
252.9	8.625
253.1	8.082
253.4	6.075
253.7	7.531
253.9	8.395
254.2	9.236
254.4	8.975
254.7	8.772
255	9.164
255.2	9.571
255.5	8.926
255.8	7.878
256	8.131
256.3	8.998
256.5	9.213
256.8	9.436
257.1	10.216
257.3	9.492
257.6	10.427
257.8	10.993
258.1	12.751
258.4	14.214
258.6	14.376
258.9	13.724
259.2	12.868
259.4	12.83
259.7	8.964
259.9	8.161
260.2	9.107
260.5	11.661
260.7	11.355
261	11.05
261.2	10.443
261.5	10.888
261.8	10.031
262	11.038
262.3	10.092
262.6	10.575
262.8	9.605
263.1	8.515
263.3	6.89
263.6	6.607
263.9	5.415
264.1	5.498
264.4	6.799
264.6	7.029
264.9	5.917
265.2	7.158
265.4	7.188
265.7	7.761
266	6.271
266.2	6.603
266.5	5.63
266.7	3.375
267	1.27
267.3	2.157
267.5	2.79
267.8	5.724
268	6.03
268.3	4.812
268.6	3.356
268.8	4.751
269.1	3.48
269.3	1.904
269.6	1.614
269.9	1.383
270.1	-1.06
270.4	-0.415
270.6	0.335
270.9	0.546
271.2	-0.106
271.4	-1.739
271.7	-2.101
272	-2.094
272.2	-0.638
272.5	-2.618
272.7	-1.637
273	0.229
273.3	-0.231
273.5	2.191
273.8	0.305
274	1.84
274.3	0.414
274.6	0.576
274.8	3.669
275.1	5.615
275.3	6.826
275.6	6.019
275.9	4.88
276.1	5.694
276.4	6.305
276.6	7.572
276.9	6.479
277.2	9.322
277.4	10.258
277.7	12.494
277.9	12.43
278.2	13.181
278.5	14.501
278.7	14.61
279	13.942
279.2	13.331
279.5	14.527
279.8	15.134
280	14.855
280.3	12.536
280.5	12.125
280.8	12.592
281.1	11.544
281.3	11.996
281.6	9.417
281.9	10.989
282.1	10.703
282.4	10.529
282.6	10.597
282.9	9.571
283.2	8.696
283.4	7.591
283.7	7.693
283.9	7.938
284.2	8.176
284.5	6.66
284.7	5.966
285	5.46
285.2	3.024
285.5	5.076
285.8	2.76
286	6.758
286.3	7.512
286.5	6.252
286.8	6.211
287.1	7.474
287.3	8.508
287.6	8.142
287.8	8.957
288.1	8.142
288.4	8.628
288.6	11.397
288.9	10.212
289.1	10.518
289.4	8.568
289.7	10.096
289.9	8.474
290.2	9.873
290.4	11.793
290.7	10.363
290.9	9.255
291.2	10.016
291.5	11.133
291.7	12
292	12.332
292.2	11.653
292.5	13.241
292.8	14.255
293	13.516
293.3	14.783
293.5	15.685
293.8	16.432
294.1	13.837
294.3	12.766
294.6	12.728
294.8	13.015
295.1	13.569
295.4	13.573
295.6	13.878
295.9	14.014
296.1	13.622
296.4	13.445
296.7	9.979
296.9	10.774
297.2	9.232
297.4	10.454
297.7	9.217
298	10.182
298.2	8.904
298.5	9.27
298.7	11.578
299	13
299.3	13.377
299.5	11.913
299.8	12.351
300	12.483
300.3	12.988
300.5	12.641
300.8	10.51
301.1	11.714
301.3	12.6
301.6	10.009
301.8	7.508
302.1	6.777
302.4	7.15
302.6	7.139
302.9	6.965
303.1	5.023
303.4	5.6
303.7	6.977
303.9	4.951
304.2	5.423
304.4	5.438
304.7	7.867
304.9	5.283
305.2	8.315
305.5	8.146
305.7	7.621
306	8.308
306.2	9.507
306.5	9.062
306.8	7.225
307	5.17
307.3	4.205
307.5	4.944
307.8	2.39
308.1	0.98
308.3	1.847
308.6	0.754
308.8	2.345
309.1	3.379
309.3	4.091
309.6	3.639
309.9	6.241
310.1	6.441
310.4	7.161
310.6	7.056
310.9	6.467
311.2	7.286
311.4	7.256
311.7	7.225
311.9	7.539
312.2	8.319
312.5	8.217
312.7	7.904
313	8.945
313.2	7.953
313.5	7.87
313.7	7.342
314	6.226
314.3	5.279
314.5	5.566
314.8	6.871
315	7.757
315.3	7.252
315.6	5.992
315.8	6.037
316.1	6.373
316.3	4.714
316.6	6.226
316.8	6.007
317.1	5.004
317.4	2.583
317.6	3.232
317.9	2.164
318.1	1.632
318.4	0.954
318.6	0.294
318.9	-0.099
319.2	-0.291
319.4	-1.008
319.7	-2.384
319.9	-1.92
320.2	-1.257
320.5	-0.759
320.7	-1.03
321	-1.219
321.2	-1.739
321.5	-0.521
321.7	0.833
322	1.934
322.3	1.448
322.5	1.308
322.8	-0.125
323	0.067
323.3	1.644
323.5	2.892
323.8	4.02
324.1	4.027
324.3	4.736
324.6	3.744
324.8	3.952
325.1	2.651
325.4	3.62
325.6	4.163
325.9	4.133
326.1	5.087
326.4	4.872
326.6	4.389
326.9	5.491
327.2	5.245
327.4	5.89
327.7	6.2
327.9	7.271
328.2	6.954
328.4	6.999
328.7	9.036
329	9.839
329.2	9.805
329.5	8.561
329.7	8.417
330	8.753
330.2	9.99
330.5	10.386
330.8	10.495
331	11.265
331.3	9.722
331.5	9.847
331.8	9.213
332	8.87
332.3	6.848
332.6	7.41
332.8	7.327
333.1	8.689
333.3	10.152
333.6	10.163
333.8	10.582
334.1	10.258
334.4	9.111
334.6	9.326
334.9	8.387
335.1	8.002
335.4	6.467
335.6	7.222
335.9	4.846
336.2	3.364
336.4	3.13
336.7	0.701
336.9	1.591
337.2	1.334
337.4	1.968
337.7	1.81
338	-0.97
338.2	-1.17
338.5	-2.599
338.7	-1.999
339	-1.754
339.2	-0.023
339.5	-1.577
339.8	-0.913
340	-0.261
340.3	1.089
340.5	1.395
340.8	3.394
341	3.733
341.3	1.376
341.6	1.497
341.8	2.621
342.1	0.591
342.3	2.108
342.6	3.567
342.8	4.766
343.1	5.921
343.4	6.645
343.6	5.63
343.9	7.542
344.1	9.296
344.4	8.67
344.6	8.217
344.9	7.803
345.1	7.58
345.4	6.943
345.7	6.483
345.9	8.165
346.2	6.592
346.4	6.06
346.7	4.582
346.9	4.544
347.2	2.326
347.5	3.05
347.7	2.722
348	0.769
348.2	1.218
348.5	0.637
348.7	2.115
349	1.244
349.2	3.262
349.5	3.71
349.8	3.103
350	3.462
350.3	3.382
350.5	2.888
350.8	2.492
351	1.998
351.3	2.986
351.6	2.605
351.8	1.964
352.1	0.852
352.3	0.701
352.6	1.399
352.8	0.95
353.1	0.844
353.3	0.607
353.6	0.667
353.9	0.037
354.1	-0.148
354.4	0.81
354.6	3.013
354.9	2.209
355.1	4.242
355.4	4.506
355.6	5.645
355.9	6.928
356.2	6.792
356.4	7.192
356.7	3.149
356.9	3.922
357.2	3.665
357.4	3.133
357.7	1.817
358	5.14
358.2	5.438
358.5	5.468
358.7	3.416
359	3.929
359.2	3.79
359.5	4.118
359.7	5.641
360	6.2
360.3	8.451
360.5	8.051
360.8	7.648
361	9.255
361.3	8.519
361.5	9.028
361.8	10.167
362	11.51
362.3	11.412
362.6	11.506
362.8	13.098
363.1	13.267
363.3	14.059
363.6	14.553
363.8	15.534
364.1	14.233
364.3	14.206
364.6	15.327
364.8	15.542
365.1	14.859
365.4	16.533
365.6	17.495
365.9	15.828
366.1	14.991
366.4	14.708
366.6	16.469
366.9	17.499
367.1	17.273
367.4	19.158
367.7	19.305
367.9	19.49
368.2	19.049
368.4	17.737
368.7	18.442
368.9	18.943
369.2	17.295
369.4	17.616
369.7	18.125
370	18.117
370.2	16.952
370.5	16.492
370.7	15.76
371	16.33
371.2	16.134
371.5	15.926
371.7	16.628
372	17.427
372.2	17.544
372.5	19.155
372.8	18.2
373	16.499
373.3	14.304
373.5	15.968
373.8	15.247
374	15.734
374.3	17.295
374.5	18.314
374.8	18.777
375	18.8
375.3	18.679
375.6	17.929
375.8	19.03
376.1	19.743
376.3	21.772
376.6	20.889
376.8	17.978
377.1	21.64
377.3	20.482
377.6	19.464
377.8	19.886
378.1	22.251
378.4	22.066
378.6	22.187
378.9	19.867
379.1	20.938
379.4	20.388
379.6	18.74
379.9	17.687
380.1	17.488
380.4	16.115
380.6	16.711
380.9	17.344
381.2	17.752
381.4	16.884
381.7	18.721
381.9	19.381
382.2	18.702
382.4	17.484
382.7	15.602
382.9	15.704
383.2	15.802
383.4	15.692
383.7	16.582
383.9	15.213
384.2	15.085
384.5	16.911
384.7	18.521
385	18.136
385.2	19.743
385.5	20.026
385.7	19.049
386	19.173
386.2	19.275
386.5	17.371
386.7	18.457
387	16.963
387.2	17.593
387.5	19.272
387.8	20.863
388	22.364
388.3	22.915
388.5	23.303
388.8	25.66
389	26.264
389.3	24.812
389.5	23.171
389.8	23.922
390	23.364
390.3	23.469
390.5	23.469
390.8	25.498
391.1	24.985
391.3	25.245
391.6	23.703
391.8	24.435
392.1	23.582
392.3	24.054
392.6	24.925
392.8	25.408
393.1	28.625
393.3	29.922
393.6	31.231
393.8	30.82
394.1	33.199
394.4	35.73
394.6	36.945
394.9	38.544
395.1	39.102
395.4	38.238
395.6	39.592
395.9	37.688
396.1	37.284
396.4	38.182
396.6	37.744
396.9	37.129
397.1	37.714
397.4	39.238
397.6	38.51
397.9	38.736
398.2	39.781
398.4	42.24
398.7	41.206
398.9	40.969
399.2	41.93
399.4	42.737
399.7	42.025
399.9	42.651
400.2	41.621
400.4	40.991
400.7	41.003
400.9	38.759
401.2	38.913
401.4	39.181
401.7	38.744
401.9	37.103
402.2	34.965
402.5	34.58
402.7	32.411
403	32.2
403.2	33.128
403.5	32.717
403.7	33.633
404	33.878
404.2	32.551
404.5	33.479
404.7	35.029
405	36.839
405.2	36.552
405.5	37.68
405.7	39.117
406	38.989
406.2	38.849
406.5	40.328
406.7	40.886
407	40.071
407.3	39.977
407.5	40.58
407.8	41.161
408	40.618
408.3	41.063
408.5	41.406
408.8	40.192
409	41.678
409.3	41.847
409.5	43.639
409.8	43.167
410	45.924
410.3	46.203
410.5	49.651
410.8	48.172
411	47.976
411.3	48.432
411.5	49.187
411.8	49.466
412	49.99
412.3	49.817
412.6	50.801
412.8	50.065
413.1	49.16
413.3	49.047
413.6	47.806
413.8	48.357
414.1	47.056
414.3	46.377
414.6	46.92
414.8	45.479
415.1	44.653
415.3	44.733
415.6	46.339
415.8	47.173
416.1	47.833
416.3	47.474
416.6	49.843
416.8	47.712
417.1	48.919
417.3	46.498
417.6	47.923
417.8	47.561
418.1	48.153
418.4	47.52
418.6	49.322
418.9	50.073
419.1	50.526
419.4	50.752
419.6	51.095
419.9	52.102
420.1	51.453
420.4	50.303
420.6	50.065
420.9	49.594
421.1	48.696
421.4	48.749
421.6	48.681
421.9	49.334
422.1	47.95
422.4	47.557
422.6	49.379
422.9	48.527
423.1	48.945
423.4	47.889
423.6	48.315
423.9	48.926
424.1	49.251
424.4	46.86
424.6	45.66
424.9	44.438
425.1	44.039
425.4	41.742
425.6	42.685
425.9	40.708
426.2	40.98
426.4	39.634
426.7	38.853
426.9	37.921
427.2	36.205
427.4	35.726
427.7	34.636
427.9	33.724
428.2	33.973
428.4	35.153
428.7	35.232
428.9	36.058
429.2	37.299
429.4	37.031
429.7	36.073
429.9	33.958
430.2	33.15
430.4	33.633
430.7	36.605
430.9	36.292
431.2	36.126
431.4	35.907
431.7	35.474
431.9	34.271
432.2	35.7
432.4	36.873
432.7	36.76
432.9	39.03
433.2	41.248
433.4	40.309
433.7	42.477
433.9	41.414
434.2	41.297
434.4	40.886
434.7	42.062
434.9	44.076
435.2	43.22
435.4	43.318
435.7	44.152
435.9	43.45
436.2	44.216
436.4	44.936
436.7	43.941
436.9	41.927
437.2	41.436
437.4	42.67
437.7	45.359
437.9	46.882
438.2	45.015
438.4	43.978
438.7	44.246
438.9	43.956
439.2	42.436
439.4	40.565
439.7	40.58
439.9	40.46
440.2	39.366
440.5	40.788
440.7	40.222
441	39.06
441.2	38.981
441.5	37.431
441.7	37.201
442	38.446
442.2	38.596
442.5	36.76
442.7	36.99
443	37.703
443.2	37.88
443.5	36.394
443.7	37.171
444	34.569
444.2	35.161
444.5	36.443
444.7	38.472
445	38.468
445.2	38.374
445.5	37.352
445.7	37.337
446	37.755
446.2	37.695
446.5	38.57
446.7	38.879
447	39.901
447.2	40.856
447.5	42.549
447.7	41.821
448	41.353
448.2	40.377
448.5	39.769
448.7	41.565
449	40.807
449.2	41.097
449.5	41.599
449.7	40.569
450	40.403
450.2	42.854
450.5	41.301
450.7	42.375
451	42.787
451.2	44.125
451.5	43.273
451.7	45.585
452	47.848
452.2	48.101
452.5	47.388
452.7	48.991
452.9	48.429
453.2	48.391
453.4	49.413
453.7	50.846
453.9	49.866
454.2	48.802
454.4	48.742
454.7	49.798
454.9	49.975
455.2	48.911
455.4	49.141
455.7	51.235
455.9	50.771
456.2	51.582
456.4	51.397
456.7	51.951
456.9	52.151
457.2	51.683
457.4	53.09
457.7	55.002
457.9	53.848
458.2	53.558
458.4	53.86
458.7	53.878
458.9	53.35
459.2	53.43
459.4	54.802
459.7	54.535
459.9	53.946
460.2	53.833
460.4	52.464
460.7	54.621
460.9	56.413
461.2	54.633
461.4	53.709
461.7	55.7
461.9	56.13
462.2	55.625
462.4	54.75
462.7	56.073
462.9	55.56
463.2	55.643
463.4	54.98
463.7	55.598
463.9	55.911
464.2	54.693
464.4	55.164
464.7	56.42
464.9	55.368
465.2	55.983
465.4	55.685
465.7	56.809
465.9	58.928
466.2	59.404
466.4	59.867
466.6	60.852
466.9	60.795
467.1	58.084
467.4	57.186
467.6	58.133
467.9	58.095
468.1	57.978
468.4	55.655
468.6	54.244
468.9	54.293
469.1	54.927
469.4	54.501
469.6	54.678
469.9	54.704
470.1	56.303
470.4	54.372
470.6	56.371
470.9	57.435
471.1	58.54
471.4	57.457
471.6	57.288
471.9	59.26
472.1	59.581
472.4	58.249
472.6	60.512
472.9	59.445
473.1	59.89
473.4	60.475
473.6	60.335
473.9	58.415
474.1	58.249
474.3	57.548
474.6	59.539
474.8	59.453
475.1	58.555
475.3	56.771
475.6	57.454
475.8	58.868
476.1	61.12
476.3	60.516
476.6	62.179
476.8	62.221
477.1	64.631
477.3	64.933
477.6	66.615
477.8	65.966
478.1	66.913
478.3	67.003
478.6	67.882
478.8	66.535
479.1	67.433
479.3	66.494
479.6	67.124
479.8	66.29
480.1	68.27
480.3	68.002
480.5	67.972
480.8	66.807
481	67.622
481.3	67.082
481.5	68.236
481.8	67.493
482	69.673
482.3	69.56
482.5	69.262
482.8	69.801
483	71.638
483.3	71.717
483.5	73.448
483.8	72.536
484	73.339
484.3	71.838
484.5	73.188
484.8	72.849
485	72.856
485.2	71.095
485.5	72.679
485.7	72.581
486	72.389
486.2	71.974
486.5	74.437
486.7	74.214
487	76.511
487.2	74.931
487.5	77.031
487.7	77.122
488	75.892
488.2	76.379
488.5	76.209
488.7	74.044
489	73.788
489.2	73.814
489.5	74.916
489.7	74.784
489.9	72.347
490.2	72.396
490.4	72.577
490.7	72.211
490.9	72.03
491.2	70.145
491.4	71.382
491.7	72.86
491.9	73.528
492.2	73.12
492.4	71.623
492.7	72.355
492.9	75.176
493.2	74.652
493.4	73.448
493.6	72.626
493.9	73.128
494.1	70.148
494.4	70.59
494.6	69.277
494.9	68.304
495.1	66.098
495.4	64.978
495.6	66.747
495.9	67.859
496.1	69.002
496.4	69.488
496.6	71.155
496.9	73.761
497.1	73.671
497.3	72.981
497.6	74.256
497.8	77.08
498.1	76.428
498.3	76.383
498.6	75.568
498.8	75.444
499.1	75.021
499.3	76.168
499.6	77.831
499.8	77.178
500.1	75.432
500.3	75.824
500.6	74.708
500.8	74.388
501	76.971
501.3	76.337
501.5	74.225
501.8	76.579
502	78.28
502.3	77.148
502.5	76.036
502.8	77.329
503	79.136
503.3	76.854
503.5	74.78
503.8	75.293
504	74.58
504.2	74.829
504.5	73.441
504.7	74.444
505	74.489
505.2	76.175
505.5	75.56
505.7	76.319
506	76.036
506.2	77.748
506.5	77.578
506.7	76.213
506.9	74.904
507.2	73.724
507.4	72.204
507.7	74.376
507.9	73.58
508.2	74.825
508.4	73.086
508.7	71.88
508.9	72.11
509.2	73.298
509.4	73.411
509.7	72.506
509.9	74.587
510.1	75.919
510.4	74.953
510.6	73.026
510.9	75.149
511.1	76.647
511.4	76.684
511.6	77.872
511.9	76.077
512.1	74.685
512.4	74.667
512.6	74.938
512.8	72.581
513.1	71.242
513.3	71.416
513.6	71.646
513.8	71.272
514.1	70.68
514.3	70.345
514.6	70.737
514.8	69.734
515.1	72.332
515.3	71.227
515.5	72.249
515.8	71.698
516	73.46
516.3	73.671
516.5	73.245
516.8	73.369
517	71.393
517.3	70.891
517.5	70.36
517.7	70.752
518	70.367
518.2	70.699
518.5	69.402
518.7	68.617
519	67.056
519.2	66.128
519.5	66.388
519.7	66.17
520	64.921
520.2	64.54
520.4	66.305
520.7	68.368
520.9	68.297
521.2	67.772
521.4	66.799
521.7	68.583
521.9	68.896
522.2	66.294
522.4	68.557
522.6	67.41
522.9	67.818
523.1	67.418
523.4	67.693
523.6	66.55
523.9	67.803
524.1	68.278
524.4	67.546
524.6	67.75
524.8	66.449
525.1	65.106
525.3	66.075
525.6	67.78
525.8	68.497
526.1	69.696
526.3	71.137
526.6	70.597
526.8	70.179
527	72.705
527.3	72.871
527.5	73.415
527.8	73.003
528	71.815
528.3	72.653
528.5	73.143
528.8	72.408
529	72.087
529.2	73.648
529.5	73.539
529.7	76.658
530	76.077
530.2	76.654
530.5	74.429
530.7	73.49
531	72.46
531.2	73.019
531.4	71.846
531.7	73.52
531.9	73.758
532.2	74.81
532.4	75.315
532.7	77.077
532.9	76.567
533.2	74.882
533.4	73.882
533.6	72.985
533.9	71.186
534.1	71.774
534.4	72.509
534.6	72.472
534.9	71.634
535.1	70.812
535.3	70.556
535.6	71.34
535.8	68.07
536.1	67.893
536.3	68.957
536.6	70.216
536.8	68.338
537.1	69.217
537.3	67.275
537.5	67.139
537.8	66.475
538	68.24
538.3	68.195
538.5	67.52
538.8	66.667
539	66.128
539.2	65.344
539.5	65.325
539.7	66.219
540	67.007
540.2	68.319
540.5	68.255
540.7	69.198
540.9	69.243
541.2	69.126
541.4	72.17
541.7	75.044
541.9	75.545
542.2	73.143
542.4	73.939
542.7	74.855
542.9	75.926
543.1	75.998
543.4	79.124
543.6	79.419
543.9	79.219
544.1	79.083
544.4	78.197
544.6	77.416
544.8	78.28
545.1	77.865
545.3	77.099
545.6	77.623
545.8	78.415
546.1	78.63
546.3	79.483
546.5	80.471
546.8	81.772
547	81.953
547.3	81.267
547.5	80.407
547.8	78.608
548	77.876
548.2	79.14
548.5	78.378
548.7	79.124
549	76.168
549.2	75.549
549.5	74.512
549.7	74.395
549.9	74.169
550.2	73.433
550.4	73.12
550.7	72.909
550.9	69.243
551.2	69.492
551.4	69.417
551.6	69.496
551.9	70.182
552.1	68.817
552.4	68.87
552.6	66.803
552.9	68.134
553.1	66.848
553.3	65.89
553.6	65.555
553.8	64.163
554.1	65.325
554.3	63.352
554.5	62.251
554.8	60.444
555	59.905
555.3	58.827
555.5	59.294
555.8	57.514
556	57.567
556.2	54.946
556.5	54.791
556.7	52.581
557	53.746
557.2	53.083
557.5	53.528
557.7	54.776
557.9	52.815
558.2	53.09
558.4	55.342
558.7	52.883
558.9	52.762
559.2	51.857
559.4	51.608
559.6	53.562
559.9	53.648
560.1	53.448
560.4	54.648
560.6	55.213
560.8	54.893
561.1	55.379
561.3	57.129
561.6	54.976
561.8	54.957
562.1	54.489
562.3	55.334
562.5	56.213
562.8	57.842
563	55.813
563.3	55.798
563.5	55.545
563.7	56.051
564	55.281
564.2	55.308
564.5	53.765
564.7	55.048
565	55.259
565.2	53.03
565.4	54.263
565.7	55.176
565.9	53.324
566.2	54.44
566.4	53.599
566.6	55.447
566.9	55.734
567.1	56.021
567.4	54.897
567.6	56.794
567.9	54.976
568.1	55.549
568.3	55.526
568.6	54.995
568.8	55.247
569.1	54.342
569.3	52.924
569.5	53.347
569.8	54.731
570	54.625
570.3	54.289
570.5	56.394
570.7	55.983
571	57.378
571.2	58.238
571.5	59.026
571.7	58.193
572	58.928
572.2	57.42
572.4	57.884
572.7	59.4
572.9	60.226
573.2	58.408
573.4	57.857
573.6	57.205
573.9	58.008
574.1	56.616
574.4	54.459
574.6	54.765
574.8	53.298
575.1	52.804
575.3	52.811
575.6	52.106
575.8	51.408
576	50.741
576.3	48.949
576.5	51.921
576.8	54.184
577	55.108
577.3	54.546
577.5	53.622
577.7	53.132
578	52.087
578.2	51.864
578.5	49.809
578.7	50.465
578.9	51.038
579.2	50.891
579.4	49.726
579.7	49.602
579.9	47.391
580.1	46.698
580.4	45.675
580.6	46.2
580.9	48.432
581.1	48.711
581.3	48.157
581.6	44.959
581.8	46.366
582.1	45.261
582.3	46.762
582.5	46.818
582.8	47.448
583	48.953
583.3	50.944
583.5	49.654
583.7	51.25
584	49.292
584.2	48.776
584.5	48.157
584.7	47.512
584.9	48.036
585.2	48.161
585.4	48.798
585.7	48.625
585.9	48.183
586.1	47.927
586.4	46.822
586.6	48.806
586.9	48.738
587.1	48.365
587.3	48.998
587.6	48.711
587.8	47.769
588.1	47.135
588.3	44.808
588.5	44.208
588.8	43.435
589	45.577
589.3	44.133
589.5	43.744
589.7	44.684
590	43.937
590.2	44.103
590.5	41.587
590.7	40.343
590.9	41.976
591.2	40.671
591.4	39.943
591.7	40.988
591.9	42.191
592.1	42.168
592.4	42.726
592.6	41.934
592.9	41.429
593.1	42.489
593.3	43.16
593.6	42.523
593.8	43.228
594.1	42.802
594.3	43.311
594.5	43.077
594.8	42.745
595	43.571
595.3	43.914
595.5	45.955
595.7	47.735
596	48.466
596.2	48.711
596.4	51.287
596.7	52.611
596.9	52.098
597.2	50.163
597.4	51.276
597.6	49.304
597.9	49.164
598.1	49.436
598.4	49.832
598.6	49.945
598.8	50.25
599.1	47.701
599.3	47.614
599.6	47.161
599.8	46.833
600	47.448
600.3	48.617
600.5	47.429
600.7	48.202
601	48.945
601.2	49.055
601.5	48.051
601.7	48.055
601.9	48.489
602.2	50.031
602.4	49.111
602.7	49.36
602.9	48.006
603.1	48.067
603.4	47.565
603.6	47.987
603.9	46.46
604.1	46.132
604.3	47.576
604.6	48.365
604.8	47.712
605	49.602
605.3	49.79
605.5	49.858
605.8	49.081
606	50.793
606.2	51.333
606.5	51.989
606.7	50.077
607	49.971
607.2	48.636
607.4	47.063
607.7	45.687
607.9	45.238
608.1	46.158
608.4	46.286
608.6	45.302
608.9	45.427
609.1	44.638
609.3	44.744
609.6	43.435
609.8	44.242
610.1	44.122
610.3	41.61
610.5	40.377
610.8	40.071
611	40.286
611.2	39.554
611.5	39.098
611.7	37.491
612	37.254
612.2	36.262
612.4	35.643
612.7	35.598
612.9	36.567
613.1	35.809
613.4	34.636
613.6	34.014
613.9	34.723
614.1	34.071
614.3	33.471
614.6	33.807
614.8	34.998
615	34.414
615.3	34.919
615.5	33.837
615.8	32.023
616	32.177
616.2	31.027
616.5	32.69
616.7	33.535
616.9	33.094
617.2	32.668
617.4	33.06
617.7	33.656
617.9	33.041
618.1	31.57
618.4	30.631
618.6	29.27
618.8	31.253
619.1	32.909
619.3	32.969
619.6	32.343
619.8	31.231
620	31.144
620.3	29.862
620.5	31.035
620.7	29.764
621	28.821
621.2	27.761
621.5	28.055
621.7	28.983
621.9	28.851
622.2	27.32
622.4	28.632
622.6	28.398
622.9	27.18
623.1	28.606
623.4	27.671
623.6	28.519
623.8	28.678
624.1	27.637
624.3	28.036
624.5	28.787
624.8	29.624
625	30.763
625.3	32.653
625.5	34.47
625.7	35.149
626	35.964
626.2	35.247
626.4	34.184
626.7	33.509
626.9	34.572
627.1	35.025
627.4	34.376
627.6	33.66
627.9	32.977
628.1	33.554
628.3	34.497
628.6	34.452
628.8	35.772
629	35.696
629.3	37.122
629.5	38.974
629.8	36.624
630	36.413
630.2	35.553
630.5	35.13
630.7	35.704
630.9	35.402
631.2	34.093
631.4	34.01
631.6	33.037
631.9	31.465
632.1	30.205
632.4	29.767
632.6	28.776
632.8	28.346
633.1	28.47
633.3	28.745
633.5	26.701
633.8	26.237
634	28.361
634.2	27.946
634.5	26.928
634.7	28.251
635	27.803
635.2	27.456
635.4	28.108
635.7	28.753
635.9	28.398
636.1	27.652
636.4	26.652
636.6	23.409
636.8	22.836
637.1	24.382
637.3	25.166
637.5	26.162
637.8	25.672
638	25.755
638.3	25.608
638.5	26.558
638.7	25.479
639	27.644
639.2	29.009
639.4	28.429
639.7	28.666
639.9	26.863
640.1	29.666
640.4	31.446
640.6	29.96
640.9	31.898
641.1	33.128
641.3	31.389
641.6	31.97
641.8	33.124
642	31.774
642.3	31.393
642.5	32.675
642.7	30.993
643	31.981
643.2	31.235
643.4	30.295
643.7	30.997
643.9	32.309
644.1	31.401
644.4	32.457
644.6	30.986
644.9	31.276
645.1	32.045
645.3	31.913
645.6	31.887
645.8	30.228
646	32.487
646.3	31.28
646.5	30.401
646.7	31.585
647	31.163
647.2	31.649
647.4	29.3
647.7	26.72
647.9	28.327
648.1	28.896
648.4	27.418
648.6	28.447
648.9	28.892
649.1	30.16
649.3	32.045
649.6	33.215
649.8	32.928
650	32.868
650.3	30.182
650.5	31.695
650.7	31.778
651	31.785
651.2	33.859
651.4	33.117
651.7	31.235
651.9	31.555
652.1	32.521
652.4	32.038
652.6	33.158
652.8	33.89
653.1	33.403
653.3	32.815
653.5	32.438
653.8	32.034
654	32.754
654.3	32.438
654.5	32.894
654.7	31.491
655	30.624
655.2	30.752
655.4	27.825
655.7	28.953
655.9	29.322
656.1	30.499
656.4	28.232
656.6	26.433
656.8	30.91
657.1	32.083
657.3	32.585
657.5	32.061
657.8	32.317
658	33.064
658.2	32.698
658.5	30.22
658.7	31.45
658.9	31.744
659.2	30.593
659.4	28.451
659.6	28.979
659.9	28.018
660.1	25.868
660.3	26.166
660.6	24.604
660.8	23.975
661	22.956
661.3	20.527
661.5	19.471
661.8	19.038
662	18.574
662.2	19.705
662.5	18.619
662.7	19.841
662.9	17.657
663.2	17.706
663.4	13.445
663.6	12.883
663.9	13.795
664.1	8.957
664.3	7.644
664.6	7.207
664.8	6.505
665	6.52
665.3	6.52
665.5	6.765
665.7	8.919
666	8.817
666.2	8.444
666.4	9.899
666.7	9.76
666.9	8.036
667.1	7.746
667.4	9.209
667.6	8.361
667.8	8.364
668.1	8.527
668.3	9.541
668.5	10.288
668.8	11.442
669	10.94
669.2	13.313
669.5	13.15
669.7	13.626
669.9	13.124
670.2	14.406
670.4	12.34
670.6	13.694
670.9	14.942
671.1	13.105
671.3	13.248
671.6	12.415
671.8	13.531
672	14.61
672.3	14.893
672.5	15.832
672.7	14.429
673	14.271
673.2	13.098
673.4	14.742
673.7	14.904
673.9	15.308
674.1	14.961
674.4	15.425
674.6	14.915
674.8	15.266
675.1	14.972
675.3	14.795
675.5	15.029
675.8	14.304
676	14.429
676.2	16.499
676.5	14.806
676.7	15.915
676.9	14.863
677.2	14.35
677.4	13.324
677.6	14.135
677.9	15.191
678.1	14.531
678.3	15.858
678.5	15.074
678.8	14.301
679	13.833
679.2	13.901
679.5	14.135
679.7	11.683
679.9	13.203
680.2	11.781
680.4	14.542
680.6	12.773
680.9	12.479
681.1	13.218
681.3	15.802
681.6	15.172
681.8	16.269
682	16.3
682.3	18.513
682.5	19.411
682.7	18.355
683	18.249
683.2	16.375
683.4	15.149
683.7	14.659
683.9	16.288
684.1	18.204
684.4	19.932
684.6	20.38
684.8	19.317
685.1	18.219
685.3	18.246
685.5	18.751
685.7	19.392
686	20.067
686.2	19.63
686.4	19.29
686.7	17.341
686.9	18.755
687.1	18.321
687.4	18.63
687.6	16.409
687.8	16.696
688.1	16.564
688.3	15.662
688.5	13.908
688.8	16.337
689	14.855
689.2	16.443
689.5	14.934
689.7	13.776
689.9	13.181
690.2	13.116
690.4	14.942
690.6	14.693
690.8	15.202
691.1	12.532
691.3	10.586
691.5	8.911
691.8	7.614
692	9.865
692.2	12.864
692.5	11.985
692.7	11.736
692.9	12.238
693.2	10.967
693.4	10.446
693.6	10.141
693.9	10.801
694.1	10.575
694.3	10.74
694.5	10.567
694.8	10.114
695	9.545
695.2	8.923
695.5	8.821
695.7	9.145
695.9	8.542
696.2	8.466
696.4	7.229
696.6	7.105
696.9	7.361
697.1	11.159
697.3	12.709
697.6	12.826
697.8	12.588
698	13.199
698.2	12.362
698.5	13.215
698.7	14.09
698.9	15.402
699.2	14.716
699.4	11.68
699.6	13.011
699.9	11.314
700.1	10.465
700.3	12.935
700.6	14.403
700.8	16.028
701	16.228
701.2	16.103
701.5	15.855
701.7	16.198
701.9	15.308
702.2	17.016
702.4	18.6
702.6	19.494
702.9	18.355
703.1	16.285
703.3	17.985
703.6	19.769
703.8	20.003
704	20.116
704.2	16.345
704.5	16.281
704.7	16.051
704.9	16.466
705.2	16.262
705.4	17.982
705.6	18.008
705.9	18.099
706.1	19.011
706.3	17.684
706.5	16.352
706.8	15.922
707	17.344
707.2	17.944
707.5	16.22
707.7	14.776
707.9	13.958
708.2	13.584
708.4	13.184
708.6	13.354
708.8	13.026
709.1	14.833
709.3	13.554
709.5	11.928
709.8	11.812
710	13.531
710.2	13.158
710.5	12.415
710.7	10.08
710.9	10.073
711.1	9.53
711.4	9.79
711.6	9.047
711.8	10.043
712.1	10.122
712.3	9.654
712.5	8.738
712.8	9.387
713	7.516
713.2	5.902
713.4	6.464
713.7	7.625
713.9	7.278
714.1	8.874
714.4	7.689
714.6	7.32
714.8	7.727
715.1	7.278
715.3	7.595
715.5	7.105
715.7	6.362
716	5.196
716.2	3.971
716.4	4.393
716.7	4.495
716.9	5.468
717.1	3.522
717.3	5.404
717.6	4.91
717.8	5.162
718	4.416
718.3	4.676
718.5	5.728
718.7	5.751
718.9	4.476
719.2	3.209
719.4	3.661
719.6	2.311
719.9	0.852
720.1	3.133
720.3	2.99
720.6	0.546
720.8	0.162
721	0.12
721.2	-2.011
721.5	-2.037
721.7	-1.57
721.9	-2.041
722.2	-3.225
722.4	-3.685
722.6	-2.181
722.8	-1.483
723.1	0.58
723.3	1.41
723.5	0.316
723.8	0.459
724	-1.8
724.2	-1.622
724.4	-0.566
724.7	1.078
724.9	1.73
725.1	2.813
725.4	4.729
725.6	3.028
725.8	2.609
726	2.281
726.3	1.35
726.5	1.693
726.7	1.908
727	0.701
727.2	-1
727.4	-0.382
727.6	1.27
727.9	1.915
728.1	1.617
728.3	1.606
728.6	2.937
728.8	3.107
729	2.96
729.2	5.174
729.5	4.223
729.7	2.455
729.9	2.258
730.2	1.893
730.4	1.983
730.6	2.851
730.8	1.651
731.1	2.711
731.3	2.749
731.5	-0.412
731.7	-2.991
732	-3.123
732.2	-3.553
732.4	-5.051
732.7	-3.527
732.9	-4.794
733.1	-5.258
733.3	-3.889
733.6	-3.693
733.8	-3.467
734	0.795
734.3	1.783
734.5	4.005
734.7	4.834
734.9	3.812
735.2	6.351
735.4	6.4
735.6	5.162
735.9	5.868
736.1	6.264
736.3	5.924
736.5	6.234
736.8	7.271
737	5.909
737.2	4.778
737.4	3.303
737.7	3.118
737.9	6.52
738.1	5.525
738.4	5.74
738.6	6.788
738.8	7.727
739	5.8
739.3	6.079
739.5	5.064
739.7	4.288
739.9	8.108
740.2	9.134
740.4	8.278
740.6	6.69
740.9	7.339
741.1	5.393
741.3	4.156
741.5	1.474
741.8	0.788
742	1.817
742.2	1.086
742.4	1.5
742.7	2.511
742.9	2.466
743.1	0.546
743.4	-0.661
743.6	-0.465
743.8	-0.167
744	1.976
744.3	3.899
744.5	4.095
744.7	4.725
744.9	3.726
745.2	6.467
745.4	5.89
745.6	5.287
745.8	5.498
746.1	7.787
746.3	9.451
746.5	12.268
746.8	11.197
747	9.903
747.2	10.903
747.4	12.834
747.7	12.845
747.9	13.124
748.1	12.328
748.3	14.116
748.6	15.323
748.8	14.576
749	13.588
749.2	11.981
749.5	10.982
749.7	11.114
749.9	9.73
750.2	13.158
750.4	13.06
750.6	13.539
750.8	12.532
751.1	11.416
751.3	9.126
751.5	11.144
751.7	11.517
752	10.454
752.2	9.232
752.4	9.277
752.6	8.983
752.9	8.655
753.1	7.022
753.3	6.762
753.5	5.155
753.8	6.765
754	5.649
754.2	5.234
754.4	4.717
754.7	5.03
754.9	4.461
755.1	4.529
755.4	3.582
755.6	3.484
755.8	4.005
756	3.394
756.3	2.926
756.5	2.187
756.7	0.327
756.9	1.146
757.2	-0.487
757.4	0.701
757.6	-1.087
757.8	-2.32
758.1	-0.642
758.3	1.527
758.5	-0.219
758.7	-2.414
759	-3.497
759.2	-2.946
759.4	-2.494
759.6	-1.456
759.9	-1.943
760.1	-0.612
760.3	-2.58
760.5	-2.765
760.8	-3.436
761	-3.131
761.2	-3.485
761.4	-2.957
761.7	-1.686
761.9	-0.076
762.1	-0.744
762.3	-1.098
762.6	-2.128
762.8	-2.173
763	-2.181
763.2	0.576
763.5	1.836
763.7	1.153
763.9	1.244
764.1	1.301
764.4	1.006
764.6	2.183
764.8	3.628
765	1.414
765.3	-0.642
765.5	-0.325
765.7	0.275
765.9	0.814
766.2	0.614
766.4	0.991
766.6	-0.329
766.8	-0.25
767.1	-1.641
767.3	-1.14
767.5	-1.034
767.7	-0.668
768	-0.646
768.2	-0.035
768.4	-0.894
768.6	-3.304
768.9	-5.745
769.1	-5.296
769.3	-4.734
769.5	-5.352
769.8	-4.228
770	-2.49
770.2	-4.198
770.4	-3.546
770.7	-2.528
770.9	-1.924
771.1	-3.157
771.3	-2.422
771.6	-2.622
771.8	-2.441
772	-2.95
772.2	-2.984
772.5	-2.603
772.7	-2.279
772.9	-2.539
773.1	-4.515
773.4	-3.372
773.6	-2.056
773.8	-2.874
774	-1.943
774.3	-2.569
774.5	-3.546
774.7	-3.859
774.9	-4.183
775.2	-4.406
775.4	-3.399
775.6	-3.033
775.8	-1.619
776	-0.63
776.3	-0.83
776.5	-0.329
776.7	-1.268
776.9	-1.064
777.2	-1.434
777.4	-2.946
777.6	-2.429
777.8	-2.52
778.1	-1.46
778.3	-2.437
778.5	-3.169
778.7	-2.614
779	-2.124
779.2	-1.411
779.4	-1.162
779.6	-0.861
779.9	-1.313
780.1	0.444
780.3	-0.415
780.5	-1.769
780.7	-1.709
781	-1.004
781.2	-0.167
781.4	-0.823
781.6	-0.08
781.9	0.346
782.1	-0.925
782.3	-1.875
782.5	-2.414
782.8	-2.799
783	-2.346
783.2	-2.497
783.4	-2.113
783.7	-2.656
783.9	-4.47
784.1	-4.994
784.3	-5.337
784.5	-6.227
784.8	-8.343
785	-8.69
785.2	-8.886
785.4	-8.287
785.7	-10.187
785.9	-9.233
786.1	-9.041
786.3	-9.659
786.6	-9.026
786.8	-7.4
787	-7.962
787.2	-7.8
787.4	-7.166
787.7	-6.514
787.9	-6.763
788.1	-6.91
788.3	-5.839
788.6	-6.752
788.8	-9.018
789	-9.784
789.2	-10.429
789.5	-10.146
789.7	-11.715
789.9	-13.114
790.1	-14.185
790.3	-14.472
790.6	-13.453
790.8	-12.944
791	-12.514
791.2	-10.342
791.5	-7.894
791.7	-7.434
791.9	-7.415
792.1	-7.819
792.3	-8.72
792.6	-8.366
792.8	-9.697
793	-9.256
793.2	-8.121
793.5	-8.204
793.7	-8.083
793.9	-8.75
794.1	-9.863
794.3	-9.652
794.6	-8.2
794.8	-9.663
795	-8.905
795.2	-8.965
795.5	-8.743
795.7	-7.321
795.9	-6.152
796.1	-7.102
796.3	-7.027
796.6	-4.326
796.8	-3.976
797	-1.939
797.2	-0.834
797.5	-0.023
797.7	0.497
797.9	-0.129
798.1	-0.268
798.3	6.584
798.6	7.818
798.8	10.073
799	11.427
799.2	11.789
799.5	13.199
799.7	14.802
799.9	13.275
800.1	11.438
800.3	11.072
800.6	10.906
800.8	11.804
801	12.524
801.2	12.355
801.5	11.623
801.7	11.069
801.9	10.216
802.1	11.419
802.3	12.355
802.6	12.309
802.8	11.038
803	13.105
803.2	14.263
803.4	12.63
803.7	13.727
803.9	13.094
804.1	12.894
804.3	12.743
804.6	12.826
804.8	13.516
805	11.951
805.2	3.043
805.4	1.915
805.7	-0.125
805.9	-2.011
806.1	-1.283
806.3	-2.113
806.5	-3.199
806.8	-3.406
807	-1.622
807.2	-1.86
807.4	-2.297
807.6	-4.432
807.9	-5.42
808.1	-5.658
808.3	-5.567
808.5	-2.886
808.8	-2.203
809	-4.353
809.2	-3.067
809.4	-3.029
809.6	-3.082
809.9	-4.624
810.1	-5.597
810.3	-4.511
810.5	-5.597
810.7	-7.823
811	-9.067
811.2	-9.833
811.4	-9.29
811.6	-9.116
811.8	-7.491
812.1	-6.273
812.3	-5.929
812.5	-5.767
812.7	-5.054
812.9	-4.176
813.2	-2.433
813.4	-3.312
813.6	-2.196
813.8	-3.697
814	-4.164
814.3	-3.625
814.5	-1.211
814.7	-0.917
814.9	-2.343
815.2	-2.343
815.4	-2.618
815.6	-2.633
815.8	-2.799
816	-4.726
816.3	-3.821
816.5	-3.776
816.7	-2.456
816.9	-2.015
817.1	-2.494
817.4	-2.954
817.6	-1.151
817.8	-0.306
818	-1.306
818.2	-1.57
818.5	-1.966
818.7	-4.13
818.9	-6.563
819.1	-4.824
819.3	-4.673
819.6	-3.301
819.8	-1.864
820	-3.742
820.2	-3.738
820.4	-3.912
820.7	-3.527
820.9	-1.686
821.1	-1.181
821.3	-2.448
821.5	-1.109
821.8	0.32
822	-0.325
822.2	-0.287
822.4	-1.619
822.6	-1.26
822.9	-0.578
823.1	-3.052
823.3	-2.95
823.5	-4.417
823.7	-3.221
823.9	-3.802
824.2	-4.36
824.4	-5.224
824.6	-4.304
824.8	-4.568
825	-5.499
825.3	-6.25
825.5	-4.794
825.7	-3.448
825.9	-5.039
826.1	-6.141
826.4	-7.291
826.6	-10.342
826.8	-11.447
827	-10.825
827.2	-10.862
827.5	-9.64
827.7	-10.104
827.9	-11.157
828.1	-9.791
828.3	-10.847
828.6	-10.044
828.8	-9.761
829	-11.553
829.2	-11.424
829.4	-9.81
829.6	-9.976
829.9	-8.188
830.1	-7.551
830.3	-7.891
830.5	-7.86
830.7	-7.947
831	-7.706
831.2	-6.808
831.4	-8.607
831.6	-8.158
831.8	-7.419
832.1	-6.488
832.3	-6.401
832.5	-5.707
832.7	-6.269
832.9	-5.416
833.1	-4.221
833.4	-3.308
833.6	-1.298
833.8	0.637
834	1.251
834.2	0.908
834.5	-0.31
834.7	-1.2
834.9	-1.694
835.1	-1.935
835.3	-2.999
835.5	-3.504
835.8	-2.463
836	-1.46
836.2	-2.644
836.4	-2.181
836.6	-3.138
836.9	-4.345
837.1	-3.063
837.3	-3.591
837.5	-4.044
837.7	-4.432
837.9	-4.67
838.2	-3.361
838.4	-3.644
838.6	-2.814
838.8	-3.738
839	-4.198
839.3	-4.032
839.5	-3.071
839.7	-3.501
839.9	-4.621
840.1	-4.794
840.3	-3.093
840.6	-5.665
840.8	-4.813
841	-5.68
841.2	-4.613
841.4	-4.802
841.7	-4.915
841.9	-4.27
842.1	-4.436
842.3	-3.501
842.5	-3.534
842.7	-3.101
843	-3.052
843.2	-4.666
843.4	-2.807
843.6	-1.63
843.8	-1.03
844	-1.136
844.3	-0.374
844.5	-0.344
844.7	-1.917
844.9	-2.109
845.1	-2.437
845.4	-3.414
845.6	-2.101
845.8	-0.182
846	-1.626
846.2	-2.433
846.4	-0.593
846.7	-1.06
846.9	-0.608
847.1	-1.777
847.3	-0.283
847.5	-1.471
847.7	-1.249
848	-2.58
848.2	-1.554
848.4	-1.573
848.6	-2.377
848.8	-3.278
849	-3.708
849.3	-3.961
849.5	-4.266
849.7	-5.665
849.9	-6.582
850.1	-8.656
850.3	-7.483
850.6	-7.823
850.8	-9.075
851	-11.119
851.2	-10.964
851.4	-10.214
851.6	-11.737
851.9	-10.84
852.1	-9.882
852.3	-12.194
852.5	-13.902
852.7	-12.646
852.9	-11.345
853.2	-11.624
853.4	-11.315
853.6	-12.239
853.8	-13.917
854	-15.569
854.2	-14.875
854.5	-14.607
854.7	-14.524
854.9	-14.604
855.1	-14.347
855.3	-13.921
855.5	-11.372
855.8	-12.273
856	-13.815
856.2	-14.966
856.4	-12.514
856.6	-11.175
856.8	-11.142
857.1	-9.727
857.3	-10.297
857.5	-9.018
857.7	-6.454
857.9	-5.077
858.1	-3.821
858.4	-4.191
858.6	-4.557
858.8	-5.643
859	-4.508
859.2	-5.948
859.4	-6.016
859.7	-6.684
859.9	-7.857
860.1	-7.664
860.3	-7.623
860.5	-7.868
860.7	-7.906
860.9	-9.38
861.2	-8.396
861.4	-8.298
861.6	-7.476
861.8	-7.585
862	-7.042
862.2	-7.66
862.5	-6.752
862.7	-4.888
862.9	-5.024
863.1	-5.115
863.3	-4.345
863.5	-3.165
863.8	-6.593
864	-5.307
864.2	-4.772
864.4	-5.186
864.6	-6.344
864.8	-7.525
865	-6.325
865.3	-5.594
865.5	-5.688
865.7	-4.707
865.9	-4.066
866.1	-5.054
866.3	-5.745
866.6	-4.824
866.8	-5.684
867	-6.061
867.2	-5.594
867.4	-5.171
867.6	-5.081
867.8	-6.337
868.1	-6.065
868.3	-6.748
868.5	-6.653
868.7	-8.196
868.9	-8.6
869.1	-8.294
869.3	-8.483
869.6	-8.705
869.8	-9.173
870	-9.712
870.2	-9.833
870.4	-9.84
870.6	-11.221
870.9	-12.68
871.1	-14.706
871.3	-14.683
871.5	-14.547
871.7	-12.793
871.9	-14.377
872.1	-15.177
872.4	-16.859
872.6	-17.217
872.8	-15.596
873	-14.853
873.2	-15.539
873.4	-13.559
873.6	-12.888
873.9	-12.375
874.1	-12.59
874.3	-12.695
874.5	-13.242
874.7	-14.377
874.9	-14.524
875.1	-14.962
875.4	-14.928
875.6	-15.596
875.8	-15.501
876	-13.382
876.2	-12.239
876.4	-14.313
876.6	-14.042
876.9	-13.732
877.1	-12.424
877.3	-12.526
877.5	-13.22
877.7	-10.591
877.9	-9.056
878.1	-10.093
878.4	-11.296
878.6	-10.172
878.8	-8.928
879	-8.769
879.2	-6.819
879.4	-9.045
879.6	-8.671
879.9	-9.505
880.1	-9.723
880.3	-10.342
880.5	-9.969
880.7	-8.396
880.9	-8.336
881.1	-7.412
881.3	-6.461
881.6	-7.4
881.8	-8.837
882	-8.17
882.2	-6.405
882.4	-6.767
882.6	-8.66
882.8	-9.094
883.1	-7.706
883.3	-8.411
883.5	-9.524
883.7	-8.366
883.9	-9.018
884.1	-8.709
884.3	-11.036
884.6	-12.808
884.8	-9.897
885	-10.564
885.2	-11.04
885.4	-11.473
885.6	-10.289
885.8	-10.334
886	-8.807
886.3	-9.286
886.5	-9.542
886.7	-10.934
886.9	-9.603
887.1	-10.798
887.3	-12.612
887.5	-11.372
887.8	-11.077
888	-12.137
888.2	-11.209
888.4	-10.482
888.6	-9.923
888.8	-11.194
889	-10.116
889.2	-10.904
889.5	-11.786
889.7	-10.866
889.9	-9.177
890.1	-9.263
890.3	-10.61
890.5	-9.546
890.7	-8.671
890.9	-8.343
891.2	-7.875
891.4	-9.874
891.6	-9.55
891.8	-8.784
892	-9.41
892.2	-10.202
892.4	-12.341
892.6	-13.11
892.9	-13.929
893.1	-12.28
893.3	-10.927
893.5	-11.858
893.7	-11.575
893.9	-10.5
894.1	-11.515
894.3	-11.719
894.6	-11.76
894.8	-11.236
895	-9.806
895.2	-9.693
895.4	-9.071
895.6	-10.368
895.8	-9.584
896	-8.09
896.3	-9.588
896.5	-10.632
896.7	-9.207
896.9	-9.161
897.1	-9.667
897.3	-10.285
897.5	-8.954
897.7	-9.331
898	-7.532
898.2	-8.468
898.4	-9.697
898.6	-9.222
898.8	-9.26
899	-7.189
899.2	-5.771
899.4	-4.172
899.6	-5.262
899.9	-6.118
900.1	-4.496
900.3	-3.859
900.5	-3.127
900.7	-3.765
900.9	-5.005
901.1	-4.187
901.3	-5.492
901.6	-6.589
901.8	-5.861
902	-7.498
902.2	-7.668
902.4	-8.807
902.6	-9.965
902.8	-10.466
903	-11.568
903.2	-13.638
903.5	-13.631
903.7	-13.808
903.9	-13.778
904.1	-14.419
904.3	-13.468
904.5	-14.973
904.7	-13.917
904.9	-13.668
905.1	-12.986
905.4	-11.511
905.6	-12.741
905.8	-14.079
906	-15.449
906.2	-14.317
906.4	-14.445
906.6	-15.486
906.8	-14.046
907	-14.276
907.3	-13.284
907.5	-15.011
907.7	-15.29
907.9	-13.661
908.1	-13.868
908.3	-16.15
908.5	-14.313
908.7	-14.479
908.9	-15.207
909.2	-15.611
909.4	-13.996
909.6	-13.265
909.8	-12.835
910	-14.166
910.2	-12.597
910.4	-12.899
910.6	-11.79
910.8	-13.427
911.1	-10.813
911.3	-8.63
911.5	-8.381
911.7	-8.302
911.9	-8.622
912.1	-8.17
912.3	-9.441
912.5	-7.642
912.7	-8.815
912.9	-8.351
913.2	-8.641
913.4	-10.734
913.6	-9.987
913.8	-10.417
914	-7.272
914.2	-7.321
914.4	-8.253
914.6	-8.4
914.8	-7.027
915.1	-6.846
915.3	-6.095
915.5	-3.727
915.7	-3.67
915.9	-4.285
916.1	-4.617
916.3	-5.19
916.5	-3.44
916.7	-3.915
916.9	-2.46
917.2	-3.584
917.4	-2.599
917.6	-5.45
917.8	-7.472
918	-9.358
918.2	-10.138
918.4	-11.47
918.6	-11.436
918.8	-10.293
919	-11.323
919.2	-9.343
919.5	-8.358
919.7	-10.104
919.9	-9.923
920.1	-11.258
920.3	-11.73
920.5	-11.624
920.7	-10.87
920.9	-10.972
921.1	-10.455
921.3	-11.67
921.6	-13.902
921.8	-13.57
922	-15.332
922.2	-16.056
922.4	-16.056
922.6	-16.821
922.8	-14.917
923	-16.557
923.2	-17.255
923.4	-18.854
923.6	-18.454
923.9	-18.764
924.1	-18.439
924.3	-19.955
924.5	-17.628
924.7	-17.7
924.9	-16.373
925.1	-16.757
925.3	-15.324
925.5	-15.369
925.7	-17.742
925.9	-18.315
926.2	-16.169
926.4	-16.369
926.6	-15.611
926.8	-15.256
927	-16.131
927.2	-15.43
927.4	-15.599
927.6	-15.807
927.8	-14.524
928	-14.739
928.2	-15.256
928.5	-15.094
928.7	-14.626
928.9	-13.91
929.1	-12.744
929.3	-12.627
929.5	-11.617
929.7	-12.088
929.9	-11.209
930.1	-12.235
930.3	-12.013
930.5	-10.942
930.8	-8.675
931	-8.441
931.2	-8.747
931.4	-9.49
931.6	-8.204
931.8	-8.403
932	-8.581
932.2	-9.708
932.4	-11.685
932.6	-12.778
932.8	-13.08
933	-15.362
933.3	-16.059
933.5	-16.041
933.7	-16.712
933.9	-16.459
934.1	-15.931
934.3	-15.984
934.5	-13.917
934.7	-14.604
934.9	-14.332
935.1	-13.627
935.3	-13.653
935.5	-14.713
935.7	-16.029
936	-16.127
936.2	-16.018
936.4	-15.573
936.6	-14.155
936.8	-14.781
937	-16.286
937.2	-18.017
937.4	-18.066
937.6	-18.417
937.8	-18.715
938	-21.796
938.2	-23.444
938.4	-22.011
938.7	-19.518
938.9	-19.45
939.1	-18.662
939.3	-17.561
939.5	-15.169
939.7	-14.864
939.9	-15.494
940.1	-14.985
940.3	-14.26
940.5	-14.634
940.7	-14.822
940.9	-14.434
941.1	-14.132
941.4	-15.207
941.6	-14.668
941.8	-15.924
942	-14.939
942.2	-14.871
942.4	-15.045
942.6	-12.85
942.8	-13.883
943	-14.868
943.2	-14.362
943.4	-14.298
943.6	-13.442
943.8	-13.702
944	-13.461
944.3	-12.631
944.5	-11.187
944.7	-9.305
944.9	-10.199
945.1	-9.61
945.3	-8.166
945.5	-7.287
945.7	-7.049
945.9	-9.339
946.1	-9.158
946.3	-10.24
946.5	-11.522
946.7	-12.115
946.9	-11.703
947.1	-12.062
947.4	-12.695
947.6	-13.484
947.8	-12.488
948	-13.306
948.2	-11.081
948.4	-11.839
948.6	-11.089
948.8	-9.871
949	-11.243
949.2	-9.867
949.4	-10.18
949.6	-10.787
949.8	-10.719
950	-11.76
950.2	-9.712
950.5	-8.618
950.7	-9.686
950.9	-8.871
951.1	-10.979
951.3	-10.01
951.5	-11.179
951.7	-13.484
951.9	-14.739
952.1	-15.124
952.3	-13.8
952.5	-13.676
952.7	-11.734
952.9	-11.164
953.1	-12.047
953.3	-13.204
953.5	-13.51
953.8	-13.216
954	-11.564
954.2	-12.752
954.4	-12.861
954.6	-14.434
954.8	-14.449
955	-13.793
955.2	-13.057
955.4	-14.185
955.6	-15.954
955.8	-14.159
956	-13.171
956.2	-12.145
956.4	-10.81
956.6	-13.208
956.8	-13.495
957	-12.756
957.2	-12.345
957.5	-12.126
957.7	-13.397
957.9	-13.208
958.1	-10.878
958.3	-11.224
958.5	-12.224
958.7	-13.008
958.9	-12.974
959.1	-13.627
959.3	-13.683
959.5	-13.589
959.7	-13.34
959.9	-13.435
960.1	-14.615
960.3	-14.604
960.5	-11.998
960.7	-10.976
960.9	-10.146
961.1	-10.432
961.4	-11.451
961.6	-14.445
961.8	-14.524
962	-14.517
962.2	-14.257
962.4	-16.463
962.6	-16.161
962.8	-18.307
963	-19.435
963.2	-20.581
963.4	-20.819
963.6	-22.976
963.8	-23.01
964	-23.712
964.2	-24.779
964.4	-24.643
964.6	-24.055
964.8	-22.995
965	-21.939
965.2	-22.837
965.5	-21.905
965.7	-20.702
965.9	-20.223
966.1	-20.314
966.3	-18.952
966.5	-16.252
966.7	-18.707
966.9	-18.586
967.1	-20.095
967.3	-20.759
967.5	-19.612
967.7	-20.148
967.9	-18.956
968.1	-16.742
968.3	-13.842
968.5	-15.166
968.7	-12.861
968.9	-12.692
969.1	-11.221
969.3	-9.116
969.5	-8.86
969.7	-8.09
969.9	-5.88
970.2	-4.406
970.4	-3.489
970.6	-3.727
970.8	-3.682
971	-2.471
971.2	-2.203
971.4	-2.049
971.6	-0.291
971.8	-1.109
972	-2.339
972.2	-0.581
972.4	-1.253
972.6	-3.836
972.8	-4.836
973	-4.025
973.2	-4.508
973.4	-4.568
973.6	-4.67
973.8	-5.42
974	-5.318
974.2	-5.462
974.4	-7.883
974.6	-10.255
974.8	-9.029
975	-9.622
975.2	-10.561
975.5	-11.021
975.7	-10.878
975.9	-9.139
976.1	-10.063
976.3	-10.817
976.5	-10.776
976.7	-11.485
976.9	-10.553
977.1	-12.231
977.3	-12.635
977.5	-14.645
977.7	-15.471
977.9	-15.573
978.1	-15.294
978.3	-14.385
978.5	-16.199
978.7	-15.034
978.9	-13.189
979.1	-12.895
979.3	-11.473
979.5	-12.118
979.7	-11.922
979.9	-11.903
980.1	-12.692
980.3	-12.382
980.5	-12.092
980.7	-11.081
980.9	-8.547
981.1	-10.225
981.3	-9.648
981.5	-9.52
981.7	-9.629
981.9	-10.595
982.2	-10.459
982.4	-10.549
982.6	-9.226
982.8	-10.553
983	-11.089
983.2	-10.972
983.4	-9.818
983.6	-9.995
983.8	-8.162
984	-7.204
984.2	-6.616
984.4	-6.571
984.6	-8.215
984.8	-8.328
985	-6.435
985.2	-5.752
985.4	-7.743
985.6	-10.217
985.8	-9.784
986	-7.74
986.2	-6.201
986.4	-5.963
986.6	-4.696
986.8	-5.929
987	-4.477
987.2	-5.797
987.4	-5.986
987.6	-5.79
987.8	-5.888
988	-5.371
988.2	-5.903
988.4	-7.08
988.6	-6.917
988.8	-9.459
989	-7.928
989.2	-8.403
989.4	-6.97
989.6	-7.366
989.8	-7.389
990	-6.537
990.2	-7.555
990.4	-9.26
990.6	-7.593
990.8	-6.318
991	-6.25
991.3	-7.528
991.5	-7.989
991.7	-8.034
991.9	-7.049
992.1	-8.109
992.3	-7.461
992.5	-8.468
992.7	-8.049
992.9	-8.886
993.1	-7.566
993.3	-8.581
993.5	-9.72
993.7	-8.358
993.9	-8.471
994.1	-8.143
994.3	-7.14
994.5	-6.076
994.7	-5.175
994.9	-4.564
995.1	-4.647
995.3	-5.062
995.5	-3.923
995.7	-5.85
995.9	-4.04
996.1	-4.636
996.3	-7.2
996.5	-6.88
996.7	-7.189
996.9	-8.456
997.1	-9.912
997.3	-10.742
997.5	-10.972
997.7	-10.7
997.9	-10.474
998.1	-7.951
998.3	-7.344
998.5	-9.339
998.7	-9.72
998.9	-8.475
999.1	-8.807
999.3	-8.551
999.5	-10.052
999.7	-10.976
999.9	-12.597
1000.1	-13.831
1000.3	-14.027
1000.5	-15.226
1000.7	-14.755
1000.9	-15.347
1001.1	-15.829
1001.3	-14.042
1001.5	-15.124
1001.7	-14.468
1001.9	-15.045
1002.1	-16.652
1002.3	-16.32
1002.5	-15.927
1002.7	-16.286
1002.9	-15.92
1003.1	-16.357
1003.3	-15.456
1003.5	-14.193
1003.7	-14.317
1003.9	-12.891
1004.1	-11.937
1004.3	-13.491
1004.5	-12.922
1004.7	-12.616
1004.9	-12.744
1005.1	-12.903
1005.3	-12.273
1005.5	-13.608
1005.7	-11.221
1005.9	-10.942
1006.1	-9.199
1006.3	-7.996
1006.5	-8.566
1006.7	-7.517
1006.9	-7.664
1007.1	-8.513
1007.3	-8.26
1007.5	-8.577
1007.7	-8.494
1007.9	-10.523
1008.1	-9.569
1008.3	-10.116
1008.5	-9.55
1008.7	-6.476
1008.9	-5.914
1009.1	-5.567
1009.3	-7.272
1009.5	-7.366
1009.7	-7.676
1009.9	-7.713
1010.1	-10.357
1010.3	-9.403
1010.5	-9.569
1010.7	-10.127
1010.9	-10.968
1011.1	-11.398
1011.3	-11.707
1011.5	-12.424
1011.7	-12.503
1011.9	-14.098
1012.1	-12.201
1012.3	-12.703
1012.5	-13.521
1012.7	-13.533
1012.9	-13.533
1013.1	-15.524
1013.3	-13.653
1013.5	-13.299
1013.7	-13.069
1013.9	-14.019
1014.1	-12.82
1014.3	-13.808
1014.5	-13.197
1014.7	-13.495
1014.9	-16.422
1015.1	-16.146
1015.3	-17.474
1015.5	-17.066
1015.7	-17.149
1015.9	-16.942
1016.1	-18.243
1016.3	-15.909
1016.5	-18.205
1016.7	-17.874
1016.9	-18.319
1017.1	-18.854
1017.3	-19.74
1017.5	-19.842
1017.7	-19.612
1017.9	-19.024
1018.1	-17.685
1018.3	-18.952
1018.5	-20.747
1018.7	-19.605
1018.9	-19.295
1019.1	-20.762
1019.2	-21.072
1019.4	-21.973
1019.6	-22.731
1019.8	-23.712
1020	-22.463
1020.2	-22.467
1020.4	-19.054
1020.6	-19.722
1020.8	-21.313
1021	-19.854
1021.2	-20.242
1021.4	-18.315
1021.6	-15.558
1021.8	-15.758
1022	-16.35
1022.2	-14.966
1022.4	-14.732
1022.6	-15.392
1022.8	-15.55
1023	-15.792
1023.2	-14.434
1023.4	-14.317
1023.6	-14.607
1023.8	-11.413
1024	-10.96
1024.2	-13.276
1024.4	-12.348
1024.6	-11.172
1024.8	-12.428
1025	-11.786
1025.2	-12.401
1025.4	-9.557
1025.6	-9.339
1025.8	-9.184
1026	-8.928
1026.2	-8.513
1026.4	-8.852
1026.6	-11.1
1026.8	-9.844
1027	-8.962
1027.2	-9.041
1027.4	-9.622
1027.6	-9.256
1027.8	-11.99
1028	-12.228
1028.1	-10.987
1028.3	-12.152
1028.5	-14.23
1028.7	-13.902
1028.9	-15.954
1029.1	-15.958
1029.3	-16.576
1029.5	-16.331
1029.7	-17.18
1029.9	-20.121
1030.1	-18.311
1030.3	-17.7
1030.5	-17.202
1030.7	-16.09
1030.9	-15.011
1031.1	-15.399
1031.3	-15.339
1031.5	-15.916
1031.7	-16.493
1031.9	-16.618
1032.1	-15.977
1032.3	-17.926
1032.5	-18.749
1032.7	-19.963
1032.9	-20.649
1033.1	-20.34
1033.3	-19.967
1033.5	-20.201
1033.7	-21.901
1033.9	-21.581
1034.1	-21.445
1034.3	-19.884
1034.4	-19.624
1034.6	-19.092
1034.8	-18.119
1035	-16.425
1035.2	-16.139
1035.4	-14.913
1035.6	-14.592
1035.8	-13.45
1036	-13.329
1036.2	-16.403
1036.4	-16.489
1036.6	-17.794
1036.8	-19.541
1037	-19.888
1037.2	-21.151
1037.4	-21.46
1037.6	-22.693
1037.8	-22.648
1038	-23.595
1038.2	-23.919
1038.4	-23.934
1038.6	-22.196
1038.8	-20.74
1039	-19.597
1039.2	-20.698
1039.4	-22.388
1039.5	-20.951
1039.7	-20.744
1039.9	-19.099
1040.1	-19.639
1040.3	-20.691
1040.5	-20.072
1040.7	-20.495
1040.9	-20.894
1041.1	-22.23
1041.3	-23.154
1041.5	-25.051
1041.7	-23.9
1041.9	-24.296
1042.1	-24.915
1042.3	-23.983
1042.5	-23.457
1042.7	-23.552
1042.9	-22.881
1043.1	-23.441
1043.3	-22.535
1043.5	-21.27
1043.7	-20.757
1043.8	-21.018
1044	-19.507
1044.2	-19.906
1044.4	-17.826
1044.6	-18.88
1044.8	-19.85
1045	-22.061
1045.2	-21.101
