Data from mesure_FLMT021711__11__33.txt Node

Date: Mon Nov 04 11:51:58 CET 2024
User: jordan.swietlicki
Spectrometer: FLMT02171
Trigger mode: 0
Integration Time (sec): 1.000000E-1
Scans to average: 15
Electric dark correction enabled: true
Nonlinearity correction enabled: false
Boxcar width: 15
XAxis mode: Wavelengths
Number of Pixels in Spectrum: 3648
>>>>>Begin Spectral Data<<<<<
194.7	-42.401
194.9	-40.895
195.2	-35.549
195.5	-34.746
195.7	-30.774
196	-29.385
196.2	-28.185
196.5	-28.854
196.8	-27.251
197	-26.384
197.3	-26.226
197.6	-23.067
197.8	-23.098
198.1	-21.304
198.4	-19.279
198.6	-18.279
198.9	-14.179
199.2	-9.314
199.4	-4.332
199.7	1.936
200	2.106
200.2	0.854
200.5	0.307
200.7	-0.663
201	0.111
201.3	-0.206
201.5	0.65
201.8	0.02
202.1	1.087
202.3	1.359
202.6	1.291
202.9	0.05
203.1	1.574
203.4	-0.546
203.7	-0.534
203.9	-1.9
204.2	-1.522
204.5	-1.232
204.7	-0.312
205	-0.417
205.2	0.797
205.5	1.472
205.8	0.582
206	3.709
206.3	3.607
206.6	4.037
206.8	4.116
207.1	4.859
207.4	5.9
207.6	8.095
207.9	8.898
208.2	9.867
208.4	11.161
208.7	11.229
208.9	13.152
209.2	13.069
209.5	12.76
209.7	12.768
210	13.069
210.3	13.401
210.5	14.208
210.8	14.932
211.1	14.604
211.3	14.314
211.6	13.575
211.9	13.865
212.1	14.069
212.4	13.925
212.6	14.363
212.9	14.159
213.2	12.998
213.4	12.654
213.7	13.243
214	13.33
214.2	10.882
214.5	10.84
214.8	10.203
215	10.486
215.3	13.548
215.5	14.453
215.8	13.269
216.1	12.153
216.3	13.043
216.6	12.168
216.9	13.054
217.1	13.646
217.4	13.616
217.7	13.963
217.9	11.576
218.2	11.448
218.5	11.316
218.7	10.282
219	10.079
219.2	11.395
219.5	12.126
219.8	13.201
220	12.93
220.3	13.876
220.6	14.442
220.8	12.949
221.1	13.737
221.4	13.462
221.6	12.779
221.9	13.744
222.1	13.405
222.4	13.043
222.7	14.721
222.9	12.16
223.2	11.263
223.5	8.121
223.7	9.215
224	8.189
224.2	7.71
224.5	7.42
224.8	8.249
225	7.503
225.3	7.065
225.6	6.269
225.8	7.48
226.1	9.724
226.4	9.072
226.6	6.975
226.9	8.604
227.1	9.279
227.4	9.381
227.7	8.034
227.9	7.201
228.2	8.072
228.5	6.296
228.7	5.538
229	5.628
229.3	6.232
229.5	9.517
229.8	10.46
230	9.886
230.3	8.728
230.6	9.377
230.8	7.721
231.1	10.071
231.4	9.954
231.6	14.544
231.9	12.775
232.1	13.756
232.4	12.575
232.7	12.33
232.9	11.651
233.2	11.263
233.5	10.46
233.7	12.172
234	11.176
234.2	9.931
234.5	10.995
234.8	14.144
235	13.16
235.3	13.25
235.6	13.296
235.8	13.778
236.1	15.951
236.4	15.785
236.6	17.35
236.9	17.863
237.1	19.3
237.4	18.968
237.7	15.347
237.9	14.167
238.2	12.274
238.5	13.133
238.7	12.99
239	12.892
239.2	11.549
239.5	12.96
239.8	9.351
240	8.706
240.3	10.81
240.6	11.772
240.8	10.999
241.1	11.165
241.3	11.055
241.6	10.501
241.9	7.574
242.1	7.77
242.4	8.845
242.7	8.596
242.9	8.819
243.2	8.114
243.4	8.001
243.7	7.804
244	6.009
244.2	5.247
244.5	4.527
244.8	5.704
245	5.643
245.3	7.205
245.5	6.945
245.8	7.484
246.1	7.122
246.3	7.182
246.6	8.08
246.9	8.894
247.1	9.407
247.4	11.067
247.6	12.153
247.9	11.561
248.2	12.157
248.4	9.486
248.7	9.845
248.9	9.701
249.2	9.279
249.5	10.392
249.7	11.278
250	11.549
250.3	11.357
250.5	10.03
250.8	11.968
251	9.867
251.3	10.882
251.6	11.806
251.8	12.085
252.1	11.991
252.4	9.4
252.6	10.026
252.9	7.657
253.1	7.589
253.4	4.814
253.7	4.87
253.9	5.926
254.2	7.11
254.4	7.955
254.7	6.628
255	7.239
255.2	8.355
255.5	7.235
255.8	5.492
256	5.975
256.3	6.1
256.5	6.047
256.8	5.624
257.1	5.824
257.3	5.519
257.6	5.455
257.8	5.794
258.1	7.031
258.4	7.763
258.6	9.268
258.9	8.721
259.2	7.627
259.4	7.065
259.7	4.169
259.9	2.592
260.2	4.768
260.5	7.318
260.7	6.986
261	7.167
261.2	6.462
261.5	7.382
261.8	6.809
262	8.023
262.3	7.058
262.6	6.718
262.8	6.22
263.1	4.768
263.3	3.505
263.6	4.21
263.9	3.988
264.1	4.014
264.4	5.285
264.6	5.621
264.9	5.425
265.2	6.277
265.4	5.376
265.7	5.873
266	4.87
266.2	6.213
266.5	5.579
266.7	3.071
267	-0.168
267.3	1.136
267.5	2.487
267.8	4.768
268	5.938
268.3	5.311
268.6	3.328
268.8	4.493
269.1	3.682
269.3	3.083
269.6	2.125
269.9	2.389
270.1	0.277
270.4	1.257
270.6	1.676
270.9	1.378
271.2	0.978
271.4	-1.556
271.7	-3.51
272	-3.589
272.2	-2.412
272.5	-4.385
272.7	-3.235
273	-2.933
273.3	-2.446
273.5	0.729
273.8	-0.629
274	0.254
274.3	-2.126
274.6	-1.7
274.8	1.887
275.1	4.252
275.3	5.756
275.6	4.78
275.9	2.89
276.1	2.604
276.4	2.177
276.6	3.328
276.9	2.159
277.2	3.731
277.4	3.924
277.7	6.085
277.9	7.314
278.2	8.05
278.5	9.045
278.7	9.053
279	9.151
279.2	9.041
279.5	10.573
279.8	12.221
280	12.541
280.3	10.41
280.5	9.743
280.8	9.185
281.1	8.574
281.3	8.966
281.6	7.11
281.9	8.51
282.1	8.638
282.4	9.023
282.6	9.566
282.9	8.291
283.2	7.657
283.4	6.213
283.7	5.756
283.9	5.832
284.2	6.831
284.5	6.107
284.7	4.889
285	4.848
285.2	2.977
285.5	5.176
285.8	3.705
286	6.681
286.3	8.332
286.5	6.895
286.8	7.11
287.1	8.578
287.3	8.97
287.6	8.551
287.8	8.785
288.1	6.831
288.4	7.378
288.6	10.214
288.9	10.124
289.1	11.07
289.4	9.468
289.7	10.403
289.9	8.811
290.2	9.781
290.4	10.893
290.7	9.535
290.9	7.733
291.2	8.683
291.5	10.052
291.7	11.218
292	12.941
292.2	11.874
292.5	13.126
292.8	15.061
293	14.137
293.3	15.623
293.5	16.026
293.8	16.109
294.1	13.288
294.3	11.221
294.6	11.516
294.8	12.126
295.1	11.806
295.4	11.859
295.6	12.096
295.9	12.82
296.1	13.179
296.4	13.903
296.7	10.731
296.9	10.961
297.2	8.883
297.4	9.83
297.7	8.227
298	9.358
298.2	8.027
298.5	8.721
298.7	10.305
299	12.432
299.3	11.813
299.5	9.441
299.8	9.864
300	10.229
300.3	10.245
300.5	10.41
300.8	8.31
301.1	11.252
301.3	11.994
301.6	9.577
301.8	7.605
302.1	6.235
302.4	7.069
302.6	7.107
302.9	7.239
303.1	5.919
303.4	6.537
303.7	7.439
303.9	4.942
304.2	5.677
304.4	5.059
304.7	6.684
304.9	5.153
305.2	7.555
305.5	7.661
305.7	7.401
306	7.789
306.2	8.974
306.5	8.936
306.8	7.533
307	4.919
307.3	5.319
307.5	6.281
307.8	4.184
308.1	1.657
308.3	2.573
308.6	1.404
308.8	3.271
309.1	2.856
309.3	3.007
309.6	2.381
309.9	4.301
310.1	4.704
310.4	5.666
310.6	6.575
310.9	5.153
311.2	6.085
311.4	6.149
311.7	6.496
311.9	7.175
312.2	7.616
312.5	8.042
312.7	8.28
313	7.744
313.2	7.393
313.5	6.183
313.7	5.609
314	4.191
314.3	3.339
314.5	3.727
314.8	4.795
315	6.726
315.3	5.719
315.6	4.259
315.8	4.61
316.1	5.262
316.3	4.342
316.6	5.345
316.8	4.938
317.1	3.603
317.4	1.185
317.6	1.664
317.9	1.295
318.1	0.756
318.4	0.465
318.6	-0.21
318.9	-0.187
319.2	-0.813
319.4	-1.138
319.7	-2.25
319.9	-2.058
320.2	-2.084
320.5	-1.749
320.7	-1.243
321	-0.896
321.2	-1.847
321.5	-0.357
321.7	0.895
322	1.94
322.3	0.888
322.5	0.537
322.8	-0.542
323	-1.051
323.3	-0.021
323.5	1.276
323.8	2.317
324.1	3.207
324.3	4.161
324.6	3.23
324.8	4.282
325.1	3.365
325.4	5.315
325.6	6.714
325.9	6.771
326.1	8.468
326.4	7.574
326.6	6.522
326.9	7.288
327.2	7.827
327.4	7.887
327.7	8.789
327.9	9.822
328.2	10.15
328.4	9.973
328.7	11.806
329	12.847
329.2	13.39
329.5	12.745
329.7	12.771
330	13.348
330.2	15.147
330.5	14.872
330.8	14.457
331	15.679
331.3	14.254
331.5	14.397
331.8	12.726
332	12.228
332.3	10.501
332.6	11.199
332.8	9.826
333.1	11.323
333.3	11.859
333.6	11.583
333.8	12.025
334.1	11.089
334.4	10.018
334.6	9.826
334.9	8.615
335.1	8.355
335.4	7.325
335.6	7.555
335.9	6.107
336.2	4.802
336.4	4.7
336.7	1.906
336.9	2.513
337.2	2.159
337.4	1.838
337.7	1.355
338	-0.636
338.2	-0.9
338.5	-2.394
338.7	-2.307
339	-2.198
339.2	0.062
339.5	-0.791
339.8	0.28
340	0.752
340.3	1.393
340.5	1.231
340.8	4.237
341	3.973
341.3	1.778
341.6	1.721
341.8	2.208
342.1	0.759
342.3	1.925
342.6	3.03
342.8	4.007
343.1	4.474
343.4	4.561
343.6	2.849
343.9	3.886
344.1	4.791
344.4	4.372
344.6	3.38
344.9	2.547
345.1	2.996
345.4	3.362
345.7	3.618
345.9	4.448
346.2	3.448
346.4	3.577
346.7	2.845
346.9	3.098
347.2	1.333
347.5	2.166
347.7	2.332
348	1.042
348.2	1.223
348.5	1.174
348.7	2.777
349	2.521
349.2	4.719
349.5	4.64
349.8	3.761
350	4.942
350.3	4.919
350.5	4.727
350.8	4.765
351	4.448
351.3	5.93
351.6	5.987
351.8	4.953
352.1	4.433
352.3	4.734
352.6	6.311
352.8	6.296
353.1	6.179
353.3	5.398
353.6	4.81
353.9	4.655
354.1	5.066
354.4	6.752
354.6	8.713
354.9	6.828
355.1	8.057
355.4	7.842
355.6	8.076
355.9	8.555
356.2	9.03
356.4	9.449
356.7	5.006
356.9	5.474
357.2	4.934
357.4	5.817
357.7	5.293
358	6.888
358.2	6.609
358.5	6.111
358.7	6.107
359	6.903
359.2	7.001
359.5	7.114
359.7	9.445
360	9.886
360.3	11.67
360.5	10.852
360.8	10.576
361	12.194
361.3	11.847
361.5	12.56
361.8	12.579
362	12.696
362.3	11.493
362.6	11.772
362.8	14.208
363.1	15.098
363.3	15.811
363.6	16.415
363.8	17.584
364.1	16.185
364.3	16.592
364.6	17.493
364.8	18.451
365.1	17.565
365.4	19.507
365.6	21.057
365.9	19.907
366.1	21.17
366.4	21.02
366.6	21.51
366.9	22.291
367.1	22.155
367.4	24.501
367.7	24.112
367.9	24.587
368.2	23.241
368.4	22.981
368.7	24.101
368.9	24.421
369.2	23.494
369.4	24.331
369.7	25.5
370	25.455
370.2	26.205
370.5	26.028
370.7	25.572
371	25.413
371.2	25.379
371.5	26.247
371.7	26.556
372	27.495
372.2	28.012
372.5	29.264
372.8	28.389
373	27.861
373.3	24.112
373.5	25.817
373.8	25.27
374	23.565
374.3	25.379
374.5	26.066
374.8	26.462
375	25.817
375.3	25.466
375.6	24.697
375.8	25.839
376.1	26.228
376.3	27.952
376.6	27.993
376.8	25.609
377.1	29.151
377.3	28.434
377.6	27.793
377.8	29.185
378.1	30.686
378.4	31.15
378.6	30.143
378.9	28.28
379.1	29.63
379.4	29.189
379.6	28.223
379.9	27.352
380.1	26.986
380.4	25.836
380.6	26.869
380.9	28.155
381.2	29.215
381.4	28.159
381.7	29.856
381.9	31.655
382.2	32.696
382.4	31.847
382.7	30.618
382.9	31.248
383.2	31.912
383.4	32.357
383.7	33.903
383.9	33.899
384.2	33.416
384.5	34.646
384.7	36.173
385	35.163
385.2	36.226
385.5	37.399
385.7	37.422
386	38.187
386.2	38.515
386.5	37.693
386.7	40.167
387	39.82
387.2	41.544
387.5	44.093
387.8	46.168
388	47.446
388.3	49.215
388.5	49.913
388.8	51.689
389	53.62
389.3	53.186
389.5	52.474
389.8	54.027
390	52.368
390.3	52.866
390.5	53.039
390.8	55.966
391.1	56.381
391.3	56.939
391.6	56.06
391.8	57.501
392.1	57.969
392.3	59.798
392.6	61.748
392.8	62.754
393.1	65.915
393.3	68.419
393.6	68.94
393.8	68.891
394.1	71.444
394.4	75.593
394.6	77.286
394.9	78.968
395.1	79.526
395.4	79.36
395.6	82.328
395.9	82.724
396.1	83.328
396.4	85.085
396.6	86.511
396.9	86.865
397.1	89.14
397.4	92.285
397.6	92.941
397.9	96.743
398.2	99.877
398.4	103.901
398.7	104.818
398.9	106.089
399.2	108.664
399.4	110.818
399.7	111.885
399.9	113.673
400.2	113.892
400.4	115.464
400.7	118.67
400.9	118.206
401.2	119.545
401.4	121.925
401.7	123.305
401.9	123.445
402.2	122.566
402.5	123.501
402.7	122.132
403	122.63
403.2	124.938
403.5	125.47
403.7	127.163
404	129.445
404.2	129.554
404.5	132.112
404.7	135.702
405	138.5
405.2	139.489
405.5	142.019
405.7	144.248
406	146.413
406.2	147.665
406.5	148.936
406.7	149.879
407	150.531
407.3	151.614
407.5	152.994
407.8	154.895
408	154.601
408.3	155.981
408.5	157.901
408.8	158.187
409	159.673
409.3	161.231
409.5	164.086
409.8	165.149
410	168.676
410.3	170.196
410.5	176.09
410.8	177.056
411	178.651
411.3	180.993
411.5	184.018
411.8	184.369
412	185.199
412.3	185.742
412.6	187.028
412.8	187.624
413.1	188.106
413.3	189.076
413.6	188.31
413.8	188.755
414.1	189.264
414.3	190.818
414.6	192.892
414.8	193.073
415.1	193.696
415.3	195.234
415.6	197.316
415.8	199.473
416.1	200.669
416.3	199.609
416.6	203.109
416.8	203.584
417.1	206.255
417.3	205.033
417.6	207.661
417.8	208.619
418.1	210.037
418.4	210.15
418.6	212.459
418.9	213.236
419.1	213.911
419.4	214.589
419.6	216.347
419.9	218.568
420.1	218.463
420.4	218.685
420.6	219.292
420.9	219.066
421.1	219.556
421.4	221.34
421.6	221.299
421.9	222.178
422.1	221.431
422.4	222.114
422.6	224.614
422.9	224.109
423.1	224.49
423.4	225.915
423.6	227.386
423.9	229.479
424.1	231.418
424.4	230.362
424.6	229.604
424.9	228.661
425.1	228.857
425.4	226.624
425.6	228.246
425.9	226.937
426.2	227.148
426.4	225.662
426.7	225.583
426.9	223.087
427.2	219.47
427.4	218.123
427.7	217.305
427.9	216.339
428.2	215.54
428.4	215.932
428.7	217.622
428.9	218.893
429.2	219.934
429.4	221.337
429.7	221.012
429.9	219.338
430.2	218.629
430.4	218.448
430.7	221.156
430.9	221.529
431.2	220.179
431.4	220.711
431.7	220.507
431.9	219.677
432.2	221.842
432.4	223.275
432.7	224.237
432.9	227.963
433.2	232.085
433.4	231.523
433.7	234.084
433.9	234.706
434.2	235.695
434.4	236.045
434.7	239.523
434.9	242.758
435.2	244.746
435.4	245.176
435.7	247.356
435.9	248.714
436.2	250.365
436.4	250.92
436.7	250.128
436.9	249.807
437.2	249.592
437.4	251.508
437.7	256.143
437.9	258.369
438.2	259.383
438.4	260.718
438.7	262.148
438.9	264.146
439.2	263.909
439.4	262.43
439.7	264.252
439.9	264.101
440.2	264.105
440.5	264.889
440.7	264.542
441	264.904
441.2	265.659
441.5	265.399
441.7	266.055
442	268.125
442.2	269.536
442.5	268.898
442.7	270.973
443	271.674
443.2	275.031
443.5	274.771
443.7	276.215
444	275.208
444.2	277.06
444.5	279.334
444.7	281.08
445	282.253
445.2	283.124
445.5	281.273
445.7	282.046
446	282.253
446.2	282.804
446.5	284.791
446.7	286.043
447	287.209
447.2	289.351
447.5	290.931
447.7	291.101
448	292.425
448.2	294.035
448.5	294.224
448.7	294.823
449	294.85
449.2	296
449.5	296.351
449.7	296.192
450	296.26
450.2	298.734
450.5	297.663
450.7	299.338
451	298.546
451.2	300.59
451.5	300.009
451.7	302.404
452	304.682
452.2	305.712
452.5	305.821
452.7	307.537
452.9	307.39
453.2	308.68
453.4	310.26
453.7	313.089
453.9	312.64
454.2	312.474
454.4	311.606
454.7	314.22
454.9	314.243
455.2	313.726
455.4	314.552
455.7	316.517
455.9	314.85
456.2	316.539
456.4	317.143
456.7	318.093
456.9	317.399
457.2	317.365
457.4	319.394
457.7	321.699
457.9	322.415
458.2	323.581
458.4	323.784
458.7	325.689
458.9	325.229
459.2	326.485
459.4	328.525
459.7	328.453
459.9	326.847
460.2	327.133
460.4	326.221
460.7	328.631
460.9	330.969
461.2	330.136
461.4	328.578
461.7	329.766
461.9	329.943
462.2	329.74
462.4	328.797
462.7	330.392
462.9	329.751
463.2	329.875
463.4	327.578
463.7	329.34
463.9	328.469
464.2	327.665
464.4	328.091
464.7	330.004
464.9	329.423
465.2	329.442
465.4	328.804
465.7	328.929
465.9	329.747
466.2	330.06
466.4	328.559
466.6	329.37
466.9	327.876
467.1	325.255
467.4	324.539
467.6	326.481
467.9	325.881
468.1	326.168
468.4	323.86
468.6	322.317
468.9	321.42
469.1	321.242
469.4	321.529
469.6	320.911
469.9	320.903
470.1	322.133
470.4	319.609
470.6	321.027
470.9	322.476
471.1	324.652
471.4	323.498
471.6	322.774
471.9	324.527
472.1	324.716
472.4	323.249
472.6	324.444
472.9	323.837
473.1	324.542
473.4	324.806
473.6	324.874
473.9	324.222
474.1	325.067
474.3	325.225
474.6	327.846
474.8	327.299
475.1	326.885
475.3	325.749
475.6	325.832
475.8	326.538
476.1	327.767
476.3	327.428
476.6	328.514
476.8	329.132
477.1	331.252
477.3	331.44
477.6	332.527
477.8	331.648
478.1	332.613
478.3	333.371
478.6	334.963
478.8	333.7
479.1	333.349
479.3	333.711
479.6	333.651
479.8	332.791
480.1	334.126
480.3	334.084
480.5	334.19
480.8	332.877
481	332.436
481.3	331.316
481.5	331.403
481.8	330.445
482	331.248
482.3	329.476
482.5	327.907
482.8	326.896
483	326.142
483.3	325.859
483.5	326.289
483.8	324.294
484	322.351
484.3	320.115
484.5	320.643
484.8	318.991
485	317.999
485.2	316.147
485.5	316.404
485.7	314.937
486	313.518
486.2	311.037
486.5	312.123
486.7	311.621
487	312.447
487.2	310.452
487.5	310.762
487.7	311.55
488	309.377
488.2	307.435
488.5	305.821
488.7	303.577
489	301.842
489.2	299.666
489.5	299.13
489.7	297.565
489.9	295.329
490.2	295.129
490.4	294.986
490.7	295.163
490.9	293.436
491.2	290.901
491.4	291.237
491.7	292.753
491.9	292.447
492.2	290.663
492.4	288.427
492.7	288.589
492.9	288.963
493.2	286.481
493.4	285.202
493.6	283.215
493.9	282.66
494.1	278.84
494.4	277.592
494.6	274.495
494.9	271.406
495.1	269.17
495.4	266.055
495.6	266.654
495.9	266.666
496.1	266.115
496.4	265.96
496.6	266.971
496.9	269.196
497.1	266.828
497.3	264.689
497.6	263.543
497.8	263.931
498.1	260.439
498.3	257.716
498.6	255.095
498.8	252.666
499.1	251.323
499.3	250.332
499.6	250.384
499.8	248.672
500.1	245.542
500.3	243.204
500.6	240.488
500.8	238.689
501	239.066
501.3	237.037
501.5	233.145
501.8	232.821
502	232.983
502.3	230.041
502.5	228.054
502.8	227.642
503	227.507
503.3	223.92
503.5	220.492
503.8	219.119
504	216.487
504.2	214.903
504.5	211.878
504.7	211.727
505	209.902
505.2	210.648
505.5	209.309
505.7	209.211
506	207.71
506.2	208.665
506.5	208.189
506.7	205.466
506.9	202.8
507.2	200.824
507.4	197.433
507.7	197.607
507.9	196.155
508.2	197.241
508.4	195.016
508.7	193.017
508.9	191.508
509.2	191.885
509.4	190.81
509.7	188.966
509.9	190.098
510.1	189.441
510.4	186.816
510.6	183.55
510.9	183.879
511.1	184.942
511.4	185.078
511.6	184.671
511.9	181.955
512.1	178.485
512.4	177.822
512.6	178.169
512.8	174.891
513.1	171.727
513.3	170.886
513.6	169.291
513.8	167.518
514.1	164.791
514.3	163.358
514.6	162.641
514.8	160.081
515.1	160.793
515.3	158.614
515.5	157.742
515.8	155.506
516	155.453
516.3	153.601
516.5	151.776
516.8	149.475
517	147.367
517.3	145.67
517.5	144.116
517.7	143.271
518	141.906
518.2	140.612
518.5	139.243
518.7	137.346
519	134.457
519.2	133.149
519.5	132.085
519.7	131.734
520	129.788
520.2	128.001
520.4	128.608
520.7	130.32
520.9	129.287
521.2	128.517
521.4	127.092
521.7	128.857
521.9	128.483
522.2	125.889
522.4	127.337
522.6	126.379
522.9	126.575
523.1	126.043
523.4	125.877
523.6	123.731
523.9	124.354
524.1	124.659
524.4	123.75
524.6	122.8
524.8	120.858
525.1	119.609
525.3	120.895
525.6	121.634
525.8	123.234
526.1	122.977
526.3	123.324
526.6	122.362
526.8	120.582
527	122.83
527.3	122.713
527.5	122.193
527.8	121.536
528	119.903
528.3	120.288
528.5	119.975
528.8	118.678
529	118.651
529.2	119.82
529.5	119.583
529.7	121.959
530	120.582
530.2	121.02
530.5	119.323
530.7	118.029
531	117.037
531.2	118.572
531.4	117.58
531.7	118.659
531.9	117.931
532.2	118.097
532.4	118.534
532.7	119.387
532.9	117.516
533.2	115.638
533.4	113.548
533.6	112.055
533.9	109.683
534.1	109.317
534.4	109.735
534.6	109.702
534.9	108.234
535.1	107.529
535.3	107.186
535.6	107.22
535.8	104.225
536.1	104.105
536.3	105.036
536.6	105.553
536.8	103.2
537.1	103.249
537.3	100.903
537.5	101.11
537.8	99.466
538	100.443
538.3	99.703
538.5	98.534
538.8	97.32
539	94.959
539.2	93.703
539.5	94.001
539.7	94.834
540	94.45
540.2	94.752
540.5	94.193
540.7	95.845
540.9	95.958
541.2	96.732
541.4	100.446
541.7	103.154
541.9	103.55
542.2	99.877
542.4	100.209
542.7	100.348
542.9	100.616
543.1	100.084
543.4	102.758
543.6	102.528
543.9	103.343
544.1	102.11
544.4	101.212
544.6	100.001
544.8	101.001
545.1	99.911
545.3	99.975
545.6	100.13
545.8	101.076
546.1	100.631
546.3	100.737
546.5	102.438
546.8	103.92
547	103.777
547.3	102.713
547.5	102.634
547.8	101.193
548	101.6
548.2	101.129
548.5	99.202
548.7	99.179
549	95.438
549.2	95.555
549.5	94.039
549.7	95.144
549.9	94.966
550.2	93.986
550.4	93.243
550.7	93.477
550.9	89.2
551.2	89.306
551.4	87.808
551.6	87.842
551.9	88.084
552.1	87.227
552.4	86.058
552.6	84.531
552.9	85.066
553.1	82.826
553.3	81.8
553.6	81.793
553.8	80.228
554.1	81.721
554.3	78.859
554.5	77.946
554.8	75.819
555	75.234
555.3	73.522
555.5	72.368
555.8	69.901
556	70.441
556.2	67.695
556.5	68.001
556.7	65.47
557	67.005
557.2	65.33
557.5	65.587
557.7	66.979
557.9	65.368
558.2	64.731
558.4	66.722
558.7	64.885
558.9	65.866
559.2	65.56
559.4	64.934
559.6	66.409
559.9	67.19
560.1	66.028
560.4	66.677
560.6	66.828
560.8	66.684
561.1	66.19
561.3	67.831
561.6	65.734
561.8	65.708
562.1	65.345
562.3	66.752
562.5	66.613
562.8	68.796
563	68.08
563.3	69.57
563.5	69.475
563.7	70.113
564	69.155
564.2	68.216
564.5	66.522
564.7	68.095
565	68.348
565.2	65.873
565.4	66.507
565.7	68.615
565.9	67.797
566.2	68.476
566.4	66.858
566.6	68.687
566.9	69.645
567.1	69.939
567.4	68.947
567.6	70.724
567.9	68.197
568.1	68.894
568.3	69.124
568.6	70.399
568.8	70.927
569.1	69.573
569.3	67.804
569.5	67.804
569.8	68.197
570	68.08
570.3	67.589
570.5	68.34
570.7	68.419
571	69.068
571.2	70.045
571.5	69.471
571.7	69.207
572	70.143
572.2	69.019
572.4	69.958
572.7	71.497
572.9	73.122
573.2	70.678
573.4	69.117
573.6	68.197
573.9	68.4
574.1	65.734
574.4	62.385
574.6	61.717
574.8	60.767
575.1	60.424
575.3	61.284
575.6	60.28
575.8	59.289
576	57.184
576.3	55.924
576.5	58.904
576.8	62.347
577	63.592
577.3	63.942
577.5	63.641
577.7	63.863
578	63.75
578.2	63.188
578.5	61.751
578.7	61.57
578.9	62.509
579.2	62.049
579.4	60.891
579.7	61.253
579.9	58.579
580.1	57.331
580.4	55.66
580.6	56.283
580.9	58.07
581.1	58.478
581.3	58.583
581.6	56.23
581.8	58.202
582.1	57.919
582.3	57.912
582.5	58.557
582.8	59.066
583	60.91
583.3	62.445
583.5	61.001
583.7	61.235
584	58.595
584.2	57.984
584.5	57.06
584.7	56.626
584.9	56.599
585.2	55.668
585.4	55.743
585.7	54.661
585.9	54.125
586.1	53.948
586.4	52.534
586.6	53.631
586.9	52.975
587.1	51.455
587.3	51.361
587.6	51.678
587.8	51.384
588.1	51.233
588.3	49.577
588.5	49.117
588.8	47.148
589	48.464
589.3	47.359
589.5	46.111
589.7	48.053
590	46.556
590.2	46.288
590.5	43.656
590.7	42.083
590.9	44.105
591.2	43.173
591.4	43.079
591.7	44.022
591.9	45.542
592.1	45.017
592.4	44.678
592.6	43.645
592.9	42.717
593.1	43.611
593.3	44.233
593.6	43.022
593.8	44.38
594.1	44.433
594.3	44.704
594.5	45.07
594.8	44.9
595	45.549
595.3	45.806
595.5	46.756
595.7	48.351
596	49.173
596.2	50.369
596.4	53.82
596.7	54.559
596.9	55.155
597.2	52.681
597.4	54.144
597.6	52.342
597.9	52.934
598.1	53.503
598.4	54.48
598.6	55.283
598.8	55.189
599.1	52.832
599.3	52.481
599.6	51.64
599.8	52.587
600	54.129
600.3	55.638
600.5	54.404
600.7	55.306
601	56.826
601.2	56.449
601.5	55.758
601.7	56.369
601.9	57.131
602.2	59.126
602.4	59.055
602.7	58.579
602.9	57.682
603.1	57.693
603.4	57.154
603.6	57.723
603.9	56.132
604.1	55.46
604.3	56.147
604.6	57.339
604.8	56.826
605	58.463
605.3	58.395
605.5	58.557
605.8	57.546
606	58.459
606.2	59.383
606.5	60.043
606.7	57.901
607	58.538
607.2	56.622
607.4	54.216
607.7	52.87
607.9	52.477
608.1	52.964
608.4	52.451
608.6	51.693
608.9	51.583
609.1	51.451
609.3	50.686
609.6	50.199
609.8	50.516
610.1	50.154
610.3	48.057
610.5	47.408
610.8	46.567
611	45.557
611.2	44.38
611.5	44.817
611.7	43.705
612	43.697
612.2	42.717
612.4	42.185
612.7	41.121
612.9	41.687
613.1	39.847
613.4	38.802
613.6	37.901
613.9	37.867
614.1	37.512
614.3	36.912
614.6	37.886
614.8	39.673
615	39.873
615.3	40.458
615.5	39.918
615.8	38.357
616	39.107
616.2	38.715
616.5	39.877
616.7	40.612
616.9	39.628
617.2	39.16
617.4	40.36
617.7	41.476
617.9	40.767
618.1	39.952
618.4	39.707
618.6	39.153
618.8	39.933
619.1	41.763
619.3	41.246
619.6	40.348
619.8	39.824
620	40.065
620.3	39.145
620.5	40.205
620.7	38.466
621	37.625
621.2	36.245
621.5	36.317
621.7	37.003
621.9	36.377
622.2	35.068
622.4	35.838
622.6	35.215
622.9	33.673
623.1	35.8
623.4	34.548
623.6	34.876
623.8	34.073
624.1	32.809
624.3	33.224
624.5	33.609
624.8	34.073
625	33.484
625.3	34.484
625.5	36.332
625.7	37.486
626	37.158
626.2	36.882
626.4	34.736
626.7	33.688
626.9	35.751
627.1	36.505
627.4	36.43
627.6	35.653
627.9	35.385
628.1	35.906
628.3	36.735
628.6	37.169
628.8	38.806
629	38.696
629.3	40.179
629.5	41.329
629.8	39.598
630	40.058
630.2	39.651
630.5	38.628
630.7	38.979
630.9	38.874
631.2	37.456
631.4	37.233
631.6	35.985
631.9	34.412
632.1	32.398
632.4	32.907
632.6	32.575
632.8	32.006
633.1	31.557
633.3	32.274
633.5	31.006
633.8	31.15
634	32.907
634.2	32.262
634.5	30.95
634.7	32.598
635	32.13
635.2	32.67
635.4	33.805
635.7	34.574
635.9	33.416
636.1	32.632
636.4	31.663
636.6	29.294
636.8	29.388
637.1	29.867
637.3	30.497
637.5	30.912
637.8	30.727
638	31.493
638.3	30.361
638.5	31.81
638.7	31.542
639	33.726
639.2	35.4
639.4	34.959
639.7	34.597
639.9	32.609
640.1	35.245
640.4	37.195
640.6	36.298
640.9	37.588
641.1	39.224
641.3	38.376
641.6	38.696
641.8	39.288
642	37.814
642.3	37.671
642.5	37.539
642.7	35.249
643	36.215
643.2	36.041
643.4	35.408
643.7	36.098
643.9	36.724
644.1	35.958
644.4	38.319
644.6	37.64
644.9	38.429
645.1	38.38
645.3	38.123
645.6	38.466
645.8	36.984
646	39.123
646.3	37.135
646.5	36.12
646.7	38.168
647	38.263
647.2	38.979
647.4	36.758
647.7	34.246
647.9	35.634
648.1	36.283
648.4	34.514
648.6	35.272
648.9	35.306
649.1	37.048
649.3	38.153
649.6	39.741
649.8	39.93
650	40.737
650.3	38.221
650.5	39.594
650.7	39.76
651	38.523
651.2	39.862
651.4	39.009
651.7	35.336
651.9	35.502
652.1	35.185
652.4	36.011
652.6	36.69
652.8	37.976
653.1	38.285
653.3	37.158
653.5	37.071
653.8	36.532
654	36.407
654.3	35.528
654.5	35.589
654.7	33.831
655	33.077
655.2	32.5
655.4	30.561
655.7	32.017
655.9	32.59
656.1	33.635
656.4	30.592
656.6	29.128
656.8	33.82
657.1	35.528
657.3	35.687
657.5	35.479
657.8	36.754
658	37.067
658.2	38.957
658.5	37.331
658.7	38.191
658.9	39.545
659.2	38.255
659.4	37.018
659.6	36.426
659.9	35.283
660.1	33.492
660.3	33.646
660.6	32.311
660.8	32.123
661	31.802
661.3	30.011
661.5	29.222
661.8	29.569
662	29.385
662.2	30.448
662.5	29.445
662.7	30.437
662.9	28.117
663.2	27.88
663.4	24.267
663.6	24.949
663.9	26.145
664.1	20.179
664.3	19.579
664.6	19.684
664.8	19.594
665	18.512
665.3	18.085
665.5	16.992
665.7	19.062
666	19.013
666.2	18.183
666.4	19.334
666.7	19.722
666.9	19.092
667.1	19.568
667.4	20.989
667.6	20.167
667.8	20.703
668.1	21.136
668.3	21.668
668.5	22.449
668.8	24.274
669	23.03
669.2	25.232
669.5	25.112
669.7	26.186
669.9	25.191
670.2	26.322
670.4	25.104
670.6	26.899
670.9	28.099
671.1	26.696
671.3	27.646
671.6	25.172
671.8	26.733
672	27.786
672.3	28.121
672.5	29.185
672.7	28.57
673	29.4
673.2	28.902
673.4	31.757
673.7	32.296
673.9	32.421
674.1	32.854
674.4	32.187
674.6	31.372
674.8	31.738
675.1	31.791
675.3	31.12
675.5	32.213
675.8	32.666
676	32.726
676.2	35.4
676.5	34.42
676.7	35.227
676.9	34.563
677.2	34.514
677.4	34.156
677.6	35.023
677.9	35.483
678.1	34.469
678.3	35.902
678.5	34.981
678.8	35.181
679	33.933
679.2	34.114
679.5	34.627
679.7	33.115
679.9	34.714
680.2	32.56
680.4	34.589
680.6	31.742
680.9	31.719
681.1	32.511
681.3	34.001
681.6	33.835
681.8	35.049
682	34.993
682.3	36.965
682.5	38.87
682.7	36.886
683	35.962
683.2	35.472
683.4	34.514
683.7	33.797
683.9	35.638
684.1	36.931
684.4	38.704
684.6	38.489
684.8	37.486
685.1	37.169
685.3	37.256
685.5	37.146
685.7	37.708
686	38.315
686.2	38.738
686.4	38.964
686.7	37.403
686.9	38.874
687.1	38.142
687.4	38.734
687.6	36.369
687.8	37.308
688.1	37.391
688.3	36.747
688.5	35.019
688.8	37.897
689	36.569
689.2	38.391
689.5	37.026
689.7	35.626
689.9	35.366
690.2	35.261
690.4	35.985
690.6	34.789
690.8	35.087
691.1	33.035
691.3	31.055
691.5	29.309
691.8	29.072
692	30.625
692.2	32.768
692.5	32.968
692.7	33.092
692.9	33.548
693.2	33.288
693.4	32.941
693.6	32.553
693.9	33.379
694.1	33.586
694.3	34.503
694.5	34.001
694.8	34.367
695	34.382
695.2	33.265
695.5	32.809
695.7	33.993
695.9	33.786
696.2	33.462
696.4	32.33
696.6	32.247
696.9	32.688
697.1	36.637
697.3	38.512
697.6	38.881
697.8	39.375
698	40.624
698.2	39.311
698.5	41.193
698.7	42.445
698.9	44.331
699.2	44.712
699.4	42.336
699.6	43.06
699.9	41.808
700.1	41.819
700.3	43.701
700.6	44.41
700.8	45.149
701	45.387
701.2	44.968
701.5	44.659
701.7	45.372
701.9	44.87
702.2	46.096
702.4	47.774
702.6	48.977
702.9	47.424
703.1	45.312
703.3	48.019
703.6	48.819
703.8	49.094
704	49.607
704.2	46.296
704.5	46.062
704.7	46.122
704.9	47.114
705.2	46.997
705.4	49.068
705.6	48.744
705.9	49.321
706.1	49.17
706.3	47.967
706.5	46.941
706.8	46.503
707	46.858
707.2	47.171
707.5	45.7
707.7	44.991
707.9	44.882
708.2	44.81
708.4	44.376
708.6	43.78
708.8	43.595
709.1	44.614
709.3	43.965
709.5	42.257
709.8	42.506
710	44.629
710.2	44.753
710.5	43.414
710.7	42.038
710.9	42.845
711.1	42.291
711.4	43.018
711.6	42.17
711.8	42.351
712.1	42.543
712.3	42.374
712.5	42.343
712.8	43.844
713	41.665
713.2	40.597
713.4	41.197
713.7	41.91
713.9	41.608
714.1	44.342
714.4	43.203
714.6	43.03
714.8	42.653
715.1	41.193
715.3	40.869
715.5	39.477
715.7	39.13
716	37.226
716.2	35.83
716.4	34.978
716.7	35.125
716.9	35.868
717.1	33.884
717.3	34.819
717.6	34.774
717.8	35.147
718	32.994
718.3	32.771
718.5	32.986
718.7	33.518
718.9	32.722
719.2	30.957
719.4	31.308
719.6	29.03
719.9	27.45
720.1	28.638
720.3	28.155
720.6	25.119
720.8	23.946
721	23.648
721.2	21.502
721.5	21.45
721.7	20.974
721.9	21.099
722.2	20.631
722.4	20.295
722.6	22.683
722.8	23.011
723.1	25.768
723.3	27.227
723.5	26.654
723.8	26.971
724	24.904
724.2	24.033
724.4	24.704
724.7	26.307
724.9	26.281
725.1	27.737
725.4	29.916
725.6	28.295
725.8	27.767
726	27.152
726.3	26.043
726.5	25.33
726.7	26.013
727	24.361
727.2	23.034
727.4	23.935
727.6	25.753
727.9	27.612
728.1	27.567
728.3	27.454
728.6	28.815
728.8	29.294
729	28.257
729.2	30.659
729.5	31.089
729.7	29.585
729.9	30.105
730.2	29.358
730.4	30.214
730.6	31.101
730.8	31.116
731.1	32.341
731.3	34.084
731.5	32.142
731.7	29.63
732	30.422
732.2	30.033
732.4	28.562
732.7	30.177
732.9	29.577
733.1	29.656
733.3	31.459
733.6	32.274
733.8	32.67
734	36.686
734.3	38.67
734.5	41.495
734.7	42.973
734.9	42.396
735.2	44.493
735.4	44.455
735.6	43.961
735.9	45.093
736.1	46.375
736.3	46.756
736.5	46.368
736.8	46.681
737	45.587
737.2	45.112
737.4	43.927
737.7	44.516
737.9	46.929
738.1	46.435
738.4	45.892
738.6	46.997
738.8	48.023
739	46.119
739.3	46.684
739.5	45.598
739.7	45.255
739.9	48.351
740.2	49.72
740.4	49.487
740.6	49.026
740.9	49.849
741.1	48.634
741.3	46.884
741.5	43.833
741.8	43.52
742	44.489
742.2	44.486
742.4	44.467
742.7	45.304
742.9	45.387
743.1	44.493
743.4	42.713
743.6	42.77
743.8	43.467
744	44.512
744.3	45.308
744.5	45.014
744.7	44.923
744.9	44.225
745.2	46.424
745.4	45.508
745.6	45.3
745.8	45.794
746.1	47.831
746.3	49.701
746.5	52.805
746.8	51.836
747	51.455
747.2	52.149
747.4	53.801
747.7	53.277
747.9	53.484
748.1	51.553
748.3	53.084
748.6	53.367
748.8	51.995
749	51.184
749.2	49.668
749.5	50.131
749.7	49.773
749.9	49.034
750.2	51.542
750.4	51.304
750.6	52.044
750.8	51.433
751.1	51.527
751.3	49.977
751.5	51.621
751.7	52.266
752	51.402
752.2	50.335
752.4	51.018
752.6	50.226
752.9	49.656
753.1	48.246
753.3	46.846
753.5	45.572
753.8	46.96
754	45.213
754.2	44.508
754.4	42.853
754.7	42.935
754.9	41.698
755.1	42.521
755.4	42.325
755.6	43.773
755.8	43.98
756	42.705
756.3	41.638
756.5	39.609
756.7	38.138
756.9	37.052
757.2	33.941
757.4	34.137
757.6	31.018
757.8	28.891
758.1	29.204
758.3	29.977
758.5	27.597
758.7	24.731
759	22.128
759.2	21.031
759.4	19.805
759.6	20.246
759.9	18.538
760.1	19.213
760.3	17.259
760.5	15.66
760.8	14.367
761	13.545
761.2	12.719
761.4	13.205
761.7	13.22
761.9	14.386
762.1	13.416
762.3	11.893
762.6	9.113
762.8	8.37
763	7.906
763.2	11.044
763.5	12.142
763.7	11.089
763.9	11.727
764.1	11.93
764.4	10.931
764.6	12.504
764.8	14.412
765	13.265
765.3	11.414
765.5	11.191
765.7	12.119
765.9	13.477
766.2	14.069
766.4	15.245
766.6	14.084
766.8	14.831
767.1	14.129
767.3	15.374
767.5	15.63
767.7	16.49
768	16.471
768.2	16.882
768.4	16.347
768.6	15.434
768.9	13.552
769.1	14.401
769.3	15.955
769.5	16.301
769.8	18.044
770	19.602
770.2	17.105
770.4	18.112
770.7	20.058
770.9	20.673
771.1	20.258
771.3	21.804
771.6	22.189
771.8	22.253
772	21.431
772.2	21.514
772.5	22.585
772.7	23.339
772.9	23.298
773.1	21.928
773.4	23.226
773.6	24.648
773.8	23.086
774	23.543
774.3	23.181
774.5	22.611
774.7	21.838
774.9	22.407
775.2	22.717
775.4	23.414
775.6	22.762
775.8	24.184
776	25.545
776.3	25.304
776.5	24.931
776.7	23.818
776.9	24.248
777.2	24.716
777.4	23.007
777.6	21.514
777.8	21.404
778.1	22.487
778.3	21.325
778.5	20.209
778.7	20.476
779	20.737
779.2	22
779.4	21.378
779.6	21.582
779.9	20.816
780.1	21.363
780.3	19.507
780.5	17.184
780.7	17.648
781	18.191
781.2	17.855
781.4	16.837
781.6	16.845
781.9	17.41
782.1	15.649
782.3	15.551
782.5	16.049
782.8	15.306
783	14.906
783.2	13.941
783.4	14.08
783.7	12.994
783.9	11.338
784.1	10.022
784.3	9.826
784.5	9.52
784.8	6.767
785	5.719
785.2	5.417
785.4	5.677
785.7	4.863
785.9	5.828
786.1	5.349
786.3	5.987
786.6	5.987
786.8	6.662
787	6.839
787.2	7.925
787.4	9.486
787.7	10.12
787.9	9.849
788.1	9.683
788.3	10.558
788.6	9.569
788.8	6.315
789	4.859
789.2	3.901
789.5	3.38
789.7	2.532
789.9	1.091
790.1	0.258
790.3	0.231
790.6	1.514
790.8	1.868
791	1.612
791.2	3.35
791.5	5.975
791.7	7.461
791.9	7.876
792.1	7.831
792.3	7.45
792.6	6.526
792.8	4.354
793	5.99
793.2	6.737
793.5	6.088
793.7	6.409
793.9	5.798
794.1	5.074
794.3	4.467
794.6	6.039
794.8	4.968
795	5.379
795.2	4.897
795.5	5.575
795.7	6.914
795.9	9.234
796.1	8.038
796.3	7.555
796.6	9.313
796.8	8.834
797	10.946
797.2	12.496
797.5	12.47
797.7	13.164
797.9	12.737
798.1	12.432
798.3	19.454
798.6	20.265
798.8	21.985
799	22.853
799.2	23.448
799.5	24.531
799.7	26.07
799.9	24.734
800.1	22.551
800.3	22.709
800.6	22.415
800.8	23.098
801	23.479
801.2	23.377
801.5	23.222
801.7	22.935
801.9	22.528
802.1	24.131
802.3	24.976
802.6	24.81
802.8	23.279
803	25.051
803.2	26.545
803.4	25.112
803.7	26.352
803.9	24.995
804.1	24.139
804.3	24.346
804.6	24.157
804.8	25.628
805	24.18
805.2	15.174
805.4	13.869
805.7	12.202
805.9	11.165
806.1	11.659
806.3	11.666
806.5	10.878
806.8	9.931
807	10.708
807.2	10.256
807.4	10.482
807.6	8.117
807.9	7.235
808.1	7.74
808.3	7.046
808.5	9.803
808.8	11.063
809	10.169
809.2	11.685
809.4	12.621
809.6	13.047
809.9	11.406
810.1	9.981
810.3	11.24
810.5	10.546
810.7	8.415
811	7.122
811.2	6.088
811.4	5.628
811.6	5.357
811.8	6.556
812.1	7.397
812.3	7.348
812.5	7.412
812.7	7.473
812.9	7.261
813.2	7.574
813.4	6.945
813.6	6.914
813.8	6.873
814	6.198
814.3	6.409
814.5	8.898
814.7	8.102
814.9	6.209
815.2	6.733
815.4	4.655
815.6	3.603
815.8	1.796
816	-0.172
816.3	-0.41
816.5	-1.786
816.7	-0.564
816.9	0.759
817.1	-0.104
817.4	-1.669
817.6	-0.738
817.8	-0.779
818	-1.172
818.2	-1.16
818.5	-2.231
818.7	-3.883
818.9	-6.086
819.1	-4.155
819.3	-4.641
819.6	-4.234
819.8	-2.552
820	-4.11
820.2	-4.087
820.4	-3.299
820.7	-3.706
820.9	-2.594
821.1	-2.692
821.3	-3.815
821.5	-2.33
821.8	-1.251
822	-3.242
822.2	-2.484
822.4	-2.891
822.6	-1.662
822.9	-1.326
823.1	-2.971
823.3	-2.288
823.5	-3.729
823.7	-2.397
823.9	-3.227
824.2	-2.967
824.4	-3.367
824.6	-2.167
824.8	-2.982
825	-3.736
825.3	-4.125
825.5	-3.103
825.7	-1.666
825.9	-3.51
826.1	-3.955
826.4	-4.404
826.6	-7.481
826.8	-7.64
827	-6.987
827.2	-7.809
827.5	-7.146
827.7	-6.505
827.9	-5.931
828.1	-5.535
828.3	-6.173
828.6	-5.596
828.8	-4.589
829	-5.754
829.2	-5.682
829.4	-4.634
829.6	-5.241
829.9	-4.381
830.1	-4.121
830.3	-4.17
830.5	-5.275
830.7	-5.222
831	-5.105
831.2	-4.977
831.4	-6.127
831.6	-5.373
831.8	-5.011
832.1	-3.336
832.3	-3.238
832.5	-2.94
832.7	-3.574
832.9	-2.824
833.1	-2.488
833.4	-1.428
833.6	0.586
833.8	1.906
834	3.075
834.2	3.192
834.5	1.917
834.7	-1.33
834.9	-0.994
835.1	-1.5
835.3	-2.424
835.5	-2.473
835.8	-1.983
836	-1.511
836.2	-2.171
836.4	-1.292
836.6	-1.074
836.9	-1.681
837.1	-1.236
837.3	-1.39
837.5	-1.692
837.7	-1.824
837.9	-1.937
838.2	0.073
838.4	-0.745
838.6	0.835
838.8	0.031
839	-0.885
839.3	-0.274
839.5	1.276
839.7	0.808
839.9	0.567
840.1	0.326
840.3	1.246
840.6	-0.874
840.8	-0.987
841	-1.628
841.2	-0.44
841.4	1.148
841.7	0.657
841.9	0.186
842.1	0.356
842.3	0.933
842.5	1.359
842.7	1.898
843	0.959
843.2	-1.017
843.4	0.699
843.6	1.212
843.8	1.981
844	1.857
844.3	1.766
844.5	1.272
844.7	1.37
844.9	0.748
845.1	1.133
845.4	0.205
845.6	1.027
845.8	3.139
846	1.31
846.2	0.295
846.4	1.721
846.7	1.389
846.9	1.615
847.1	0.118
847.3	1.755
847.5	1.529
847.7	1.672
848	0.205
848.2	-0.323
848.4	-0.387
848.6	0.171
848.8	0.043
849	-1.006
849.3	-1.1
849.5	-1.677
849.7	-2.103
849.9	-2.56
850.1	-5.509
850.3	-4.072
850.6	-4.411
850.8	-5.486
851	-6.591
851.2	-5.166
851.4	-4.943
851.6	-6.508
851.9	-6.67
852.1	-6.105
852.3	-8.254
852.5	-9.095
852.7	-8.488
852.9	-7.455
853.2	-7.919
853.4	-7.5
853.6	-7.794
853.8	-9.178
854	-11.219
854.2	-10.038
854.5	-9.356
854.7	-9.205
854.9	-8.59
855.1	-8.356
855.3	-7.674
855.5	-6.486
855.8	-7.097
856	-9.337
856.2	-10.529
856.4	-8.115
856.6	-6.444
856.8	-5.943
857.1	-4.536
857.3	-5.516
857.5	-5.007
857.7	-2.269
857.9	-2.511
858.1	-0.738
858.4	-0.821
858.6	-0.172
858.8	-1.455
859	-0.613
859.2	-2.22
859.4	-1.922
859.7	-2.563
859.9	-3.284
860.1	-3.318
860.3	-2.82
860.5	-2.428
860.7	-2.514
860.9	-4.54
861.2	-4.653
861.4	-4.528
861.6	-3.876
861.8	-3.812
862	-4.019
862.2	-4.215
862.5	-3.48
862.7	-2.575
862.9	-2.254
863.1	-2.918
863.3	-3.046
863.5	-2.209
863.8	-4.943
864	-3.042
864.2	-1.311
864.4	-2.627
864.6	-2.903
864.8	-3.71
865	-3.152
865.3	-2.771
865.5	-2.544
865.7	-0.715
865.9	-0.798
866.1	-1.952
866.3	-2.45
866.6	-1.556
866.8	-2.084
867	-2.835
867.2	-2.533
867.4	-1.835
867.6	-1.417
867.8	-1.888
868.1	-1.602
868.3	-1.967
868.5	-2.182
868.7	-3.699
868.9	-4.019
869.1	-3.8
869.3	-2.974
869.6	-3.159
869.8	-3.57
870	-4.385
870.2	-4.83
870.4	-4.592
870.6	-6.188
870.9	-8.066
871.1	-8.696
871.3	-8.865
871.5	-10.072
871.7	-8.507
871.9	-9.28
872.1	-10.408
872.4	-12.822
872.6	-12.297
872.8	-10.966
873	-10.981
873.2	-11.886
873.4	-10.529
873.6	-10.612
873.9	-10.449
874.1	-11.283
874.3	-12.15
874.5	-13.316
874.7	-14.451
874.9	-14.515
875.1	-15.277
875.4	-15.092
875.6	-16.208
875.8	-15.884
876	-14.24
876.2	-13.516
876.4	-14.572
876.6	-13.516
876.9	-12.524
877.1	-12.196
877.3	-12.792
877.5	-14.451
877.7	-13.501
877.9	-12.546
878.1	-13.855
878.4	-15.846
878.6	-15.209
878.8	-14.247
879	-14.051
879.2	-12.497
879.4	-13.998
879.6	-13.218
879.9	-13.35
880.1	-13.531
880.3	-14.326
880.5	-13.987
880.7	-11.932
880.9	-11.155
881.1	-10.182
881.3	-8.371
881.6	-8.948
881.8	-10.046
882	-9.412
882.2	-7.236
882.4	-7.7
882.6	-9.484
882.8	-9.427
883.1	-8.666
883.3	-9.375
883.5	-11.079
883.7	-10.001
883.9	-10.11
884.1	-8.281
884.3	-10.133
884.6	-11.539
884.8	-7.889
885	-7.496
885.2	-8.926
885.4	-8.303
885.6	-7.138
885.8	-7.251
886	-5.135
886.3	-5.433
886.5	-6.041
886.7	-6.674
886.9	-4.728
887.1	-5.663
887.3	-7.078
887.5	-6.218
887.8	-5.399
888	-7.621
888.2	-6.848
888.4	-6.191
888.6	-5.803
888.8	-6.878
889	-5.886
889.2	-7.07
889.5	-8.681
889.7	-8.609
889.9	-7.123
890.1	-6.757
890.3	-8.405
890.5	-7.466
890.7	-6.795
890.9	-6.267
891.2	-6.029
891.4	-8.334
891.6	-8.579
891.8	-7.496
892	-9.016
892.2	-10.442
892.4	-13.123
892.6	-15.379
892.9	-16.514
893.1	-14.323
893.3	-13.003
893.5	-14.315
893.7	-13.851
893.9	-13.689
894.1	-14.707
894.3	-15.288
894.6	-15.273
894.8	-15.605
895	-14.021
895.2	-14.228
895.4	-14.119
895.6	-16.31
895.8	-15.797
896	-13.915
896.3	-14.726
896.5	-16.122
896.7	-14.832
896.9	-14.119
897.1	-13.734
897.3	-14.772
897.5	-13.221
897.7	-12.671
898	-10.83
898.2	-11
898.4	-12.071
898.6	-11.449
898.8	-10.891
899	-9.318
899.2	-6.81
899.4	-4.954
899.6	-6.606
899.9	-8.096
900.1	-5.777
900.3	-5.486
900.5	-4.57
900.7	-4.351
900.9	-6.41
901.1	-4.773
901.3	-5.396
901.6	-6.497
901.8	-6.233
902	-7.768
902.2	-7.285
902.4	-8.213
902.6	-9.318
902.8	-10.231
903	-11.385
903.2	-12.837
903.5	-13.783
903.7	-15.145
903.9	-15.447
904.1	-16.729
904.3	-16.484
904.5	-17.585
904.7	-16.163
904.9	-14.839
905.1	-14.342
905.4	-13.108
905.6	-13.052
905.8	-15.024
906	-15.782
906.2	-15.76
906.4	-16.092
906.6	-18.279
906.8	-17.178
907	-17.721
907.3	-18.452
907.5	-18.226
907.7	-19.101
907.9	-17.653
908.1	-17.536
908.3	-19.184
908.5	-17.928
908.7	-17.336
908.9	-17.14
909.2	-17.487
909.4	-15.288
909.6	-13.968
909.8	-14.489
910	-14.775
910.2	-12.792
910.4	-13.18
910.6	-12.441
910.8	-14.051
911.1	-11.92
911.3	-11.011
911.5	-11.977
911.7	-12
911.9	-12.407
912.1	-11.834
912.3	-12.482
912.5	-10.83
912.7	-10.6
912.9	-10.053
913.2	-9.416
913.4	-11.113
913.6	-9.88
913.8	-8.518
914	-6.829
914.2	-7.01
914.4	-7.44
914.6	-7.904
914.8	-6.863
915.1	-6.037
915.3	-6.044
915.5	-4.117
915.7	-3.974
915.9	-4.038
916.1	-4.162
916.3	-4.174
916.5	-3.272
916.7	-3.152
916.9	-1.341
917.2	-1.794
917.4	0.488
917.6	-2.465
917.8	-3.993
918	-4.592
918.2	-5.392
918.4	-6.802
918.6	-7.353
918.8	-6.565
919	-7.693
919.2	-6.097
919.5	-4.936
919.7	-6.063
919.9	-5.863
920.1	-6.855
920.3	-7.9
920.5	-7.285
920.7	-6.976
920.9	-8.254
921.1	-8.013
921.3	-9.005
921.6	-10.223
921.8	-10.167
922	-12.033
922.2	-13.704
922.4	-14.937
922.6	-16.22
922.8	-14.572
923	-15.428
923.2	-16.744
923.4	-18.468
923.6	-18.268
923.9	-19.818
924.1	-19.648
924.3	-20.372
924.5	-19.06
924.7	-18.105
924.9	-17.17
925.1	-17.087
925.3	-16.231
925.5	-16.337
925.7	-18.151
925.9	-18.705
926.2	-17.951
926.4	-17.962
926.6	-17.215
926.8	-17.766
927	-18.822
927.2	-18.245
927.4	-17.845
927.6	-17.611
927.8	-15.647
928	-16.22
928.2	-16.129
928.5	-15.465
928.7	-14.349
928.9	-13.448
929.1	-12.139
929.3	-11.792
929.5	-10.51
929.7	-11.528
929.9	-12.056
930.1	-12.682
930.3	-12.46
930.5	-11.29
930.8	-10.008
931	-10.182
931.2	-10.781
931.4	-11.49
931.6	-10.944
931.8	-10.804
932	-10.947
932.2	-12.456
932.4	-14.319
932.6	-14.9
932.8	-15.684
933	-17.958
933.3	-17.483
933.5	-17.841
933.7	-18.305
933.9	-18.253
934.1	-17.57
934.3	-17.28
934.5	-16.208
934.7	-16.797
934.9	-16.665
935.1	-15.729
935.3	-16.906
935.5	-18.192
935.7	-19.214
936	-19.554
936.2	-18.366
936.4	-17.747
936.6	-16.714
936.8	-17.125
937	-17.83
937.2	-19.376
937.4	-19.482
937.6	-19.75
937.8	-19.237
938	-21.752
938.2	-23.012
938.4	-22.311
938.7	-20.689
938.9	-20.674
939.1	-19.852
939.3	-18.558
939.5	-16.552
939.7	-16.672
939.9	-16.974
940.1	-16.31
940.3	-16.163
940.5	-16.593
940.7	-17.189
940.9	-16.868
941.1	-16.997
941.4	-17.879
941.6	-17.913
941.8	-18.245
942	-16.748
942.2	-17.004
942.4	-16.861
942.6	-14.881
942.8	-14.379
943	-14.756
943.2	-14.24
943.4	-14.338
943.6	-12.92
943.8	-13.18
944	-13.625
944.3	-13.542
944.5	-12.942
944.7	-10.333
944.9	-10.917
945.1	-9.74
945.3	-8.564
945.5	-8.277
945.7	-7.907
945.9	-9.137
946.1	-8.451
946.3	-9.763
946.5	-11.358
946.7	-11.392
946.9	-11.128
947.1	-11.204
947.4	-11.962
947.6	-12.173
947.8	-11.615
948	-12.569
948.2	-10.668
948.4	-11.694
948.6	-11.37
948.8	-10.993
949	-12.69
949.2	-12.026
949.4	-12.46
949.6	-13.625
949.8	-12.901
950	-14.594
950.2	-12.784
950.5	-11.713
950.7	-12.656
950.9	-11.562
951.1	-14.334
951.3	-13.078
951.5	-14.323
951.7	-16.092
951.9	-16.439
952.1	-17.751
952.3	-16.544
952.5	-17.102
952.7	-15.088
952.9	-14.078
953.1	-15.024
953.3	-15.53
953.5	-16.706
953.8	-16.472
954	-15.043
954.2	-16.48
954.4	-15.899
954.6	-17.408
954.8	-17.17
955	-16.921
955.2	-16.578
955.4	-17.551
955.6	-18.603
955.8	-17.038
956	-16.239
956.2	-16.42
956.4	-14.96
956.6	-17.125
956.8	-17.445
957	-16.593
957.2	-15.68
957.5	-15.266
957.7	-16.997
957.9	-17.54
958.1	-16.363
958.3	-17.264
958.5	-17.947
958.7	-19.165
958.9	-18.652
959.1	-18.603
959.3	-18.573
959.5	-18.716
959.7	-18.509
959.9	-18.287
960.1	-18.102
960.3	-18.449
960.5	-15.779
960.7	-15.398
960.9	-14.244
961.1	-14.945
961.4	-15.733
961.6	-18.347
961.8	-18.686
962	-19.263
962.2	-18.581
962.4	-20.564
962.6	-20.029
962.8	-20.934
963	-20.757
963.2	-21.598
963.4	-21.504
963.6	-23.608
963.8	-24.509
964	-24.887
964.2	-25.513
964.4	-24.838
964.6	-24.23
964.8	-23.103
965	-22.526
965.2	-23.906
965.5	-23.65
965.7	-22.858
965.9	-21.651
966.1	-22.869
966.3	-21.028
966.5	-19.422
966.7	-21.209
966.9	-21.451
967.1	-22.066
967.3	-23.065
967.5	-21.47
967.7	-21.715
967.9	-19.984
968.1	-17.815
968.3	-15.19
968.5	-16.748
968.7	-14.462
968.9	-14.168
969.1	-13.425
969.3	-11.626
969.5	-11.128
969.7	-10.725
969.9	-8.277
970.2	-7.308
970.4	-6.968
970.6	-6.376
970.8	-6.572
971	-5.041
971.2	-4.509
971.4	-4.939
971.6	-3.638
971.8	-3.574
972	-4.189
972.2	-2.544
972.4	-2.824
972.6	-4.936
972.8	-6.041
973	-5.226
973.2	-5.154
973.4	-5.335
973.6	-5.215
973.8	-6.335
974	-5.641
974.2	-5.762
974.4	-8.522
974.6	-10.072
974.8	-8.869
975	-9.073
975.2	-10.087
975.5	-11.249
975.7	-11.008
975.9	-10.178
976.1	-10.687
976.3	-12.95
976.5	-11.558
976.7	-12.045
976.9	-11.317
977.1	-12.098
977.3	-12.622
977.5	-14.145
977.7	-14.828
977.9	-13.859
978.1	-14.198
978.3	-13.263
978.5	-14.998
978.7	-13.904
978.9	-12.543
979.1	-12.343
979.3	-11.087
979.5	-11.592
979.7	-12.007
979.9	-12.313
980.1	-12.916
980.3	-13.229
980.5	-13.723
980.7	-11.332
980.9	-9.518
981.1	-10.664
981.3	-10.472
981.5	-10.812
981.7	-11.151
981.9	-12.588
982.2	-12.067
982.4	-12.286
982.6	-9.405
982.8	-11.807
983	-11.758
983.2	-11.977
983.4	-10.872
983.6	-11.713
983.8	-9.137
984	-7.723
984.2	-7.681
984.4	-8.021
984.6	-10.178
984.8	-10.076
985	-8.19
985.2	-7.753
985.4	-9.284
985.6	-11.717
985.8	-10.981
986	-8.481
986.2	-6.542
986.4	-6.799
986.6	-5.569
986.8	-6.444
987	-6.176
987.2	-7.01
987.4	-7.919
987.6	-7.21
987.8	-7.278
988	-6.335
988.2	-7.025
988.4	-7.938
988.6	-8.021
988.8	-11.283
989	-9.431
989.2	-9.416
989.4	-8.187
989.6	-9.039
989.8	-8.515
990	-8.994
990.2	-10.159
990.4	-11.038
990.6	-9.895
990.8	-7.772
991	-8.236
991.3	-9.744
991.5	-9.906
991.7	-10.053
991.9	-9.559
992.1	-10.657
992.3	-10.879
992.5	-11.456
992.7	-10.676
992.9	-11.566
993.1	-10.51
993.3	-11.347
993.5	-12.437
993.7	-11.298
993.9	-11.332
994.1	-11.487
994.3	-11.196
994.5	-10.001
994.7	-9.786
994.9	-8.782
995.1	-8.571
995.3	-8.805
995.5	-8.632
995.7	-10.144
995.9	-9.186
996.1	-10.295
996.3	-12.614
996.5	-12.773
996.7	-14.055
996.9	-14.47
997.1	-17.381
997.3	-18.253
997.5	-18.792
997.7	-19.211
997.9	-19.32
998.1	-16.265
998.3	-16.54
998.5	-17.249
998.7	-17.321
998.9	-16.295
999.1	-16.604
999.3	-16.442
999.5	-17.117
999.7	-19.294
999.9	-20.38
1000.1	-21.575
1000.3	-20.444
1000.5	-20.482
1000.7	-20.67
1000.9	-20.927
1001.1	-21.349
1001.3	-19.867
1001.5	-21.413
1001.7	-21.643
1001.9	-22.13
1002.1	-22.375
1002.3	-21.975
1002.5	-22.084
1002.7	-22.379
1002.9	-21.922
1003.1	-22.899
1003.3	-22.043
1003.5	-20.014
1003.7	-20.195
1003.9	-18.569
1004.1	-17.14
1004.3	-18.366
1004.5	-16.729
1004.7	-16.695
1004.9	-17.63
1005.1	-17.687
1005.3	-16.676
1005.5	-18.139
1005.7	-16.944
1005.9	-15.556
1006.1	-13.206
1006.3	-12.603
1006.5	-14.492
1006.7	-13.946
1006.9	-13.35
1007.1	-13.12
1007.3	-13.961
1007.5	-14.474
1007.7	-13.663
1007.9	-14.368
1008.1	-13.836
1008.3	-14.485
1008.5	-13.433
1008.7	-10.766
1008.9	-10.257
1009.1	-9.563
1009.3	-10.095
1009.5	-9.261
1009.7	-10.057
1009.9	-9.597
1010.1	-12.29
1010.3	-11.724
1010.5	-12.686
1010.7	-13.912
1010.9	-15.281
1011.1	-14.934
1011.3	-15.53
1011.5	-16.616
1011.7	-16.261
1011.9	-17.181
1012.1	-15.628
1012.3	-17.136
1012.5	-17.864
1012.7	-17.249
1012.9	-17.611
1013.1	-19.075
1013.3	-17.962
1013.5	-17.068
1013.7	-17.159
1013.9	-18.434
1014.1	-17.004
1014.3	-17.536
1014.5	-17.751
1014.7	-17.906
1014.9	-20.097
1015.1	-19.211
1015.3	-19.946
1015.5	-19.776
1015.7	-20.074
1015.9	-19.693
1016.1	-20.493
1016.3	-18.17
1016.5	-20.606
1016.7	-20.003
1016.9	-20.655
1017.1	-21.466
1017.3	-21.949
1017.5	-21.077
1017.7	-20.979
1017.9	-20.772
1018.1	-20.342
1018.3	-21.16
1018.5	-21.522
1018.7	-20.515
1018.9	-19.524
1019.1	-21.191
1019.2	-21.952
1019.4	-23.212
1019.6	-23.536
1019.8	-23.853
1020	-22.443
1020.2	-23.325
1020.4	-20.025
1020.6	-20.014
1020.8	-21.587
1021	-19.784
1021.2	-19.742
1021.4	-19.165
1021.6	-17.181
1021.8	-16.955
1022	-17.977
1022.2	-16.804
1022.4	-16.325
1022.6	-16.352
1022.8	-16.423
1023	-16.646
1023.2	-15.024
1023.4	-15.303
1023.6	-16.793
1023.8	-13.138
1024	-12.874
1024.2	-14.73
1024.4	-14.096
1024.6	-13.923
1024.8	-15.073
1025	-15.469
1025.2	-15.186
1025.4	-12.58
1025.6	-12.603
1025.8	-12.867
1026	-12.294
1026.2	-12.448
1026.4	-12.267
1026.6	-14.941
1026.8	-13.022
1027	-12.199
1027.2	-12.358
1027.4	-13.512
1027.6	-13.154
1027.8	-15.103
1028	-15.398
1028.1	-14.029
1028.3	-15.107
1028.5	-17.246
1028.7	-16.774
1028.9	-17.958
1029.1	-17.721
1029.3	-18.449
1029.5	-18.324
1029.7	-18.105
1029.9	-21.217
1030.1	-18.641
1030.3	-17.423
1030.5	-16.635
1030.7	-16.408
1030.9	-14.557
1031.1	-14.949
1031.3	-14.956
1031.5	-15.473
1031.7	-16.133
1031.9	-15.609
1032.1	-16.027
1032.3	-17.144
1032.5	-17.453
1032.7	-18.43
1032.9	-20.395
1033.1	-21.142
1033.3	-21.307
1033.5	-21.164
1033.7	-22.567
1033.9	-22.375
1034.1	-21.617
1034.3	-19.791
1034.4	-20.018
1034.6	-19.75
1034.8	-18.226
1035	-16.97
1035.2	-16.887
1035.4	-16.19
1035.6	-15.639
1035.8	-15.119
1036	-15.409
1036.2	-18.369
1036.4	-18.264
1036.6	-19.693
1036.8	-20.685
1037	-21.439
1037.2	-22.363
1037.4	-22.756
1037.6	-24.072
1037.8	-23.193
1038	-24.792
1038.2	-24.713
1038.4	-24.257
1038.6	-22.854
1038.8	-21.56
1039	-19.682
1039.2	-19.712
1039.4	-20.538
1039.5	-19.071
1039.7	-18.253
1039.9	-16.974
1040.1	-17.94
1040.3	-19.569
1040.5	-17.838
1040.7	-18.69
1040.9	-19.467
1041.1	-21.134
1041.3	-20.787
1041.5	-22.439
1041.7	-22.36
1041.9	-21.896
1042.1	-21.526
1042.3	-20.27
1042.5	-20.039
1042.7	-20.05
1042.9	-19.381
1043.1	-19.992
1043.3	-18.784
1043.5	-17.452
1043.7	-16.709
1043.8	-16.914
1044	-14.846
1044.2	-14.403
1044.4	-13.126
1044.6	-14.299
1044.8	-14.575
1045	-16.68
1045.2	-15.547
