Data from mesure_FLMT021711__14__36.txt Node

Date: Mon Nov 04 11:52:24 CET 2024
User: jordan.swietlicki
Spectrometer: FLMT02171
Trigger mode: 0
Integration Time (sec): 1.000000E-1
Scans to average: 15
Electric dark correction enabled: true
Nonlinearity correction enabled: false
Boxcar width: 15
XAxis mode: Wavelengths
Number of Pixels in Spectrum: 3648
>>>>>Begin Spectral Data<<<<<
194.7	-41.103
194.9	-39.605
195.2	-35.11
195.5	-34.368
195.7	-31.053
196	-29.979
196.2	-28.822
196.5	-30.17
196.8	-28.975
197	-27.923
197.3	-27.756
197.6	-25.172
197.8	-25.391
198.1	-23.817
198.4	-22.079
198.6	-20.97
198.9	-16.535
199.2	-12.549
199.4	-8.302
199.7	-2.366
200	-2.241
200.2	-4.259
200.5	-4.293
200.7	-4.251
201	-4.063
201.3	-5.262
201.5	-3.682
201.8	-4.417
202.1	-3.456
202.3	-3.523
202.6	-3.376
202.9	-4.636
203.1	-3.795
203.4	-5.258
203.7	-5.447
203.9	-6.19
204.2	-6.269
204.5	-5.526
204.7	-4.263
205	-3.999
205.2	-2.98
205.5	-1.758
205.8	-2.573
206	1.036
206.3	1.304
206.6	1.922
206.8	1.873
207.1	1.674
207.4	3.386
207.6	5.449
207.9	5.747
208.2	6.309
208.4	7.697
208.7	6.863
208.9	8.775
209.2	8.651
209.5	9.684
209.7	9.277
210	9.62
210.3	9.518
210.5	11.54
210.8	10.902
211.1	12.136
211.3	12.517
211.6	11.189
211.9	11.872
212.1	12.102
212.4	13.18
212.6	13.429
212.9	13.927
213.2	12.969
213.4	12.667
213.7	13.452
214	14.383
214.2	11.362
214.5	11.234
214.8	11.023
215	11.042
215.3	14.078
215.5	15.198
215.8	14.504
216.1	14.334
216.3	14.696
216.6	14.561
216.9	15.24
217.1	15.311
217.4	15.104
217.7	15.006
217.9	13.075
218.2	13.391
218.5	13.418
218.7	11.528
219	12.132
219.2	12.856
219.5	12.418
219.8	13.659
220	13.52
220.3	14.183
220.6	13.637
220.8	12.075
221.1	12.63
221.4	12.083
221.6	12.026
221.9	11.913
222.1	10.951
222.4	10.823
222.7	12.539
222.9	9.865
223.2	9.409
223.5	7.319
223.7	7.587
224	6.905
224.2	5.807
224.5	6.241
224.8	5.449
225	5.362
225.3	4.966
225.6	4.827
225.8	6.09
226.1	8.24
226.4	7.229
226.6	5.558
226.9	6.573
227.1	6.626
227.4	6.509
227.7	5.954
227.9	6.03
228.2	6.252
228.5	5.464
228.7	5.132
229	5.196
229.3	5.253
229.5	9.198
229.8	8.783
230	8.937
230.3	7.55
230.6	7.712
230.8	5.833
231.1	7.93
231.4	6.652
231.6	11.012
231.9	10.148
232.1	11.796
232.4	11.525
232.7	11.362
232.9	11.408
233.2	10.299
233.5	10.291
233.7	11.136
234	10.563
234.2	8.511
234.5	9.665
234.8	12.147
235	12.019
235.3	11.996
235.6	11.608
235.8	12.105
236.1	13.463
236.4	13.112
236.6	13.908
236.9	14.806
237.1	16.171
237.4	16.05
237.7	12.004
237.9	11.476
238.2	9.077
238.5	11.589
238.7	11.54
239	11.291
239.2	10.48
239.5	12.863
239.8	9.198
240	7.847
240.3	9.281
240.6	9.002
240.8	8.481
241.1	8.971
241.3	9.413
241.6	7.987
241.9	6.237
242.1	6.72
242.4	9.348
242.7	8.79
242.9	8.779
243.2	7.915
243.4	8.666
243.7	8.817
244	7.286
244.2	6.874
244.5	6.343
244.8	6.403
245	5.66
245.3	6.75
245.5	5.747
245.8	6.859
246.1	6.565
246.3	7.131
246.6	5.803
246.9	7.485
247.1	8.168
247.4	9.631
247.6	10.982
247.9	10.555
248.2	10.944
248.4	7.384
248.7	7.915
248.9	7.923
249.2	7.67
249.5	8.157
249.7	9.292
250	8.198
250.3	7.138
250.5	5.305
250.8	6.603
251	4.853
251.3	6.09
251.6	7.44
251.8	7.263
252.1	7.783
252.4	5.622
252.6	6.505
252.9	5.619
253.1	5.717
253.4	3.786
253.7	4.827
253.9	6.052
254.2	6.807
254.4	6.603
254.7	7.059
255	7.418
255.2	8.564
255.5	6.758
255.8	5.547
256	6.233
256.3	7.346
256.5	8.409
256.8	8.73
257.1	8.391
257.3	7.35
257.6	7.859
257.8	8.357
258.1	10.518
258.4	11.502
258.6	12.064
258.9	11.396
259.2	10.401
259.4	9.846
259.7	6.961
259.9	5.724
260.2	7.195
260.5	8.636
260.7	8.013
261	7.546
261.2	7.01
261.5	6.807
261.8	6.075
262	6.716
262.3	6.478
262.6	6.799
262.8	5.747
263.1	4.51
263.3	2.797
263.6	3.899
263.9	2.718
264.1	1.919
264.4	2.473
264.6	2.104
264.9	1.338
265.2	2.703
265.4	2.5
265.7	2.718
266	1.855
266.2	3.028
266.5	2.865
266.7	0.58
267	-1.381
267.3	0.191
267.5	1.323
267.8	3.171
268	4.065
268.3	3.171
268.6	1.915
268.8	3.729
269.1	2.239
269.3	1.572
269.6	1.251
269.9	1.719
270.1	-0.586
270.4	0.467
270.6	0.259
270.9	-0.212
271.2	-0.846
271.4	-2.32
271.7	-4.376
272	-4.085
272.2	-2.867
272.5	-4.908
272.7	-3.471
273	-2.113
273.3	-2.286
273.5	-0.303
273.8	-1.555
274	-0.503
274.3	-3.071
274.6	-3.539
274.8	0.731
275.1	2.616
275.3	3.484
275.6	2.492
275.9	1.345
276.1	1.18
276.4	1.198
276.6	2.639
276.9	1.934
277.2	4.468
277.4	4.257
277.7	7.089
277.9	6.788
278.2	7.979
278.5	8.952
278.7	9.296
279	9.352
279.2	9.266
279.5	10.638
279.8	11.97
280	12.237
280.3	10.706
280.5	10.899
280.8	10.269
281.1	9.296
281.3	9.993
281.6	8.719
281.9	9.85
282.1	8.771
282.4	9.118
282.6	9.695
282.9	8.606
283.2	7.55
283.4	5.46
283.7	5.392
283.9	5.091
284.2	6.067
284.5	5
284.7	3.533
285	2.926
285.2	0.923
285.5	2.929
285.8	1.051
286	5.464
286.3	6.128
286.5	4.167
286.8	5.207
287.1	7.086
287.3	7.135
287.6	6.184
287.8	6.656
288.1	5.743
288.4	5.867
288.6	8.164
288.9	8.157
289.1	7.821
289.4	5.14
289.7	6.475
289.9	4.985
290.2	7.003
290.4	8.56
290.7	7.263
290.9	5.068
291.2	6.46
291.5	9.262
291.7	9.884
292	11.476
292.2	10.736
292.5	12.728
292.8	14.425
293	13.214
293.3	14.27
293.5	15.752
293.8	15.824
294.1	12.599
294.3	11.249
294.6	11.709
294.8	10.948
295.1	10.118
295.4	10.457
295.6	10.631
295.9	11.166
296.1	10.054
296.4	10.97
296.7	8.062
296.9	8.53
297.2	7.493
297.4	9.269
297.7	8.104
298	9.488
298.2	7.81
298.5	8.677
298.7	10.393
299	12.633
299.3	11.77
299.5	9.13
299.8	9.744
300	9.545
300.3	9.895
300.5	9.605
300.8	8.142
301.1	10.223
301.3	11.287
301.6	9.054
301.8	6.629
302.1	5.411
302.4	5.649
302.6	5.652
302.9	6.301
303.1	4.86
303.4	5.641
303.7	7.074
303.9	4.781
304.2	5.932
304.4	5.434
304.7	7.082
304.9	5.072
305.2	7.979
305.5	8.391
305.7	7.704
306	8.123
306.2	9.262
306.5	8.564
306.8	6.999
307	3.85
307.3	4.664
307.5	5.83
307.8	4.212
308.1	3.182
308.3	3.771
308.6	2.228
308.8	3.031
309.1	2.88
309.3	2.813
309.6	2.518
309.9	5.852
310.1	6.033
310.4	6.95
310.6	7.372
310.9	6.441
311.2	7.58
311.4	7.304
311.7	7.644
311.9	8.922
312.2	9.718
312.5	9.514
312.7	9.035
313	9.401
313.2	8.541
313.5	7.289
313.7	5.883
314	4.461
314.3	3.684
314.5	4.551
314.8	5.803
315	8.658
315.3	7.003
315.6	5.456
315.8	4.657
316.1	4.857
316.3	3.476
316.6	4.453
316.8	4.464
317.1	4.167
317.4	2.541
317.6	1.851
317.9	0.78
318.1	0.538
318.4	-0.088
318.6	-0.88
318.9	-2.071
319.2	-2.731
319.4	-3.222
319.7	-5.315
319.9	-5.33
320.2	-5.53
320.5	-4.681
320.7	-4.104
321	-4.576
321.2	-5.7
321.5	-4.285
321.7	-1.864
322	-0.28
322.3	-1
322.5	-1.166
322.8	-2.271
323	-3.742
323.3	-2.271
323.5	-0.706
323.8	0.934
324.1	0.795
324.3	1.972
324.6	1.459
324.8	1.938
325.1	0.399
325.4	1.972
325.6	4.117
325.9	3.601
326.1	4.053
326.4	3.703
326.6	3.137
326.9	5.072
327.2	5.69
327.4	6.509
327.7	7.187
327.9	7.912
328.2	8.062
328.4	7.206
328.7	8.96
329	10.122
329.2	10.853
329.5	10.231
329.7	9.948
330	9.944
330.2	11.562
330.5	11.811
330.8	11.494
331	12.532
331.3	11.083
331.5	10.408
331.8	8.949
332	8.587
332.3	6.908
332.6	7.455
332.8	6.561
333.1	8.096
333.3	7.949
333.6	7.384
333.8	7.923
334.1	7.368
334.4	6.724
334.6	6.248
334.9	5.015
335.1	4.962
335.4	3.088
335.6	4.374
335.9	2.3
336.2	0.712
336.4	0.768
336.7	-1.072
336.9	-0.122
337.2	-0.027
337.4	-0.276
337.7	-0.646
338	-2.69
338.2	-2.931
338.5	-4.851
338.7	-4.429
339	-4.338
339.2	-2.486
339.5	-3.603
339.8	-3.316
340	-1.902
340.3	-1.053
340.5	-1.151
340.8	1.508
341	1.285
341.3	-0.11
341.6	0.025
341.8	0.086
342.1	-0.699
342.3	0.259
342.6	2.104
342.8	2.926
343.1	2.699
343.4	2.647
343.6	0.478
343.9	2.537
344.1	3.68
344.4	3.424
344.6	2.398
344.9	1.327
345.1	1.123
345.4	0.655
345.7	0.972
345.9	1.919
346.2	0.961
346.4	0.878
346.7	0.538
346.9	0.946
347.2	-0.989
347.5	0.365
347.7	0.486
348	-1.506
348.2	-1.434
348.5	-1.215
348.7	0.859
349	1.187
349.2	3.537
349.5	3.122
349.8	3.043
350	3.476
350.3	2.511
350.5	1.496
350.8	1.157
351	0.206
351.3	1.308
351.6	1.379
351.8	0.271
352.1	-0.008
352.3	-0.05
352.6	0.425
352.8	-0.182
353.1	-0.834
353.3	-1.008
353.6	-2.317
353.9	-2.716
354.1	-3.003
354.4	-2.543
354.6	-1.132
354.9	-2.811
355.1	-1.159
355.4	-2.071
355.6	-1.257
355.9	-1.34
356.2	-1.046
356.4	-1.374
356.7	-5.892
356.9	-6.228
357.2	-6.903
357.4	-7.529
357.7	-7.929
358	-4.662
358.2	-4.753
358.5	-4.636
358.7	-5.089
359	-4.274
359.2	-3.301
359.5	-3.071
359.7	-1.472
360	-1.528
360.3	0.003
360.5	0.369
360.8	0.452
361	2.262
361.3	1.406
361.5	2.877
361.8	3.209
362	3.823
362.3	3.65
362.6	3.887
362.8	5.939
363.1	6.18
363.3	7.293
363.6	7.335
363.8	9.424
364.1	8.424
364.3	9.624
364.6	10.514
364.8	11.445
365.1	11.049
365.4	13.456
365.6	13.278
365.9	11.351
366.1	12.479
366.4	12.581
366.6	13.373
366.9	14.791
367.1	13.969
367.4	16.752
367.7	16.94
367.9	17.408
368.2	17.042
368.4	15.537
368.7	16.239
368.9	17.023
369.2	16.461
369.4	17.05
369.7	18.159
370	17.83
370.2	18.012
370.5	17.604
370.7	16.303
371	16.778
371.2	16.771
371.5	18.181
371.7	17.582
372	18.592
372.2	18.279
372.5	19.135
372.8	18.792
373	17.125
373.3	14.168
373.5	16.13
373.8	15.402
374	15.036
374.3	15.798
374.5	16.737
374.8	17.046
375	17.008
375.3	15.937
375.6	15.092
375.8	16.322
376.1	17.167
376.3	19.233
376.6	19
376.8	16.548
377.1	19.652
377.3	17.446
377.6	15.583
377.8	16.084
378.1	17.276
378.4	17.318
378.6	17.585
378.9	15.817
379.1	16.673
379.4	15.19
379.6	14.953
379.9	13.346
380.1	12.728
380.4	12.324
380.6	13.033
380.9	13.173
381.2	14.236
381.4	14.138
381.7	16.077
381.9	16.891
382.2	17.751
382.4	16.982
382.7	15.055
382.9	15.828
383.2	16.68
383.4	17.269
383.7	17.936
383.9	16.718
384.2	16.446
384.5	17.966
384.7	19.113
385	18.63
385.2	20.591
385.5	21.515
385.7	22.024
386	23.028
386.2	23.133
386.5	22.202
386.7	23.872
387	23.586
387.2	24.246
387.5	25.875
387.8	28.349
388	30.107
388.3	31.498
388.5	32.128
388.8	34.255
389	35.677
389.3	34.493
389.5	33.335
389.8	34.104
390	32.188
390.3	32.539
390.5	33.203
390.8	35.243
391.1	34.515
391.3	34.813
391.6	34.217
391.8	35.707
392.1	35.677
392.3	36.345
392.6	36.767
392.8	37.348
393.1	41.229
393.3	44.306
393.6	44.83
393.8	44.894
394.1	48.013
394.4	51.717
394.6	52.977
394.9	53.946
395.1	55.775
395.4	54.7
395.6	56.435
395.9	55.839
396.1	55.696
396.4	56.092
396.6	56.929
396.9	56.292
397.1	57.291
397.4	59.426
397.6	59.49
397.9	61.885
398.2	63.91
398.4	67.244
398.7	67.629
398.9	67.863
399.2	69.662
399.4	70.371
399.7	69.756
399.9	70.212
400.2	70.442
400.4	71.725
400.7	72.513
400.9	70.503
401.2	69.79
401.4	70.842
401.7	70.137
401.9	68.821
402.2	66.377
402.5	66.599
402.7	65.475
403	65.747
403.2	68.047
403.5	68.055
403.7	69.326
404	69.941
404.2	69.786
404.5	71.329
404.7	73.452
405	75.903
405.2	76.307
405.5	77.68
405.7	79.547
406	80.689
406.2	81.557
406.5	82.1
406.7	82.579
407	81.168
407.3	81.87
407.5	82.586
407.8	84.197
408	83.571
408.3	84.268
408.5	84.887
408.8	83.367
409	84.755
409.3	84.864
409.5	87.131
409.8	86.577
410	88.598
410.3	88.643
410.5	93.037
410.8	91.845
411	92
411.3	92.675
411.5	93.595
411.8	93.482
412	93.312
412.3	93.26
412.6	94.527
412.8	93.094
413.1	91.762
413.3	92.377
413.6	91.291
413.8	90.518
414.1	89.088
414.3	87.832
414.6	88.447
414.8	88.179
415.1	88.172
415.3	88.817
415.6	90.337
415.8	90.929
416.1	91.215
416.3	90.205
416.6	93.558
416.8	92.796
417.1	93.625
417.3	91.54
417.6	92.905
417.8	93.848
418.1	94.889
418.4	92.931
418.6	94.934
418.9	94.87
419.1	94.878
419.4	94.659
419.6	94.651
419.9	95.138
420.1	94.776
420.4	93.999
420.6	94.267
420.9	93.995
421.1	93.927
421.4	94.64
421.6	94.048
421.9	93.878
422.1	93.094
422.4	93.501
422.6	95.04
422.9	94.104
423.1	94.383
423.4	94.451
423.6	94.757
423.9	95.409
424.1	97.374
424.4	95.719
424.6	94.825
424.9	93.916
425.1	93.497
425.4	91.683
425.6	92.37
425.9	90.144
426.2	89.782
426.4	88.002
426.7	87.497
426.9	86.494
427.2	84.431
427.4	84.027
427.7	83.254
427.9	81.613
428.2	81.293
428.4	82.107
428.7	82.643
428.9	82.681
429.2	83.469
429.4	84.144
429.7	83.914
429.9	83.295
430.2	83.129
430.4	83.084
430.7	84.736
430.9	84.585
431.2	83.367
431.4	83.582
431.7	84.046
431.9	81.987
432.2	83.231
432.4	83.601
432.7	84.593
432.9	87.742
433.2	89.978
433.4	88.892
433.7	90.393
433.9	90.646
434.2	90.944
434.4	91.114
434.7	92.279
434.9	94.055
435.2	93.727
435.4	94.018
435.7	95.077
435.9	94.176
436.2	94.719
436.4	94.908
436.7	94.572
436.9	93.112
437.2	92.664
437.4	93.867
437.7	96.526
437.9	97.502
438.2	96.239
438.4	96.182
438.7	95.922
438.9	95.466
439.2	94.293
439.4	91.268
439.7	92.607
439.9	91.193
440.2	91.193
440.5	91.909
440.7	90.303
441	89.994
441.2	90.62
441.5	90.242
441.7	90.488
442	91.472
442.2	91.804
442.5	90.563
442.7	91.246
443	92.762
443.2	94.021
443.5	93.773
443.7	95.055
444	93.109
444.2	93.531
444.5	93.765
444.7	95.07
445	95.805
445.2	95.7
445.5	94.395
445.7	94.123
446	94.632
446.2	94.508
446.5	95.059
446.7	96.424
447	97.012
447.2	98.306
447.5	99.418
447.7	99.743
448	99.139
448.2	98.46
448.5	99.094
448.7	100.154
449	99.064
449.2	99.245
449.5	99.69
449.7	98.476
450	97.932
450.2	99.479
450.5	97.853
450.7	98.736
451	98.306
451.2	99.26
451.5	98.494
451.7	100.384
452	102.058
452.2	102.205
452.5	101.659
452.7	101.481
452.9	100.98
453.2	100.867
453.4	102.221
453.7	103.688
453.9	102.85
454.2	102.907
454.4	101.666
454.7	103.937
454.9	104.182
455.2	103.054
455.4	103.182
455.7	106.69
455.9	106.03
456.2	106.067
456.4	105.758
456.7	105.577
456.9	105.709
457.2	105.622
457.4	108.085
457.7	109.662
457.9	109.398
458.2	110.661
458.4	110.85
458.7	111.894
458.9	111.306
459.2	111.215
459.4	112.437
459.7	113.343
459.9	112.837
460.2	113.162
460.4	112.566
460.7	114.527
460.9	116.503
461.2	115.451
461.4	114.425
461.7	117.095
461.9	117.178
462.2	117.695
462.4	116.371
462.7	118.147
462.9	118.174
463.2	118.208
463.4	114.81
463.7	116.047
463.9	116.718
464.2	116.262
464.4	117.548
464.7	118.875
464.9	117.717
465.2	118.472
465.4	118.419
465.7	120.041
465.9	121.089
466.2	121.527
466.4	121.368
466.6	122.594
466.9	121.591
467.1	120.293
467.4	119.912
467.6	121.251
467.9	120.75
468.1	121.116
468.4	119.818
468.6	118.204
468.9	117.171
469.1	117.898
469.4	117.193
469.6	117.721
469.9	117.34
470.1	119.46
470.4	117.521
470.6	119.788
470.9	121.01
471.1	123.329
471.4	122.998
471.6	122.937
471.9	124.861
472.1	125.038
472.4	124.94
472.6	127.572
472.9	125.724
473.1	126.739
473.4	126.267
473.6	125.8
473.9	124.197
474.1	124.51
474.3	123.993
474.6	127.24
474.8	127.056
475.1	126.181
475.3	125.185
475.6	125.717
475.8	126.878
476.1	128.372
476.3	127.859
476.6	129.047
476.8	129.096
477.1	130.461
477.3	130.684
477.6	132.143
477.8	131.027
478.1	132.392
478.3	131.913
478.6	134.097
478.8	133.256
479.1	133.475
479.3	132.886
479.6	133.188
479.8	132.928
480.1	134.082
480.3	133.976
480.5	135.096
480.8	133.644
481	134.308
481.3	134.919
481.5	136.194
481.8	135.338
482	137.084
482.3	136.175
482.5	136.024
482.8	136.243
483	137.374
483.3	138.438
483.5	140.388
483.8	139.392
484	140.754
484.3	140.161
484.5	142.111
484.8	142.794
485	143.054
485.2	141.693
485.5	142.915
485.7	142.515
486	142.696
486.2	141.53
486.5	143.477
486.7	143.163
487	145.091
487.2	144.001
487.5	146.094
487.7	146.958
488	145.822
488.2	145.819
488.5	146.539
488.7	145.83
489	145.283
489.2	145.087
489.5	146.018
489.7	145.506
489.9	144.83
490.2	144.981
490.4	145.638
490.7	146.15
490.9	145.211
491.2	142.869
491.4	144.6
491.7	146.43
491.9	147.395
492.2	146.501
492.4	144.434
492.7	145.743
492.9	148.134
493.2	148.232
493.4	147.591
493.6	146.105
493.9	146.286
494.1	143.673
494.4	143.348
494.6	141.942
494.9	140.565
495.1	138.366
495.4	136.718
495.6	137.438
495.9	138.66
496.1	139.879
496.4	140.554
496.6	142.021
496.9	145.509
497.1	145.592
497.3	145.43
497.6	146.381
497.8	148.24
498.1	147.587
498.3	147.01
498.6	146.384
498.8	146.418
499.1	146.328
499.3	145.596
499.6	147.161
499.8	147.463
500.1	146.599
500.3	145.189
500.6	143.918
500.8	142.168
501	144.069
501.3	143.635
501.5	142.134
501.8	143.122
502	145.902
502.3	145.434
502.5	145.053
502.8	145.762
503	147.433
503.3	146.305
503.5	143.356
503.8	143.797
504	142.594
504.2	142.956
504.5	140.614
504.7	141.157
505	140.825
505.2	141.67
505.5	141.802
505.7	141.987
506	141.432
506.2	143.058
506.5	142.688
506.7	140.508
506.9	139.784
507.2	138.585
507.4	136.005
507.7	137.868
507.9	137.963
508.2	139.392
508.4	139.298
508.7	138.317
508.9	137.94
509.2	138.204
509.4	139.479
509.7	138.566
509.9	139.426
510.1	140.086
510.4	139.369
510.6	137.276
510.9	139.475
511.1	141.146
511.4	140.44
511.6	140.984
511.9	138.74
512.1	136.563
512.4	136.711
512.6	136.801
512.8	134.44
513.1	131.913
513.3	131.532
513.6	130.789
513.8	130.175
514.1	129.341
514.3	129.217
514.6	129.243
514.8	128.511
515.1	129.258
515.3	127.591
515.5	128.093
515.8	127.437
516	127.342
516.3	126.067
516.5	126.139
516.8	125.619
517	123.269
517.3	122.017
517.5	121.715
517.7	121.84
518	120.576
518.2	119.426
518.5	117.189
518.7	116.115
519	114.844
519.2	113.995
519.5	114.312
519.7	113.806
520	112.803
520.2	112.52
520.4	114.327
520.7	116.707
520.9	117.133
521.2	117.684
521.4	116.126
521.7	118.807
521.9	118.962
522.2	117.148
522.4	119.053
522.6	119.713
522.9	120.09
523.1	119.32
523.4	120.161
523.6	119.637
523.9	121.485
524.1	121.938
524.4	121.598
524.6	121.033
524.8	120.305
525.1	119.441
525.3	120.373
525.6	122.85
525.8	125.389
526.1	126.101
526.3	127.293
526.6	126.105
526.8	125.155
527	127.365
527.3	127.836
527.5	127.535
527.8	127.701
528	126.418
528.3	127.38
528.5	126.705
528.8	126.396
529	126.264
529.2	127.357
529.5	126.584
529.7	129.137
530	128.097
530.2	128.379
530.5	126.505
530.7	126.448
531	124.887
531.2	126.509
531.4	125.935
531.7	127.765
531.9	127.591
532.2	128.975
532.4	129.616
532.7	130.574
532.9	129.42
533.2	127.723
533.4	126.573
533.6	125.641
533.9	124.136
534.1	123.978
534.4	125.094
534.6	125.234
534.9	125.125
535.1	124.8
535.3	123.91
535.6	125.185
535.8	121.836
536.1	122.994
536.3	123.262
536.6	125.438
536.8	123.344
537.1	124.404
537.3	122.436
537.5	122.387
537.8	122.36
538	123.763
538.3	122.266
538.5	121.059
538.8	119.652
539	118.411
539.2	116.99
539.5	117.189
539.7	118.068
540	117.676
540.2	118.592
540.5	118.721
540.7	119.305
540.9	119.256
541.2	119.92
541.4	122.986
541.7	126.595
541.9	127.037
542.2	124.834
542.4	124.359
542.7	124.182
542.9	125.713
543.1	125.019
543.4	128.029
543.6	127.629
543.9	127.821
544.1	127.093
544.4	126.709
544.6	125.996
544.8	127.21
545.1	126.456
545.3	124.996
545.6	125.208
545.8	126.418
546.1	127.033
546.3	127.833
546.5	128.919
546.8	130.103
547	130.412
547.3	129.616
547.5	129.907
547.8	128.666
548	128.598
548.2	129.073
548.5	126.637
548.7	126.867
549	123.548
549.2	123.507
549.5	122.515
549.7	122.107
549.9	122.311
550.2	122.307
550.4	121.168
550.7	120.821
550.9	117.344
551.2	117.589
551.4	116.45
551.6	115.824
551.9	115.979
552.1	115.44
552.4	115.402
552.6	113.558
552.9	115.621
553.1	114.976
553.3	115.1
553.6	114.81
553.8	113.026
554.1	113.912
554.3	111.898
554.5	111.283
554.8	109.722
555	108.251
555.3	106.905
555.5	106.792
555.8	104.815
556	106.06
556.2	103.378
556.5	104.499
556.7	101.685
557	102.598
557.2	102.266
557.5	103.047
557.7	104.48
557.9	103.114
558.2	102.398
558.4	104.747
558.7	102.447
558.9	103.624
559.2	103.194
559.4	102.854
559.6	104.306
559.9	104.246
560.1	104.257
560.4	104.785
560.6	105.042
560.8	104.619
561.1	103.782
561.3	106.298
561.6	104.838
561.8	104.902
562.1	103.869
562.3	104.091
562.5	105
562.8	106.558
563	104.589
563.3	106.92
563.5	107.323
563.7	108.014
564	106.362
564.2	105.841
564.5	104.517
564.7	105.996
565	106.09
565.2	104.114
565.4	105.06
565.7	107.478
565.9	105.788
566.2	106.916
566.4	105.883
566.6	107.946
566.9	109.066
567.1	109.537
567.4	108.41
567.6	109.722
567.9	107.972
568.1	108.798
568.3	108.523
568.6	109.96
568.8	109.469
569.1	108.334
569.3	107.64
569.5	108.443
569.8	110.314
570	110.133
570.3	110.801
570.5	112.864
570.7	111.502
571	112.377
571.2	113.901
571.5	114.029
571.7	114.787
572	115.734
572.2	114.753
572.4	115.964
572.7	117.932
572.9	119.694
573.2	118.574
573.4	117.797
573.6	117.936
573.9	118.483
574.1	117.303
574.4	114.881
574.6	115.805
574.8	115.658
575.1	116.273
575.3	117.337
575.6	117.51
575.8	117.974
576	118.083
576.3	117.627
576.5	122.247
576.8	125.841
577	128.387
577.3	129.567
577.5	130.978
577.7	131.808
578	133.267
578.2	135.24
578.5	135.066
578.7	136.831
578.9	140.143
579.2	141.214
579.4	142.145
579.7	143.665
579.9	144.11
580.1	144.962
580.4	146.075
580.6	147.791
580.9	152.434
581.1	154.417
581.3	157.371
581.6	157.397
581.8	161.598
582.1	162.179
582.3	165.166
582.5	167.882
582.8	170.737
583	174.263
583.3	178.547
583.5	180.437
583.7	184.133
584	184.084
584.2	185.408
584.5	186.358
584.7	187.848
584.9	189.624
585.2	190.703
585.4	192.864
585.7	193.897
585.9	195.078
586.1	196.462
586.4	196.903
586.6	199.535
586.9	199.95
587.1	201.376
587.3	202.609
587.6	204.8
587.8	205.917
588.1	207.557
588.3	207.712
588.5	209.032
588.8	209.764
589	212.928
589.3	213.822
589.5	215.564
589.7	219.419
590	220.814
590.2	222.775
590.5	222.949
590.7	223.394
590.9	226.377
591.2	227.452
591.4	228.862
591.7	232.826
591.9	236.858
592.1	239.683
592.4	243.45
592.6	245.657
592.9	247.946
593.1	252.027
593.3	256.077
593.6	258.28
593.8	262.345
594.1	265.675
594.3	270.729
594.5	273.999
594.8	277.069
595	281.395
595.3	285.781
595.5	291.34
595.7	295.79
596	300.49
596.2	303.571
596.4	310.816
596.7	315.538
596.9	319.694
597.2	320.69
597.4	325.257
597.6	328.07
597.9	331.389
598.1	335.568
598.4	339.924
598.6	345.117
598.8	349.549
599.1	350.318
599.3	353.249
599.6	356.266
599.8	359.996
600	365.536
600.3	369.537
600.5	371.37
600.7	375.346
601	380.192
601.2	382.768
601.5	385.623
601.7	388.772
601.9	392.483
602.2	396.138
602.4	397.424
602.7	398.906
602.9	401.056
603.1	403.96
603.4	406.068
603.6	409.828
603.9	409.251
604.1	411.035
604.3	413.181
604.6	415.602
604.8	417.544
605	419.773
605.3	420.686
605.5	422.002
605.8	421.501
606	422.244
606.2	423.186
606.5	424.774
606.7	423.737
607	423.428
607.2	421.87
607.4	419.102
607.7	418.227
607.9	417.967
608.1	419.177
608.4	418.676
608.6	418.329
608.9	417.329
609.1	416.609
609.3	415.176
609.6	414.64
609.8	415.444
610.1	415.383
610.3	411.182
610.5	409.274
610.8	408.127
611	406.271
611.2	405.385
611.5	404.069
611.7	402.183
612	401.987
612.2	399.264
612.4	397.476
612.7	397.126
612.9	396.877
613.1	395.293
613.4	393.916
613.6	391.71
613.9	390.182
614.1	389.134
614.3	388.719
614.6	389.142
614.8	390.148
615	389.613
615.3	390.133
615.5	388.504
615.8	386.215
616	386.23
616.2	385.883
616.5	386.422
616.7	387.06
616.9	386.253
617.2	385.215
617.4	385.227
617.7	386.75
617.9	385.706
618.1	383.895
618.4	382.998
618.6	380.916
618.8	381.614
619.1	382.681
619.3	382.029
619.6	381.444
619.8	380.829
620	379.505
620.3	377.914
620.5	379.113
620.7	377.133
621	376.473
621.2	375.191
621.5	375.017
621.7	376.051
621.9	374.991
622.2	373.098
622.4	373.151
622.6	372.502
622.9	370.322
623.1	370.978
623.4	368.47
623.6	367.799
623.8	366.86
624.1	364.85
624.3	364.77
624.5	363.635
624.8	362.383
625	360.241
625.3	360.067
625.5	360.705
625.7	360.912
626	359.404
626.2	357.393
626.4	355.689
626.7	353.973
626.9	354.504
627.1	353.905
627.4	353.105
627.6	352.268
627.9	350.544
628.1	350.642
628.3	349.798
628.6	349.658
628.8	349.892
629	347.814
629.3	348.153
629.5	348.859
629.8	345.781
630	345.114
630.2	343.315
630.5	342.858
630.7	342.832
630.9	342.36
631.2	340.294
631.4	340.007
631.6	338.087
631.9	336.243
632.1	334.9
632.4	336.096
632.6	336.296
632.8	335.093
633.1	334.354
633.3	336.39
633.5	335.07
633.8	334.323
634	335.266
634.2	334.523
634.5	333.562
634.7	335.074
635	333.871
635.2	333.724
635.4	334.131
635.7	336.262
635.9	335.462
636.1	335.538
636.4	334.848
636.6	331.804
636.8	331.178
637.1	333
637.3	332.419
637.5	332.291
637.8	330.91
638	330.989
638.3	329.447
638.5	330.273
638.7	328.557
639	330.201
639.2	331.076
639.4	329.85
639.7	329.002
639.9	326.909
640.1	329.421
640.4	330.175
640.6	327.546
640.9	329.16
641.1	328.938
641.3	327.535
641.6	326.841
641.8	326.724
642	323.812
642.3	323.081
642.5	322.308
642.7	318.506
643	317.348
643.2	315.066
643.4	312.536
643.7	311.996
643.9	311.129
644.1	308.674
644.4	307.825
644.6	305.872
644.9	306.283
645.1	305.66
645.3	304.042
645.6	303.073
645.8	300.094
646	300.735
646.3	297.012
646.5	294.761
646.7	295.168
647	292.717
647.2	291.94
647.4	288.417
647.7	285.702
647.9	285.823
648.1	284.28
648.4	281.919
648.6	280.837
648.9	279.509
649.1	279.875
649.3	280.629
649.6	280.026
649.8	279.121
650	280.011
650.3	276.254
650.5	277.08
650.7	275.549
651	273.795
651.2	275.149
651.4	274.41
651.7	271.359
651.9	270.793
652.1	269.801
652.4	268.945
652.6	269.134
652.8	269.036
653.1	268.123
653.3	266.513
653.5	265.773
653.8	264.352
654	264.084
654.3	262.82
654.5	262.47
654.7	259.95
655	258.453
655.2	256.952
655.4	254.757
655.7	256.005
655.9	257.069
656.1	258.008
656.4	255.624
656.6	254.116
656.8	259.2
657.1	260.561
657.3	259.502
657.5	259.268
657.8	259.796
658	260.418
658.2	260.814
658.5	259.143
658.7	260.011
658.9	260.957
659.2	259.539
659.4	257.899
659.6	257.589
659.9	257.359
660.1	255.406
660.3	255.922
660.6	255.372
660.8	256.141
661	256.02
661.3	254.327
661.5	253.667
661.8	252.935
662	252.758
662.2	252.687
662.5	252.223
662.7	252.939
662.9	250.612
663.2	249.579
663.4	245.343
663.6	244.216
663.9	245.298
664.1	238.585
664.3	237.02
664.6	236.941
664.8	235.821
665	234.474
665.3	234.689
665.5	234.082
665.7	234.991
666	233.897
666.2	232.377
666.4	233.362
666.7	233.079
666.9	231.517
667.1	229.737
667.4	230.635
667.6	229.447
667.8	228.711
668.1	227.406
668.3	227.87
668.5	227.821
668.8	227.874
669	226.716
669.2	229.541
669.5	229.496
669.7	229.179
669.9	227.003
670.2	226.234
670.4	224.68
670.6	225.487
670.9	226.173
671.1	222.979
671.3	223.205
671.6	220.799
671.8	220.652
672	221.825
672.3	221.881
672.5	221.802
672.7	219.777
673	219.23
673.2	218.031
673.4	219.811
673.7	218.86
673.9	218.438
674.1	217.646
674.4	217.42
674.6	216.439
674.8	216.156
675.1	215.606
675.3	214.459
675.5	214.263
675.8	213.248
676	213.377
676.2	214.602
676.5	211.359
676.7	212.083
676.9	211.216
677.2	211.031
677.4	210.491
677.6	209.601
677.9	209.3
678.1	207.851
678.3	209.273
678.5	207.565
678.8	206.822
679	206.151
679.2	205.713
679.5	205.992
679.7	203.065
679.9	204.691
680.2	202.285
680.4	204.382
680.6	201.187
680.9	200.874
681.1	200.361
681.3	202.002
681.6	201.01
681.8	201.47
682	200.003
682.3	201.153
682.5	202.077
682.7	199.792
683	197.631
683.2	195.492
683.4	192.992
683.7	189.948
683.9	189.024
684.1	188.425
684.4	187.833
684.6	186.35
684.8	183.16
685.1	181.172
685.3	179.038
685.5	177.604
685.7	176.563
686	176.19
686.2	174.644
686.4	172.924
686.7	168.73
686.9	167.998
687.1	164.597
687.4	163.292
687.6	158.732
687.8	158.51
688.1	156.956
688.3	155.432
688.5	151.906
688.8	153.377
689	150.857
689.2	152.894
689.5	149.62
689.7	146.995
689.9	145.792
690.2	145.309
690.4	144.929
690.6	143.571
690.8	145.407
691.1	142.696
691.3	140.735
691.5	139.566
691.8	138.89
692	141.244
692.2	143.295
692.5	142.994
692.7	142.319
692.9	142.722
693.2	141.417
693.4	140.757
693.6	139.49
693.9	140.901
694.1	140.923
694.3	142.164
694.5	143.092
694.8	143.22
695	142.311
695.2	141.044
695.5	140.61
695.7	140.999
695.9	140.188
696.2	139.532
696.4	137.186
696.6	137.159
696.9	137.325
697.1	140.622
697.3	142.832
697.6	143.145
697.8	143.186
698	143.62
698.2	143.484
698.5	145.257
698.7	145.849
698.9	146.988
699.2	147.376
699.4	144.355
699.6	145.441
699.9	143.593
700.1	142.832
700.3	144.121
700.6	144.857
700.8	146.011
701	145.917
701.2	145.853
701.5	145.011
701.7	144.687
701.9	144.204
702.2	146.015
702.4	147.897
702.6	148.609
702.9	148.138
703.1	145.751
703.3	147.572
703.6	148.489
703.8	148.368
704	148.617
704.2	144.902
704.5	144.072
704.7	144.299
704.9	144.951
705.2	143.906
705.4	145.143
705.6	144.099
705.9	144.182
706.1	144.819
706.3	142.903
706.5	142.681
706.8	142.398
707	143.254
707.2	144.223
707.5	142.439
707.7	141.131
707.9	140.478
708.2	138.736
708.4	138.027
708.6	137.876
708.8	136.499
709.1	136.812
709.3	134.61
709.5	132.988
709.8	132.505
710	134.225
710.2	133.935
710.5	132.562
710.7	130.593
710.9	131.08
711.1	130.54
711.4	130.77
711.6	129.243
711.8	129.281
712.1	128.711
712.3	128.327
712.5	127.24
712.8	127.904
713	125.807
713.2	122.507
713.4	121.832
713.7	121.225
713.9	119.675
714.1	120.425
714.4	118.328
714.6	116.348
714.8	113.757
715.1	111.638
715.3	111.566
715.5	109.198
715.7	107.176
716	104.921
716.2	102.662
716.4	101.564
716.7	99.897
716.9	99.607
717.1	95.436
717.3	95.394
717.6	94.006
717.8	92.705
718	90.299
718.3	88.228
718.5	87.606
718.7	87.723
718.9	86.177
719.2	83.816
719.4	82.545
719.6	79.611
719.9	77.65
720.1	77.74
720.3	76.91
720.6	74.485
720.8	73.573
721	73.508
721.2	70.842
721.5	69.911
721.7	69.963
721.9	70.801
722.2	70.201
722.4	69.443
722.6	71.144
722.8	71.857
723.1	73.897
723.3	75.055
723.5	74.021
723.8	74.116
724	71.155
724.2	70.978
724.4	71.34
724.7	72.901
724.9	73.49
725.1	73.607
725.4	75.092
725.6	73.022
725.8	71.498
726	70.34
726.3	69.496
726.5	69.251
726.7	69.76
727	66.852
727.2	65.396
727.4	66.539
727.6	67.259
727.9	68.315
728.1	66.799
728.3	66.671
728.6	67.829
728.8	69.02
729	67.64
729.2	69.65
729.5	70.129
729.7	69.99
729.9	70.212
730.2	69.522
730.4	69.899
730.6	71.012
730.8	70.902
731.1	73.335
731.3	74.764
731.5	73.063
731.7	70.567
732	70.359
732.2	70.68
732.4	69.699
732.7	71.178
732.9	70.831
733.1	70.51
733.3	71.238
733.6	72.17
733.8	73.082
734	78.83
734.3	80.414
734.5	82.65
734.7	84.246
734.9	82.564
735.2	85.4
735.4	86.233
735.6	85.743
735.9	86.565
736.1	88.719
736.3	88.915
736.5	88.658
736.8	88.376
737	87.176
737.2	86.769
737.4	84.936
737.7	85.166
737.9	87.433
738.1	86.901
738.4	87.176
738.6	87.542
738.8	88.036
739	86.991
739.3	87.093
739.5	86.479
739.7	86.686
739.9	89.854
740.2	91.261
740.4	90.861
740.6	89.503
740.9	89.171
741.1	86.72
741.3	84.887
741.5	82.632
741.8	82.149
742	83.605
742.2	83.476
742.4	82.801
742.7	83.997
742.9	83.518
743.1	81.968
743.4	80.173
743.6	79.977
743.8	79.984
744	81.553
744.3	82.126
744.5	82.647
744.7	82.926
744.9	81.783
745.2	83.254
745.4	81.93
745.6	82.345
745.8	82.764
746.1	84.408
746.3	86.709
746.5	89.379
746.8	88.285
747	86.301
747.2	87.425
747.4	89.858
747.7	90.148
747.9	91.404
748.1	89.601
748.3	91.974
748.6	92.098
748.8	90.156
749	89.228
749.2	87.546
749.5	87.501
749.7	86.633
749.9	86.064
750.2	88.274
750.4	88.481
750.6	88.696
750.8	87.802
751.1	86.494
751.3	84.789
751.5	86.188
751.7	86.859
752	86.294
752.2	85.472
752.4	85.204
752.6	84.121
752.9	83.552
753.1	81.534
753.3	80.719
753.5	78.97
753.8	79.871
754	79.543
754.2	79.049
754.4	77.687
754.7	78.079
754.9	76.597
755.1	77.533
755.4	76.284
755.6	77.325
755.8	78.513
756	77.321
756.3	75.402
756.5	73.833
756.7	71.053
756.9	69.273
757.2	65.709
757.4	63.842
757.6	59.818
757.8	57.114
758.1	56.503
758.3	56.122
758.5	53.358
758.7	49.345
759	45.834
759.2	44.585
759.4	43.016
759.6	42.688
759.9	40.614
760.1	40.482
760.3	36.488
760.5	34.915
760.8	32.618
761	31.506
761.2	29.345
761.4	28.466
761.7	27.195
761.9	27.116
762.1	25.332
762.3	23.454
762.6	19.648
762.8	18.404
763	17.646
763.2	20.24
763.5	20.934
763.7	21.093
763.9	22.488
764.1	22.601
764.4	23.099
764.6	25.732
764.8	28.33
765	27.459
765.3	27.286
765.5	27.674
765.7	29.032
765.9	30.751
766.2	30.865
766.4	33.037
766.6	31.898
766.8	33.429
767.1	33.497
767.3	34.881
767.5	35.907
767.7	37.714
768	37.431
768.2	37.842
768.4	38.249
768.6	37.476
768.9	36.329
769.1	38.057
769.3	39.799
769.5	40.908
769.8	42.503
770	44.581
770.2	43.209
770.4	44.559
770.7	46.071
770.9	45.732
771.1	46.505
771.3	47.402
771.6	47.108
771.8	47.531
772	47.84
772.2	47.391
772.5	48.432
772.7	48.685
772.9	47.953
773.1	46.614
773.4	47.493
773.6	49.371
773.8	47.851
774	47.821
774.3	47.84
774.5	46.467
774.7	44.887
774.9	44.702
775.2	45.351
775.4	45.332
775.6	45.355
775.8	45.883
776	45.449
776.3	44.608
776.5	44.359
776.7	43.887
776.9	43.82
777.2	43.401
777.4	41.787
777.6	40.508
777.8	40.422
778.1	40.546
778.3	39.95
778.5	39.083
778.7	39.007
779	38.106
779.2	39.083
779.4	38.4
779.6	38.366
779.9	37.642
780.1	38.155
780.3	35.764
780.5	33.112
780.7	33.527
781	34.862
781.2	35.085
781.4	34.006
781.6	34.783
781.9	35.036
782.1	33.003
782.3	32.818
782.5	32.053
782.8	31.283
783	32.675
783.2	31.593
783.4	31.4
783.7	30.084
783.9	28.421
784.1	27.482
784.3	26.957
784.5	26.105
784.8	23.718
785	22.334
785.2	21.131
785.4	20.923
785.7	19.324
785.9	21.134
786.1	20.75
786.3	20.335
786.6	20.727
786.8	22.168
787	21.885
787.2	22.59
787.4	23.276
787.7	23.974
787.9	23.054
788.1	23.635
788.3	24.74
788.6	23.51
788.8	21.444
789	20.327
789.2	18.932
789.5	18.611
789.7	17.412
789.9	15.149
790.1	14.58
790.3	14.021
790.6	14.206
790.8	14.451
791	14.681
791.2	15.866
791.5	18.438
791.7	19.999
791.9	20.342
792.1	20.708
792.3	20.399
792.6	19.418
792.8	17.061
793	18.426
793.2	19.399
793.5	18.781
793.7	18.358
793.9	17.721
794.1	16.846
794.3	16.865
794.6	17.499
794.8	16.186
795	15.937
795.2	14.776
795.5	15.956
795.7	16.386
795.9	18.276
796.1	17.374
796.3	17.876
796.6	19.984
796.8	19.565
797	21.945
797.2	23.771
797.5	24.755
797.7	25.306
797.9	23.993
798.1	23.993
798.3	31.034
798.6	31.479
798.8	33.58
799	33.912
799.2	34.942
799.5	35.881
799.7	36.974
799.9	35.387
800.1	33.237
800.3	33.075
800.6	33.61
800.8	34.67
801	34.972
801.2	34.742
801.5	34.606
801.7	33.542
801.9	32.6
802.1	33.795
802.3	33.267
802.6	32.924
802.8	31.408
803	32.928
803.2	33.882
803.4	32.796
803.7	34.353
803.9	32.871
804.1	32.4
804.3	31.758
804.6	31.434
804.8	33.071
805	30.623
805.2	20.98
805.4	19.422
805.7	17.766
805.9	17.302
806.1	17.08
806.3	16.971
806.5	17.099
806.8	15.315
807	15.801
807.2	15.183
807.4	14.53
807.6	11.555
807.9	10.186
808.1	10.08
808.3	9.447
808.5	12.63
808.8	13.573
809	12.528
809.2	14.108
809.4	14.911
809.6	14.681
809.9	13.561
810.1	12.758
810.3	13.825
810.5	13.35
810.7	11.781
811	10.19
811.2	9.654
811.4	9.876
811.6	9.364
811.8	10.548
812.1	11.37
812.3	12.049
812.5	11.4
812.7	10.687
812.9	11
813.2	11.819
813.4	9.771
813.6	11.332
813.8	11.336
814	10.714
814.3	10.31
814.5	13.101
814.7	12.867
814.9	11.766
815.2	11.555
815.4	9.635
815.6	8.877
815.8	8.059
816	6.377
816.3	6.041
816.5	5.377
816.7	5.935
816.9	5.984
817.1	4.966
817.4	3.133
817.6	4.05
817.8	3.782
818	2.865
818.2	1.394
818.5	-0.005
818.7	-1.34
818.9	-2.75
819.1	-1.638
819.3	-1.295
819.6	0.791
819.8	1.526
820	0.206
820.2	0.173
820.4	-0.291
820.7	-0.401
820.9	1.625
821.1	2.122
821.3	-0.031
821.5	1.643
821.8	3.001
822	1.93
822.2	2.797
822.4	1.749
822.6	2.492
822.9	2.247
823.1	1.187
823.3	1.926
823.5	0.693
823.7	1.304
823.9	0.437
824.2	0.176
824.4	-0.484
824.6	1.342
824.8	1.142
825	2.039
825.3	2.439
825.5	4.351
825.7	5.641
825.9	4.151
826.1	2.99
826.4	1.772
826.6	-0.461
826.8	-1.151
827	-0.457
827.2	-0.178
827.5	0.52
827.7	0.335
827.9	0.542
828.1	1.949
828.3	1.051
828.6	1.161
828.8	1.922
829	0.112
829.2	0.704
829.4	2.107
829.6	2.545
829.9	4.125
830.1	3.778
830.3	4.17
830.5	3.22
830.7	3.45
831	4.314
831.2	4.363
831.4	2.556
831.6	2.628
831.8	2.692
832.1	3.288
832.3	2.586
832.5	3.028
832.7	2.435
832.9	3.318
833.1	3.314
833.4	4.4
833.6	6.365
833.8	7.602
834	7.323
834.2	7.421
834.5	6.275
834.7	4.216
834.9	3.371
835.1	3.182
835.3	2.65
835.5	2.254
835.8	2.748
836	3.235
836.2	1.749
836.4	2.579
836.6	1.847
836.9	1.534
837.1	2.473
837.3	3.175
837.5	2.696
837.7	2.07
837.9	1.828
838.2	4.004
838.4	3.827
838.6	4.879
838.8	4.872
839	4.589
839.3	4.838
839.5	6.09
839.7	5.773
839.9	5.426
840.1	4.623
840.3	6.03
840.6	4.434
840.8	5.845
841	5.275
841.2	6.048
841.4	7.606
841.7	8.296
841.9	8.3
842.1	7.757
842.3	8.489
842.5	9.058
842.7	9.458
843	8.96
843.2	7.614
843.4	9.579
843.6	9.899
843.8	10.223
844	9.707
844.3	10.061
844.5	9.922
844.7	9.59
844.9	8.756
845.1	8.511
845.4	7.406
845.6	7.433
845.8	9.288
846	7.455
846.2	5.86
846.4	6.426
846.7	7.014
846.9	8.096
847.1	6.758
847.3	7.934
847.5	6.607
847.7	6.818
848	5.211
848.2	4.762
848.4	5.008
848.6	4.83
848.8	4.513
849	3.356
849.3	3.163
849.5	2.835
849.7	2.462
849.9	1.127
850.1	-2.007
850.3	-0.808
850.6	-1.981
850.8	-3.139
851	-4.64
851.2	-5.115
851.4	-4.7
851.6	-6.322
851.9	-6.748
852.1	-6.288
852.3	-8.328
852.5	-9.524
852.7	-8.392
852.9	-6.933
853.2	-5.881
853.4	-6.774
853.6	-8.061
853.8	-9.441
854	-11.764
854.2	-10.124
854.5	-10.508
854.7	-9.886
854.9	-9.607
855.1	-10.214
855.3	-10.052
855.5	-8.626
855.8	-9.117
856	-10.712
856.2	-12.473
856.4	-10.112
856.6	-9.528
856.8	-9.083
857.1	-7.555
857.3	-8.091
857.5	-7.472
857.7	-4.372
857.9	-3.814
858.1	-2.611
858.4	-3.229
858.6	-2.894
858.8	-4.104
859	-3.048
859.2	-4.934
859.4	-5.383
859.7	-5.749
859.9	-7.344
860.1	-7.834
860.3	-8.226
860.5	-7.989
860.7	-6.601
860.9	-8.626
861.2	-8.641
861.4	-8.543
861.6	-8.328
861.8	-7.834
862	-7.672
862.2	-8.102
862.5	-7.759
862.7	-6.997
862.9	-6.541
863.1	-7.061
863.3	-5.933
863.5	-4.87
863.8	-7.6
864	-5.817
864.2	-4.338
864.4	-5.971
864.6	-6.684
864.8	-7.895
865	-6.548
865.3	-5.206
865.5	-5.032
865.7	-3.271
865.9	-2.271
866.1	-3.38
866.3	-3.833
866.6	-2.743
866.8	-3.048
867	-3.791
867.2	-4.5
867.4	-4.723
867.6	-3.769
867.8	-4.127
868.1	-4.742
868.3	-5.085
868.5	-5.696
868.7	-6.473
868.9	-6.48
869.1	-4.915
869.3	-4.53
869.6	-5.447
869.8	-5.718
870	-6.175
870.2	-6.752
870.4	-7.242
870.6	-8.061
870.9	-9.833
871.1	-10.923
871.3	-10.161
871.5	-10.927
871.7	-9.573
871.9	-11.168
872.1	-11.847
872.4	-14.216
872.6	-14.717
872.8	-12.839
873	-12.809
873.2	-13.522
873.4	-11.949
873.6	-10.474
873.9	-10.025
874.1	-10.599
874.3	-12.202
874.5	-12.628
874.7	-13.325
874.9	-13.657
875.1	-13.288
875.4	-13.401
875.6	-14.363
875.8	-14.985
876	-13.488
876.2	-11.545
876.4	-13.469
876.6	-13.495
876.9	-13.408
877.1	-12.439
877.3	-13.488
877.5	-14.544
877.7	-12.613
877.9	-11.821
878.1	-13.122
878.4	-14.664
878.6	-13.835
878.8	-13.401
879	-13.318
879.2	-12.066
879.4	-14.295
879.6	-13.363
879.9	-13.827
880.1	-13.129
880.3	-13.397
880.5	-12.171
880.7	-10.569
880.9	-9.965
881.1	-8.8
881.3	-7.336
881.6	-8.106
881.8	-9.641
882	-8.973
882.2	-6.616
882.4	-6.846
882.6	-7.902
882.8	-8.841
883.1	-8.038
883.3	-8.973
883.5	-9.132
883.7	-7.996
883.9	-7.883
884.1	-7.408
884.3	-9.833
884.6	-10.81
884.8	-7.468
885	-7.68
885.2	-8.268
885.4	-8.208
885.6	-6.876
885.8	-5.85
886	-3.976
886.3	-4.994
886.5	-5.198
886.7	-6.469
886.9	-5.56
887.1	-7.174
887.3	-9.411
887.5	-9.215
887.8	-8.951
888	-11.229
888.2	-9.52
888.4	-8.985
888.6	-8.804
888.8	-10.493
889	-9.739
889.2	-11.447
889.5	-12.609
889.7	-12.266
889.9	-9.682
890.1	-10.082
890.3	-11.428
890.5	-10.478
890.7	-9.562
890.9	-8.698
891.2	-8.577
891.4	-10.357
891.6	-10.044
891.8	-9.162
892	-9.961
892.2	-10.357
892.4	-12.99
892.6	-14.019
892.9	-14.589
893.1	-13.782
893.3	-12.5
893.5	-13.936
893.7	-13.507
893.9	-12.349
894.1	-12.477
894.3	-13.22
894.6	-12.285
894.8	-12.843
895	-11.666
895.2	-11.775
895.4	-11.244
895.6	-12.865
895.8	-11.266
896	-9.55
896.3	-9.452
896.5	-11.232
896.7	-10.124
896.9	-10.621
897.1	-11.089
897.3	-11.674
897.5	-10.618
897.7	-10.248
898	-8.713
898.2	-9.294
898.4	-10.652
898.6	-9.637
898.8	-10.101
899	-8.853
899.2	-7.401
899.4	-6.367
899.6	-6.733
899.9	-8.132
900.1	-6.122
900.3	-5.586
900.5	-4.097
900.7	-3.916
900.9	-5.334
901.1	-4.512
901.3	-5.405
901.6	-5.858
901.8	-5.496
902	-7.212
902.2	-7.8
902.4	-9.022
902.6	-10.063
902.8	-12.258
903	-12.884
903.2	-13.737
903.5	-13.507
903.7	-14.008
903.9	-14.046
904.1	-14.578
904.3	-14.208
904.5	-15.498
904.7	-13.985
904.9	-13.507
905.1	-13.552
905.4	-12.153
905.6	-13.465
905.8	-14.246
906	-14.8
906.2	-14.672
906.4	-14.619
906.6	-15.984
906.8	-14.084
907	-15.426
907.3	-15.943
907.5	-16.471
907.7	-16.871
907.9	-14.962
908.1	-15.69
908.3	-17.142
908.5	-15.762
908.7	-15.181
908.9	-15.6
909.2	-16.196
909.4	-13.85
909.6	-13.182
909.8	-14.759
910	-15.211
910.2	-13.714
910.4	-14.178
910.6	-13.537
910.8	-15.038
911.1	-12.19
911.3	-11.025
911.5	-11.131
911.7	-10.904
911.9	-11.044
912.1	-9.022
912.3	-9.92
912.5	-8.86
912.7	-9.03
912.9	-8.785
913.2	-8.46
913.4	-11.044
913.6	-9.852
913.8	-9.633
914	-6.805
914.2	-7.084
914.4	-7.28
914.6	-7.793
914.8	-7.099
915.1	-6.084
915.3	-5.488
915.5	-3.554
915.7	-3.109
915.9	-3.429
916.1	-4.372
916.3	-4.044
916.5	-3.327
916.7	-3.825
916.9	-1.592
917.2	-3.32
917.4	-1.973
917.6	-5.07
917.8	-6.944
918	-7.97
918.2	-8.358
918.4	-10.176
918.6	-11.41
918.8	-10.293
919	-10.655
919.2	-9.388
919.5	-8.023
919.7	-9.022
919.9	-9.414
920.1	-10.112
920.3	-10.025
920.5	-10.482
920.7	-9.671
920.9	-11.719
921.1	-10.931
921.3	-12.213
921.6	-14.306
921.8	-14.389
922	-16.135
922.2	-17.504
922.4	-17.561
922.6	-18.017
922.8	-16.154
923	-16.626
923.2	-17.557
923.4	-20.291
923.6	-18.964
923.9	-19.307
924.1	-18.696
924.3	-19.695
924.5	-18.202
924.7	-18.507
924.9	-16.773
925.1	-16.414
925.3	-16.143
925.5	-16.331
925.7	-17.674
925.9	-18.983
926.2	-18.198
926.4	-17.991
926.6	-17.436
926.8	-18.304
927	-19.085
927.2	-18.504
927.4	-18.206
927.6	-18.462
927.8	-16.124
928	-15.811
928.2	-15.626
928.5	-14.442
928.7	-13.82
928.9	-12.948
929.1	-11.361
929.3	-11.402
929.5	-10.553
929.7	-11.176
929.9	-10.086
930.1	-11.338
930.3	-11.855
930.5	-11.315
930.8	-9.128
931	-8.581
931.2	-9.064
931.4	-10.474
931.6	-9.999
931.8	-9.746
932	-9.848
932.2	-11.889
932.4	-13.035
932.6	-14.393
932.8	-15.588
933	-17.55
933.3	-17.572
933.5	-17.768
933.7	-19.085
933.9	-18.979
934.1	-18.127
934.3	-19.1
934.5	-18.79
934.7	-19.88
934.9	-20.212
935.1	-18.922
935.3	-18.968
935.5	-20.552
935.7	-21.445
936	-21.378
936.2	-21.178
936.4	-20.789
936.6	-20.091
936.8	-20.661
937	-20.823
937.2	-22.954
937.4	-23.392
937.6	-23.014
937.8	-22.222
938	-24.791
938.2	-25.828
938.4	-24.123
938.7	-21.483
938.9	-21.404
939.1	-20.687
939.3	-18.662
939.5	-17.485
939.7	-17.214
939.9	-17.353
940.1	-16.524
940.3	-15.668
940.5	-16.218
940.7	-16.26
940.9	-15.807
941.1	-15.26
941.4	-15.456
941.6	-16.007
941.8	-17.161
942	-15.784
942.2	-15.977
942.4	-15.649
942.6	-13.382
942.8	-13.446
943	-13.197
943.2	-12.288
943.4	-13.043
943.6	-11.579
943.8	-12.601
944	-12.892
944.3	-13.141
944.5	-12.567
944.7	-10.87
944.9	-12.315
945.1	-11.142
945.3	-10.09
945.5	-9.286
945.7	-9.003
945.9	-9.475
946.1	-8.517
946.3	-9.599
946.5	-10.908
946.7	-11.357
946.9	-10.471
947.1	-10.546
947.4	-11.134
947.6	-11.493
947.8	-11.274
948	-11.036
948.2	-9.935
948.4	-10.9
948.6	-10.369
948.8	-10.927
949	-12.545
949.2	-12.428
949.4	-12.703
949.6	-13.484
949.8	-12.371
950	-13.495
950.2	-10.833
950.5	-10.305
950.7	-11.312
950.9	-10.037
951.1	-12.684
951.3	-11.542
951.5	-14.016
951.7	-15.845
951.9	-16.037
952.1	-16.618
952.3	-15.841
952.5	-16.222
952.7	-14.121
952.9	-13.344
953.1	-14.574
953.3	-15.962
953.5	-16.282
953.8	-15.362
954	-14.106
954.2	-15.381
954.4	-15.456
954.6	-16.222
954.8	-16.188
955	-16.056
955.2	-14.657
955.4	-15.23
955.6	-16.18
955.8	-15.207
956	-14.461
956.2	-14.977
956.4	-14.321
956.6	-16.403
956.8	-16.18
957	-15.441
957.2	-15.294
957.5	-14.962
957.7	-15.698
957.9	-14.819
958.1	-13.955
958.3	-14.778
958.5	-15.52
958.7	-16.392
958.9	-16.384
959.1	-16.935
959.3	-16.131
959.5	-16.128
959.7	-15.245
959.9	-15.128
960.1	-15.728
960.3	-15.256
960.5	-13.099
960.7	-12.575
960.9	-11.836
961.1	-11.791
961.4	-12.273
961.6	-15.358
961.8	-15.106
962	-14.943
962.2	-14.238
962.4	-16.69
962.6	-16.527
962.8	-17.368
963	-18.13
963.2	-18.9
963.4	-18.847
963.6	-20.367
963.8	-20.774
964	-22.566
964.2	-23.893
964.4	-22.452
964.6	-21.404
964.8	-20.48
965	-20.446
965.2	-21.442
965.5	-21.664
965.7	-20.857
965.9	-20.469
966.1	-21.683
966.3	-20.337
966.5	-17.979
966.7	-20.676
966.9	-20.982
967.1	-22.015
967.3	-22.317
967.5	-20.612
967.7	-20.729
967.9	-19.156
968.1	-17.063
968.3	-14.762
968.5	-15.996
968.7	-13.548
968.9	-12.847
969.1	-12.413
969.3	-10.282
969.5	-9.712
969.7	-8.634
969.9	-7.072
970.2	-5.726
970.4	-4.757
970.6	-4.368
970.8	-4.817
971	-3.754
971.2	-3.689
971.4	-3.237
971.6	-2.494
971.8	-2.528
972	-4.282
972.2	-2.241
972.4	-1.815
972.6	-4.134
972.8	-5.473
973	-4.832
973.2	-4.983
973.4	-4.568
973.6	-5.602
973.8	-6.906
974	-7.204
974.2	-7.517
974.4	-10.297
974.6	-12.258
974.8	-10.957
975	-11.745
975.2	-13.299
975.5	-13.589
975.7	-12.971
975.9	-12.1
976.1	-13.212
976.3	-14.381
976.5	-13.978
976.7	-14.227
976.9	-12.839
977.1	-14.317
977.3	-15.23
977.5	-16.539
977.7	-17.252
977.9	-16.252
978.1	-16.561
978.3	-15.558
978.5	-17.131
978.7	-16.124
978.9	-14.348
979.1	-13.914
979.3	-12.963
979.5	-13.25
979.7	-13.582
979.9	-12.405
980.1	-13.058
980.3	-12.669
980.5	-12.782
980.7	-10.844
980.9	-9.147
981.1	-10.938
981.3	-9.86
981.5	-9.426
981.7	-10.157
981.9	-11.655
982.2	-11.515
982.4	-11.081
982.6	-8.822
982.8	-10.817
983	-11.489
983.2	-12.586
983.4	-12.107
983.6	-11.768
983.8	-9.871
984	-8.743
984.2	-8.604
984.4	-7.676
984.6	-9.709
984.8	-9.961
985	-9.358
985.2	-8.977
985.4	-10.821
985.6	-12.424
985.8	-12.009
986	-10.867
986.2	-10.493
986.4	-10.587
986.6	-9.064
986.8	-9.135
987	-8.781
987.2	-9.596
987.4	-9.773
987.6	-9.396
987.8	-9.109
988	-8.317
988.2	-9.697
988.4	-10.278
988.6	-10.9
988.8	-13.793
989	-12.33
989.2	-12.435
989.4	-11.161
989.6	-10.889
989.8	-11.538
990	-11.866
990.2	-12.782
990.4	-14.381
990.6	-13.771
990.8	-11.738
991	-10.972
991.3	-12.164
991.5	-13.193
991.7	-14.068
991.9	-13.231
992.1	-13.948
992.3	-13.337
992.5	-14.155
992.7	-13.265
992.9	-14.351
993.1	-13.397
993.3	-14.736
993.5	-15.234
993.7	-14.182
993.9	-14.359
994.1	-14.932
994.3	-14.555
994.5	-13.201
994.7	-12.269
994.9	-11.1
995.1	-10.735
995.3	-9.731
995.5	-9.056
995.7	-10.007
995.9	-8.951
996.1	-9.399
996.3	-11.557
996.5	-11.802
996.7	-12.549
996.9	-13.797
997.1	-15.622
997.3	-17.304
997.5	-17.863
997.7	-17.761
997.9	-16.863
998.1	-14.608
998.3	-14.751
998.5	-15.294
998.7	-15.358
998.9	-14.762
999.1	-14.661
999.3	-15.249
999.5	-15.807
999.7	-17.433
999.9	-18.409
1000.1	-19.899
1000.3	-18.926
1000.5	-18.994
1000.7	-19.085
1000.9	-19.918
1001.1	-20.141
1001.3	-19.217
1001.5	-21.076
1001.7	-21.076
1001.9	-21.374
1002.1	-21.898
1002.3	-21.747
1002.5	-21.845
1002.7	-21.464
1002.9	-20.868
1003.1	-21.083
1003.3	-20.857
1003.5	-18.696
1003.7	-18.677
1003.9	-17.108
1004.1	-16.422
1004.3	-17.316
1004.5	-16.241
1004.7	-16.908
1004.9	-17.357
1005.1	-17.248
1005.3	-17.38
1005.5	-18.673
1005.7	-16.09
1005.9	-15.871
1006.1	-14.638
1006.3	-14.185
1006.5	-14.864
1006.7	-14.283
1006.9	-14.084
1007.1	-14.83
1007.3	-15.811
1007.5	-15.438
1007.7	-15.207
1007.9	-16.509
1008.1	-16.539
1008.3	-16.931
1008.5	-15.652
1008.7	-11.632
1008.9	-11.741
1009.1	-9.55
1009.3	-10.508
1009.5	-9.211
1009.7	-10.206
1009.9	-9.166
1010.1	-11.3
1010.3	-9.803
1010.5	-11.123
1010.7	-12.334
1010.9	-12.779
1011.1	-12.398
1011.3	-13.216
1011.5	-13.631
1011.7	-13.103
1011.9	-14.084
1012.1	-11.953
1012.3	-12.454
1012.5	-12.405
1012.7	-12.688
1012.9	-13.457
1013.1	-14.559
1013.3	-13.175
1013.5	-12.36
1013.7	-11.817
1013.9	-12.764
1014.1	-11.379
1014.3	-11.99
1014.5	-12.511
1014.7	-13.043
1014.9	-16.505
1015.1	-16.162
1015.3	-18.292
1015.5	-18.417
1015.7	-19.405
1015.9	-18.515
1016.1	-19.778
1016.3	-17.293
1016.5	-19.62
1016.7	-18.915
1016.9	-19.386
1017.1	-20.48
1017.3	-21.065
1017.5	-20.389
1017.7	-20.02
1017.9	-19.492
1018.1	-19.99
1018.3	-21.604
1018.5	-22.196
1018.7	-21.321
1018.9	-20.88
1019.1	-22.479
1019.2	-23.082
1019.4	-24.278
1019.6	-24.647
1019.8	-25.662
1020	-24.331
1020.2	-24.5
1020.4	-21.589
1020.6	-21.819
1020.8	-23.625
1021	-22.034
1021.2	-22.403
1021.4	-21.117
1021.6	-18.462
1021.8	-17.896
1022	-19.269
1022.2	-18.111
1022.4	-18.13
1022.6	-18.523
1022.8	-18.941
1023	-18.994
1023.2	-16.78
1023.4	-16.724
1023.6	-17.93
1023.8	-14.755
1024	-14.943
1024.2	-16.72
1024.4	-15.505
1024.6	-15.396
1024.8	-17.15
1025	-16.094
1025.2	-15.619
1025.4	-13.25
1025.6	-13.209
1025.8	-13.156
1026	-12.349
1026.2	-12.394
1026.4	-12.451
1026.6	-13.397
1026.8	-11.477
1027	-11.04
1027.2	-10.685
1027.4	-10.923
1027.6	-10.851
1027.8	-13.589
1028	-14.253
1028.1	-12.394
1028.3	-13.378
1028.5	-14.348
1028.7	-14.393
1028.9	-15.588
1029.1	-15.543
1029.3	-15.883
1029.5	-15.909
1029.7	-15.754
1029.9	-18.843
1030.1	-17.033
1030.3	-15.788
1030.5	-14.91
1030.7	-14.378
1030.9	-12.579
1031.1	-13.812
1031.3	-13.786
1031.5	-14.453
1031.7	-14.415
1031.9	-14.54
1032.1	-14.638
1032.3	-15.954
1032.5	-16.588
1032.7	-18.643
1032.9	-20.503
1033.1	-19.971
1033.3	-20.25
1033.5	-19.582
1033.7	-20.706
1033.9	-19.771
1034.1	-19.352
1034.3	-17.832
1034.4	-18.017
1034.6	-18.971
1034.8	-16.95
1035	-15.189
1035.2	-14.845
1035.4	-14.453
1035.6	-14.129
1035.8	-14.287
1036	-14.54
1036.2	-16.788
1036.4	-16.58
1036.6	-17.7
1036.8	-19.017
1037	-19.111
1037.2	-20.016
1037.4	-20.706
1037.6	-21.276
1037.8	-20.431
1038	-21.053
1038.2	-21.626
1038.4	-21.483
1038.6	-20.469
1038.8	-19.401
1039	-17.606
1039.2	-17.64
1039.4	-17.942
1039.5	-17.127
1039.7	-16.667
1039.9	-15.449
1040.1	-16.147
1040.3	-17.998
1040.5	-16.226
1040.7	-16.162
1040.9	-17.497
1041.1	-19.582
1041.3	-19.861
1041.5	-21.638
1041.7	-21.487
1041.9	-21.336
1042.1	-21.608
1042.3	-21.227
1042.5	-21.409
1042.7	-21.826
1042.9	-21.041
1043.1	-21.856
1043.3	-20.935
1043.5	-19.126
1043.7	-18.726
1043.8	-19.724
1044	-18.682
1044.2	-18.688
1044.4	-17.21
1044.6	-17.557
1044.8	-17.761
1045	-19.551
1045.2	-19.81
