Data from mesure_FLMT021711__20__42.txt Node

Date: Mon Nov 04 11:52:59 CET 2024
User: jordan.swietlicki
Spectrometer: FLMT02171
Trigger mode: 0
Integration Time (sec): 1.000000E-1
Scans to average: 15
Electric dark correction enabled: true
Nonlinearity correction enabled: false
Boxcar width: 15
XAxis mode: Wavelengths
Number of Pixels in Spectrum: 3648
>>>>>Begin Spectral Data<<<<<
194.7	-42.557
194.9	-40.08
195.2	-35.526
195.5	-35.07
195.7	-30.749
196	-30.246
196.2	-29.311
196.5	-31.024
196.8	-30.028
197	-28.816
197.3	-29.204
197.6	-25.995
197.8	-25.483
198.1	-24.398
198.4	-22.648
198.6	-21.728
198.9	-17.806
199.2	-13.778
199.4	-8.6
199.7	-2.377
200	-2.788
200.2	-4.432
200.5	-5.16
200.7	-6.246
201	-5.262
201.3	-5.043
201.5	-3.882
201.8	-3.414
202.1	-1.887
202.3	-2.298
202.6	-2.418
202.9	-2.988
203.1	-3.203
203.4	-5.519
203.7	-4.802
203.9	-6.714
204.2	-5.643
204.5	-4.53
204.7	-3.248
205	-1.883
205.2	-2.117
205.5	-0.171
205.8	-1.147
206	2.439
206.3	2.684
206.6	3.737
206.8	3.793
207.1	4.099
207.4	5.615
207.6	7.632
207.9	8.474
208.2	9.186
208.4	10.506
208.7	11.283
208.9	13.599
209.2	12.89
209.5	12.456
209.7	12.856
210	12.305
210.3	11.947
210.5	13.61
210.8	13.535
211.1	13.984
211.3	13.999
211.6	14.206
211.9	13.757
212.1	14.44
212.4	14.674
212.6	14.463
212.9	14.689
213.2	12.286
213.4	13.803
213.7	13.637
214	14.055
214.2	10.831
214.5	11.242
214.8	10.672
215	10.793
215.3	13.195
215.5	14.319
215.8	12.916
216.1	12.275
216.3	12.965
216.6	12.649
216.9	13.018
217.1	13.535
217.4	13.388
217.7	13.757
217.9	11.242
218.2	11.6
218.5	11.083
218.7	9.767
219	10.57
219.2	11.506
219.5	12.886
219.8	14.334
220	14.18
220.3	14.719
220.6	14.991
220.8	13.795
221.1	14.082
221.4	14.266
221.6	13.542
221.9	14.044
222.1	13.248
222.4	12.924
222.7	14.998
222.9	11.777
223.2	10.552
223.5	8.99
223.7	10.167
224	8.688
224.2	7.946
224.5	8.202
224.8	7.802
225	7.18
225.3	6.935
225.6	6.018
225.8	7.342
226.1	9.548
226.4	8.334
226.6	7.12
226.9	8.059
227.1	8.062
227.4	7.659
227.7	6.275
227.9	5.234
228.2	6.056
228.5	5.321
228.7	3.869
229	3.887
229.3	4.355
229.5	7.847
229.8	7.972
230	7.629
230.3	7.018
230.6	8.096
230.8	5.147
231.1	7.927
231.4	8.556
231.6	12.592
231.9	10.834
232.1	12.415
232.4	11.657
232.7	11.212
232.9	11.087
233.2	9.967
233.5	9.213
233.7	11.238
234	9.665
234.2	7.78
234.5	9.096
234.8	11.551
235	11.449
235.3	11.468
235.6	11.559
235.8	11.396
236.1	12.694
236.4	11.958
236.6	12.875
236.9	14.138
237.1	15.681
237.4	16.254
237.7	12.562
237.9	11.649
238.2	10.401
238.5	11.494
238.7	10.755
239	11.924
239.2	10.589
239.5	12.483
239.8	8.719
240	7.934
240.3	9.654
240.6	9.963
240.8	9.861
241.1	10.322
241.3	10.363
241.6	10.001
241.9	7.229
242.1	8.598
242.4	9.956
242.7	9.665
242.9	8.715
243.2	8.123
243.4	8.455
243.7	7.938
244	7.625
244.2	7.244
244.5	7.214
244.8	7.934
245	8.243
245.3	8.319
245.5	7.278
245.8	7.957
246.1	7.112
246.3	6.931
246.6	7.206
246.9	8.685
247.1	8.598
247.4	9.975
247.6	10.318
247.9	10.559
248.2	10.619
248.4	8.138
248.7	8.541
248.9	9.073
249.2	8.836
249.5	9.586
249.7	9.82
250	9.266
250.3	8.198
250.5	7.263
250.8	8.27
251	6.89
251.3	7.987
251.6	8.968
251.8	9.02
252.1	8.998
252.4	7.357
252.6	8.255
252.9	6.328
253.1	5.498
253.4	3.903
253.7	4.864
253.9	6.55
254.2	7.791
254.4	7.93
254.7	7.157
255	7.267
255.2	8.511
255.5	7.61
255.8	6.622
256	7.21
256.3	7.678
256.5	7.195
256.8	7.176
257.1	7.044
257.3	6.512
257.6	6.814
257.8	7.534
258.1	9.447
258.4	10.887
258.6	11.51
258.9	10.978
259.2	11.117
259.4	10.295
259.7	7.764
259.9	6.15
260.2	7.568
260.5	8.451
260.7	7.953
261	8.228
261.2	7.474
261.5	8.051
261.8	7.01
262	7.353
262.3	7.301
262.6	6.618
262.8	5.905
263.1	4.8
263.3	2.677
263.6	2.677
263.9	1.432
264.1	0.784
264.4	2.202
264.6	2.933
264.9	2.53
265.2	2.315
265.4	2.443
265.7	3.065
266	1.127
266.2	2.247
266.5	1.425
266.7	-0.676
267	-1.634
267.3	-0.944
267.5	0.636
267.8	2.488
268	3.82
268.3	3.197
268.6	1.726
268.8	3.556
269.1	2.386
269.3	1.802
269.6	1.097
269.9	2.141
270.1	-0.333
270.4	0.331
270.6	1.24
270.9	1.274
271.2	0.437
271.4	-1.381
271.7	-2.577
272	-2.845
272.2	-1.279
272.5	-2.671
272.7	-1.581
273	-0.476
273.3	0.105
273.5	0.998
273.8	-1.068
274	0.553
274.3	-1.849
274.6	-2.754
274.8	-0.148
275.1	0.444
275.3	1.666
275.6	0.704
275.9	-1.034
276.1	-0.88
276.4	-0.827
276.6	1.04
276.9	-0.122
277.2	2.017
277.4	1.775
277.7	4.925
277.9	3.933
278.2	4.853
278.5	5.132
278.7	5.962
279	5.415
279.2	5.845
279.5	7.199
279.8	8.451
280	9.643
280.3	7.425
280.5	6.569
280.8	6.252
281.1	5.189
281.3	6.041
281.6	5.317
281.9	7.576
282.1	6.735
282.4	7.006
282.6	8.428
282.9	7.859
283.2	7.086
283.4	5.136
283.7	4.744
283.9	5.173
284.2	5.124
284.5	3.944
284.7	2.085
285	1.881
285.2	-0.174
285.5	1.934
285.8	-0.156
286	4.97
286.3	6.384
286.5	5.124
286.8	4.732
287.1	5.784
287.3	5.558
287.6	5.539
287.8	6.026
288.1	4.148
288.4	3.989
288.6	6.629
288.9	6.55
289.1	6.294
289.4	4.08
289.7	5.615
289.9	3.623
290.2	5.701
290.4	6.784
290.7	5.483
290.9	3.718
291.2	5.091
291.5	7.753
291.7	8.892
292	10.763
292.2	10.544
292.5	11.619
292.8	13.354
293	11.611
293.3	12.332
293.5	13.35
293.8	13.508
294.1	10.095
294.3	7.746
294.6	8.3
294.8	8.3
295.1	8.485
295.4	8.44
295.6	8.711
295.9	8.002
296.1	8.025
296.4	9.205
296.7	6.064
296.9	5.984
297.2	4.51
297.4	5.324
297.7	3.748
298	4.864
298.2	3.887
298.5	5.622
298.7	6.844
299	8.655
299.3	7.712
299.5	4.777
299.8	4.672
300	3.982
300.3	4.476
300.5	4.283
300.8	3.62
301.1	6.437
301.3	7.47
301.6	5.483
301.8	3.024
302.1	2.085
302.4	3.144
302.6	2.975
302.9	3.729
303.1	2.496
303.4	3.94
303.7	4.148
303.9	3.073
304.2	3.948
304.4	2.741
304.7	4.449
304.9	2.511
305.2	6.041
305.5	6.584
305.7	6.165
306	6.705
306.2	7.915
306.5	6.622
306.8	5.701
307	4.159
307.3	4.117
307.5	4.702
307.8	2.941
308.1	1.387
308.3	2.303
308.6	1.757
308.8	1.855
309.1	1.229
309.3	2.017
309.6	1.753
309.9	4.404
310.1	4.046
310.4	4.823
310.6	5.577
310.9	4.189
311.2	4.827
311.4	3.812
311.7	4.668
311.9	5.275
312.2	5.23
312.5	5.415
312.7	5.249
313	5.211
313.2	4.498
313.5	3.397
313.7	2.013
314	0.874
314.3	-0.755
314.5	-0.22
314.8	0.501
315	2.243
315.3	1.526
315.6	0.723
315.8	1.002
316.1	1.658
316.3	0.108
316.6	1.289
316.8	0.931
317.1	0.399
317.4	-1.249
317.6	-1.981
317.9	-3.486
318.1	-3.984
318.4	-4.131
318.6	-5.157
318.9	-5.322
319.2	-5.662
319.4	-5.628
319.7	-6.544
319.9	-6.243
320.2	-5.673
320.5	-4.395
320.7	-4.696
321	-4.674
321.2	-6.031
321.5	-4.048
321.7	-2.72
322	-1.076
322.3	-1.947
322.5	-2.124
322.8	-3.444
323	-4.666
323.3	-3.109
323.5	-1.789
323.8	-1.114
324.1	-0.808
324.3	-0.223
324.6	-1.559
324.8	-0.574
325.1	-2.388
325.4	-1.977
325.6	-0.333
325.9	-0.672
326.1	0.572
326.4	-0.461
326.6	-0.691
326.9	0.346
327.2	0.701
327.4	0.882
327.7	1.168
327.9	2.975
328.2	2.564
328.4	1.636
328.7	4.151
329	6.203
329.2	6.392
329.5	4.683
329.7	5.483
330	5.23
330.2	6.78
330.5	8.168
330.8	9.081
331	10.653
331.3	9.118
331.5	9.115
331.8	7.625
332	7.187
332.3	5.321
332.6	6.26
332.8	5.573
333.1	7.553
333.3	8.047
333.6	8.127
333.8	9.548
334.1	9.526
334.4	9.646
334.6	8.881
334.9	7.35
335.1	7.553
335.4	6.588
335.6	7.753
335.9	4.842
336.2	3.574
336.4	4.431
336.7	2.077
336.9	1.757
337.2	2.439
337.4	3.533
337.7	2.466
338	0.565
338.2	0.195
338.5	-2.422
338.7	-2.882
339	-2.611
339.2	-0.744
339.5	-2.004
339.8	-1.306
340	-1.189
340.3	-0.329
340.5	-0.012
340.8	2.665
341	2.337
341.3	1.428
341.6	1.262
341.8	1.368
342.1	-1.189
342.3	-0.518
342.6	1.063
342.8	2.609
343.1	2.73
343.4	3.243
343.6	0.667
343.9	2.183
344.1	3.514
344.4	2.911
344.6	2.194
344.9	2.492
345.1	1.715
345.4	1.04
345.7	0.98
345.9	2.307
346.2	1.406
346.4	1.462
346.7	1.081
346.9	1.032
347.2	-0.816
347.5	0.365
347.7	0.784
348	-0.061
348.2	0.946
348.5	0.599
348.7	2.764
349	2.677
349.2	4.031
349.5	3.827
349.8	4.027
350	5.396
350.3	4.785
350.5	4.898
350.8	5.547
351	4.804
351.3	5.192
351.6	5.554
351.8	4.446
352.1	4.05
352.3	3.503
352.6	4.498
352.8	3.597
353.1	3.989
353.3	4.072
353.6	3.921
353.9	3.356
354.1	3.571
354.4	4.785
354.6	6.399
354.9	4.947
355.1	6.788
355.4	6.584
355.6	6.946
355.9	7.15
356.2	7.825
356.4	8.213
356.7	3.654
356.9	4.238
357.2	3.695
357.4	4.167
357.7	3.314
358	6.267
358.2	5.898
358.5	5.415
358.7	3.337
359	4.974
359.2	5.4
359.5	5.679
359.7	8.632
360	9.107
360.3	11.461
360.5	10.872
360.8	10.389
361	11.551
361.3	10.476
361.5	11.547
361.8	11.227
362	11.826
362.3	11.521
362.6	11.008
362.8	12.739
363.1	12.437
363.3	13.271
363.6	14.255
363.8	15.73
364.1	13.482
364.3	13.309
364.6	14.101
364.8	15.145
365.1	14.93
365.4	17.137
365.6	17.827
365.9	16.092
366.1	17.167
366.4	16.888
366.6	18.351
366.9	18.732
367.1	18.581
367.4	21.217
367.7	20.87
367.9	21.017
368.2	20.448
368.4	19.679
368.7	21.108
368.9	22.002
369.2	20.735
369.4	20.912
369.7	22.922
370	22.715
370.2	21.919
370.5	22.398
370.7	22.115
371	22.986
371.2	23.046
371.5	23.993
371.7	24.114
372	25.287
372.2	25.769
372.5	26.599
372.8	25.573
373	23.933
373.3	20.829
373.5	21.594
373.8	20.463
374	20.312
374.3	21.444
374.5	22.137
374.8	22.583
375	22.484
375.3	21.64
375.6	20.799
375.8	22.428
376.1	22.292
376.3	24.427
376.6	23.703
376.8	21.097
377.1	24.242
377.3	22.782
377.6	21.391
377.8	21.975
378.1	24.321
378.4	23.691
378.6	23.612
378.9	21.534
379.1	22.066
379.4	21.149
379.6	20.452
379.9	19.829
380.1	19.369
380.4	19.037
380.6	19.603
380.9	20.161
381.2	20.889
381.4	20.972
381.7	22.571
381.9	23.45
382.2	23.571
382.4	22.76
382.7	20.572
382.9	21.247
383.2	20.893
383.4	20.965
383.7	21.504
383.9	19.875
384.2	18.819
384.5	20.859
384.7	21.734
385	21.221
385.2	23.099
385.5	23.461
385.7	23.91
386	24.019
386.2	24.921
386.5	23.571
386.7	25.279
387	25.113
387.2	25.566
387.5	26.893
387.8	28.425
388	30.02
388.3	30.491
388.5	31.098
388.8	32.716
389	32.999
389.3	31.808
389.5	30.948
389.8	31.849
390	31.065
390.3	31.819
390.5	32.641
390.8	34.417
391.1	34.772
391.3	34.067
391.6	32.705
391.8	34.316
392.1	34.704
392.3	35.051
392.6	35.651
392.8	36.571
393.1	39.954
393.3	42.586
393.6	42.892
393.8	43.175
394.1	45.328
394.4	47.734
394.6	48.587
394.9	49.262
395.1	49.462
395.4	48.722
395.6	49.778
395.9	48.707
396.1	48.998
396.4	49.469
396.6	51.016
396.9	50.77
397.1	51.404
397.4	53.482
397.6	52.69
397.9	54.308
398.2	54.927
398.4	57.578
398.7	57.28
398.9	57.48
399.2	59.324
399.4	60.041
399.7	60.391
399.9	60.071
400.2	59.599
400.4	59.863
400.7	60.471
400.9	58.14
401.2	57.616
401.4	58.404
401.7	57.216
401.9	55.62
402.2	53.267
402.5	52.747
402.7	51.219
403	51.457
403.2	52.667
403.5	52.287
403.7	52.871
404	54.172
404.2	53.818
404.5	54.055
404.7	56.069
405	58.291
405.2	58.193
405.5	59.716
405.7	60.61
406	61.474
406.2	60.938
406.5	62.3
406.7	62.009
407	61.753
407.3	62.466
407.5	62.398
407.8	63.103
408	61.281
408.3	61.462
408.5	61.647
408.8	60.165
409	60.987
409.3	60.655
409.5	63.001
409.8	62.801
410	65.441
410.3	65.988
410.5	68.828
410.8	67.708
411	67.157
411.3	68.017
411.5	67.561
411.8	66.211
412	66.135
412.3	66.264
412.6	67.35
412.8	65.879
413.1	64.804
413.3	64.438
413.6	63.254
413.8	62.643
414.1	61.76
414.3	60.131
414.6	60.765
414.8	59.841
415.1	58.909
415.3	59.034
415.6	61.259
415.8	62.726
416.1	63.865
416.3	62.948
416.6	65.743
416.8	63.62
417.1	65.294
417.3	62.858
417.6	64.238
417.8	64.325
418.1	65.192
418.4	64.891
418.6	66.999
418.9	68.383
419.1	68.851
419.4	69.978
419.6	70.058
419.9	70.329
420.1	69.024
420.4	68.108
420.6	68.519
420.9	67.384
421.1	66.942
421.4	67.757
421.6	67.829
421.9	68.443
422.1	67.206
422.4	66.984
422.6	68.036
422.9	68.002
423.1	68.474
423.4	68.726
423.6	69.548
423.9	70.574
424.1	72.181
424.4	70.337
424.6	70.427
424.9	69.062
425.1	68.67
425.4	67.206
425.6	68.409
425.9	66.23
426.2	66.098
426.4	64.97
426.7	64.155
426.9	62.409
427.2	61.014
427.4	60.697
427.7	60.584
427.9	59.973
428.2	59.92
428.4	60.746
428.7	61.907
428.9	62.458
429.2	63.359
429.4	63.559
429.7	62.53
429.9	60.98
430.2	61.048
430.4	61.017
430.7	62.786
430.9	62.635
431.2	60.746
431.4	60.165
431.7	59.754
431.9	57.589
432.2	58.781
432.4	58.962
432.7	58.951
432.9	61.485
433.2	63.722
433.4	62.258
433.7	64.076
433.9	64.035
434.2	63.876
434.4	63.567
434.7	65.076
434.9	66.671
435.2	66.079
435.4	65.453
435.7	66.965
435.9	65.815
436.2	66.049
436.4	66.863
436.7	66.46
436.9	64.646
437.2	63.646
437.4	64.615
437.7	68.44
437.9	68.783
438.2	67.995
438.4	67.527
438.7	68.202
438.9	67.889
439.2	66.667
439.4	63.831
439.7	64.668
439.9	64.578
440.2	64.31
440.5	65.407
440.7	64.129
441	62.515
441.2	63.586
441.5	63.623
441.7	63.088
442	63.605
442.2	64.389
442.5	62.507
442.7	63.439
443	64.495
443.2	65.517
443.5	64.099
443.7	65.094
444	63.631
444.2	63.533
444.5	64.642
444.7	66.52
445	67.225
445.2	66.626
445.5	64.37
445.7	65.045
446	65.909
446.2	64.955
446.5	65.087
446.7	65.966
447	66.693
447.2	68.338
447.5	69.858
447.7	68.266
448	67.599
448.2	67.727
448.5	67.991
448.7	68.881
449	68.062
449.2	68.425
449.5	68.164
449.7	67.206
450	66.859
450.2	69.032
450.5	67.489
450.7	69.1
451	68.602
451.2	69.665
451.5	69.198
451.7	70.959
452	73.35
452.2	72.837
452.5	72.143
452.7	72.773
452.9	73.376
453.2	74.353
453.4	75.172
453.7	76.382
453.9	76.428
454.2	75.617
454.4	74.934
454.7	77.152
454.9	77.035
455.2	75.5
455.4	77.695
455.7	80.512
455.9	79.384
456.2	80.007
456.4	80.165
456.7	80.041
456.9	78.755
457.2	79.045
457.4	80.878
457.7	81.73
457.9	81.945
458.2	82.153
458.4	82.085
458.7	82.752
458.9	82.775
459.2	83.126
459.4	84.925
459.7	84.872
459.9	84.548
460.2	84.827
460.4	84.366
460.7	86.886
460.9	88.236
461.2	87.874
461.4	87.188
461.7	88.459
461.9	88.892
462.2	88.855
462.4	87.964
462.7	89.439
462.9	89.79
463.2	89.477
463.4	88.541
463.7	89.677
463.9	89.609
464.2	88.99
464.4	89.733
464.7	91.623
464.9	90.868
465.2	90.929
465.4	90.948
465.7	91.774
465.9	93.456
466.2	94.014
466.4	94.647
466.6	95.47
466.9	94.301
467.1	91.611
467.4	90.408
467.6	92.309
467.9	91.747
468.1	91.031
468.4	89.473
468.6	88.277
468.9	86.848
469.1	86.282
469.4	86.188
469.6	86.362
469.9	86.52
470.1	87.814
470.4	85.951
470.6	88.081
470.9	88.617
471.1	89.443
471.4	88.47
471.6	88.715
471.9	90.725
472.1	91.238
472.4	89.948
472.6	92.222
472.9	92.007
473.1	92.837
473.4	93.426
473.6	93.241
473.9	90.77
474.1	91.668
474.3	91
474.6	93.546
474.8	93.305
475.1	93.791
475.3	92.388
475.6	93.09
475.8	95.421
476.1	96.526
476.3	96.024
476.6	98.147
476.8	98.77
477.1	101.413
477.3	102.507
477.6	104.845
477.8	104.11
478.1	106.298
478.3	106.46
478.6	109.19
478.8	108.591
479.1	108.983
479.3	108.089
479.6	108.413
479.8	108.179
480.1	110.05
480.3	110.073
480.5	110.563
480.8	109.978
481	110.242
481.3	110.163
481.5	112.46
481.8	111.053
482	113.863
482.3	112.799
482.5	113.071
482.8	113.022
483	114.316
483.3	115.5
483.5	117.076
483.8	116.311
484	117.272
484.3	115.715
484.5	117.499
484.8	117.261
485	117.167
485.2	115.885
485.5	118.136
485.7	117.601
486	118.408
486.2	116.48
486.5	119.151
486.7	119.547
487	123.514
487.2	123.088
487.5	124.152
487.7	125.717
488	125.125
488.2	124.996
488.5	125.317
488.7	124.563
489	124.272
489.2	124.37
489.5	125.754
489.7	124.71
489.9	124.483
490.2	125.321
490.4	125.962
490.7	126.305
490.9	125.392
491.2	123.299
491.4	124.747
491.7	126.264
491.9	127.531
492.2	127.044
492.4	126.279
492.7	128.123
492.9	130.201
493.2	129.511
493.4	129.232
493.6	127.542
493.9	128.704
494.1	126.06
494.4	126.727
494.6	124.536
494.9	124.103
495.1	123.077
495.4	121.628
495.6	122.952
495.9	125.196
496.1	126.022
496.4	127.47
496.6	130.416
496.9	133.678
497.1	133.889
497.3	134.421
497.6	134.968
497.8	137.733
498.1	136.507
498.3	136.424
498.6	135.986
498.8	136.865
499.1	137.608
499.3	139.098
499.6	141.591
499.8	142.832
500.1	142.247
500.3	141.757
500.6	142.04
500.8	141.983
501	144.925
501.3	145.321
501.5	143.997
501.8	146.588
502	148.692
502.3	148.308
502.5	147.584
502.8	149.786
503	152.464
503.3	152.264
503.5	150.635
503.8	152.419
504	151.834
504.2	152.385
504.5	151.687
504.7	153.833
505	154.18
505.2	157.491
505.5	158.072
505.7	161.04
506	161.825
506.2	165.211
506.5	166.697
506.7	166.267
506.9	166.682
507.2	167.184
507.4	166.456
507.7	170.442
507.9	172.339
508.2	174.602
508.4	175.726
508.7	176.039
508.9	177.638
509.2	181.557
509.4	183.631
509.7	184.929
509.9	188.511
510.1	191.491
510.4	192.562
510.6	191.864
510.9	195.383
511.1	198.849
511.4	201.142
511.6	204.468
511.9	205.438
512.1	205.958
512.4	208.402
512.6	211.325
512.8	211.917
513.1	212.079
513.3	214.04
513.6	215.877
513.8	216.975
514.1	218.061
514.3	219.803
514.6	221.534
514.8	221.976
515.1	224.699
515.3	224.544
515.5	226.294
515.8	227.908
516	230.68
516.3	233.203
516.5	235.719
516.8	236.665
517	237.62
517.3	239.287
517.5	241.24
517.7	243.465
518	245.336
518.2	248.266
518.5	249.696
518.7	251.819
519	252.943
519.2	253.931
519.5	255.636
519.7	257.54
520	259.117
520.2	260.742
520.4	264.431
520.7	269.643
520.9	271.532
521.2	274.678
521.4	276.224
521.7	280.965
521.9	283.292
522.2	283.503
522.4	288.051
522.6	290.861
522.9	292.328
523.1	294.15
523.4	296.518
523.6	296.507
523.9	299.06
524.1	301.395
524.4	302.002
524.6	303.1
524.8	303.254
525.1	304.389
525.3	306.856
525.6	310.065
525.8	311.457
526.1	313.531
526.3	315.666
526.6	316.481
526.8	317.077
527	320.456
527.3	322.119
527.5	322.413
527.8	323.827
528	322.877
528.3	323.454
528.5	324.235
528.8	322.692
529	323.914
529.2	325.332
529.5	325.872
529.7	329.515
530	329.545
530.2	330.556
530.5	330.639
530.7	330.56
531	329.956
531.2	331.985
531.4	330.824
531.7	331.461
531.9	332.098
532.2	333.162
532.4	334.821
532.7	335.949
532.9	335.006
533.2	332.664
533.4	332.947
533.6	331.389
533.9	329.006
534.1	328.293
534.4	328.983
534.6	329.673
534.9	328.074
535.1	327.214
535.3	326.377
535.6	326.584
535.8	323.552
536.1	324.371
536.3	325.117
536.6	325.698
536.8	323.296
537.1	322.907
537.3	320.422
537.5	318.928
537.8	317.318
538	317.363
538.3	315.832
538.5	313.988
538.8	312.773
539	311.155
539.2	309.718
539.5	309.703
539.7	309.575
540	308.048
540.2	307.757
540.5	306.894
540.7	307.086
540.9	306.592
541.2	305.906
541.4	308.504
541.7	310.107
541.9	309.307
542.2	304.156
542.4	303.661
542.7	302.971
542.9	302.07
543.1	301.067
543.4	303.175
543.6	300.942
543.9	300.045
544.1	298.053
544.4	296.481
544.6	294.776
544.8	293.954
545.1	293.46
545.3	291.378
545.6	290.884
545.8	291.152
546.1	290.375
546.3	289.749
546.5	289.843
546.8	290.341
547	288.772
547.3	287.399
547.5	286.648
547.8	284.159
548	283.424
548.2	282.862
548.5	279.366
548.7	278.717
549	274.323
549.2	273.282
549.5	271.468
549.7	271.042
549.9	270.454
550.2	268.802
550.4	267.633
550.7	267.105
550.9	262.907
551.2	262.583
551.4	261.829
551.6	260.791
551.9	260.12
552.1	259.502
552.4	258.921
552.6	256.292
552.9	257.571
553.1	255.768
553.3	254.452
553.6	253.365
553.8	250.533
554.1	250.756
554.3	247.052
554.5	245.027
554.8	241.712
555	238.694
555.3	235.866
555.5	234.24
555.8	230.654
556	229.937
556.2	227.044
556.5	226.184
556.7	222.466
557	221.817
557.2	220.241
557.5	219.411
557.7	219.105
557.9	215.692
558.2	213.275
558.4	213.109
558.7	210.167
558.9	209.296
559.2	208.432
559.4	206.509
559.6	205.619
559.9	204.789
560.1	202.405
560.4	201.478
560.6	200.508
560.8	198.706
561.1	197.027
561.3	198.061
561.6	195.142
561.8	194.316
562.1	192.445
562.3	192.185
562.5	192.019
562.8	193.731
563	191.517
563.3	192.969
563.5	192.166
563.7	190.986
564	189.337
564.2	188.84
564.5	186.882
564.7	187.931
565	187.112
565.2	184.71
565.4	185.23
565.7	187.124
565.9	185.4
566.2	185.445
566.4	183.541
566.6	184.065
566.9	184.993
567.1	184.819
567.4	182.888
567.6	183.88
567.9	181.342
568.1	181.229
568.3	181.085
568.6	181.067
568.8	180.158
569.1	177.782
569.3	176.288
569.5	176.179
569.8	176.254
570	175.79
570.3	174.723
570.5	175.206
570.7	173.365
571	173.761
571.2	174.508
571.5	173.724
571.7	172.023
572	172.234
572.2	169.82
572.4	170.02
572.7	171.276
572.9	171.868
573.2	169.081
573.4	166.954
573.6	165.645
573.9	165.577
574.1	163.492
574.4	159.494
574.6	158.751
574.8	156.88
575.1	155.545
575.3	155.059
575.6	153.497
575.8	151.348
576	149.601
576.3	147.784
576.5	150.62
576.8	152.219
577	153.245
577.3	153.35
577.5	152.52
577.7	151.374
578	150.54
578.2	150.024
578.5	148.123
578.7	147.953
578.9	148.594
579.2	147.814
579.4	146.671
579.7	146.705
579.9	143.842
580.1	141.659
580.4	140.444
580.6	140.429
580.9	142.903
581.1	143.371
581.3	143.092
581.6	139.946
581.8	141.591
582.1	140.576
582.3	141.73
582.5	142.055
582.8	142.643
583	143.752
583.3	146.109
583.5	145.758
583.7	146.414
584	143.91
584.2	143.884
584.5	142.552
584.7	141.76
584.9	141.651
585.2	141.304
585.4	142.27
585.7	140.976
585.9	140.203
586.1	138.283
586.4	136.601
586.6	137.785
586.9	137.295
587.1	134.791
587.3	134.47
587.6	134.862
587.8	133.935
588.1	132.573
588.3	130.235
588.5	129.454
588.8	127.452
589	128.319
589.3	127.025
589.5	125.947
589.7	126.32
590	124.895
590.2	124.186
590.5	121.527
590.7	119.105
590.9	119.173
591.2	117.751
591.4	117.039
591.7	117.254
591.9	118.6
592.1	117.216
592.4	117.231
592.6	116.292
592.9	114.889
593.1	115.326
593.3	115.349
593.6	116.36
593.8	117.578
594.1	117.367
594.3	116.793
594.5	117.631
594.8	117.959
595	118.362
595.3	118.691
595.5	121.187
595.7	123.028
596	123.292
596.2	123.458
596.4	126.724
596.7	127.112
596.9	127.923
597.2	124.921
597.4	126.709
597.6	125.702
597.9	125.664
598.1	126.226
598.4	128.225
598.6	129.171
598.8	129.556
599.1	127.071
599.3	126.958
599.6	127.455
599.8	127.851
600	129.65
600.3	131.238
600.5	130.495
600.7	131.593
601	132.434
601.2	131.268
601.5	130.778
601.7	131.683
601.9	132.502
602.2	133.72
602.4	133.131
602.7	132.411
602.9	131.325
603.1	131.219
603.4	130.544
603.6	130.631
603.9	129.269
604.1	128.956
604.3	129.579
604.6	131.053
604.8	129.65
605	130.985
605.3	130.506
605.5	130.442
605.8	128.066
606	129.039
606.2	130.012
606.5	129.665
606.7	126.871
607	126.067
607.2	124.695
607.4	121.063
607.7	118.596
607.9	118.498
608.1	119.294
608.4	117.499
608.6	117.189
608.9	116.771
609.1	115.719
609.3	114.308
609.6	113.335
609.8	113.448
610.1	111.974
610.3	108.689
610.5	106.411
610.8	105.389
611	105.607
611.2	103.695
611.5	103.782
611.7	101.285
612	101.349
612.2	101.127
612.4	99.905
612.7	99.935
612.9	100.225
613.1	98.958
613.4	97.533
613.6	95.986
613.9	96.929
614.1	96.281
614.3	96.269
614.6	97.031
614.8	98.159
615	98.064
615.3	97.548
615.5	96.443
615.8	95.658
616	95.726
616.2	94.893
616.5	95.492
616.7	96.141
616.9	95.734
617.2	94.919
617.4	97.137
617.7	98.162
617.9	97.344
618.1	96.009
618.4	95.119
618.6	94.923
618.8	96.133
619.1	97.891
619.3	97.469
619.6	95.994
619.8	95.187
620	94.949
620.3	94.067
620.5	95.828
620.7	94.078
621	93.041
621.2	91.182
621.5	91.325
621.7	92.234
621.9	90.627
622.2	89.409
622.4	91.012
622.6	91.215
622.9	89.541
623.1	90.374
623.4	89.311
623.6	89.462
623.8	89.556
624.1	88.104
624.3	87.848
624.5	88.647
624.8	88.119
625	87.606
625.3	89.684
625.5	91.317
625.7	92.498
626	91.566
626.2	90.129
626.4	88.696
626.7	88.123
626.9	89.413
627.1	89.643
627.4	89.254
627.6	88.545
627.9	87.467
628.1	87.719
628.3	88.391
628.6	88.836
628.8	90.148
629	88.489
629.3	89.978
629.5	91.457
629.8	88.881
630	88.87
630.2	88.108
630.5	87.252
630.7	87.776
630.9	87.35
631.2	85.766
631.4	86.475
631.6	85.619
631.9	84.287
632.1	83.016
632.4	83.774
632.6	83.431
632.8	83.31
633.1	83.096
633.3	84.521
633.5	83.737
633.8	84.333
634	85.702
634.2	85.558
634.5	84.272
634.7	85.577
635	85.754
635.2	85.785
635.4	87.459
635.7	89.745
635.9	89.201
636.1	88.738
636.4	89.352
636.6	87.048
636.8	86.769
637.1	87.678
637.3	87.448
637.5	87.682
637.8	87.584
638	87.912
638.3	87.919
638.5	89.326
638.7	88.247
639	89.782
639.2	91.31
639.4	90.827
639.7	90.974
639.9	88.662
640.1	90.703
640.4	92.366
640.6	91.053
640.9	92.566
641.1	93.358
641.3	91.747
641.6	91.653
641.8	92.901
642	91.359
642.3	90.197
642.5	90.816
642.7	87.738
643	86.671
643.2	85.313
643.4	84.023
643.7	84.276
643.9	84.913
644.1	84.472
644.4	85.762
644.6	85.566
644.9	86.924
645.1	87.323
645.3	86.957
645.6	86.294
645.8	84.857
646	86.871
646.3	85.796
646.5	84.306
646.7	85.588
647	85.532
647.2	86.188
647.4	84.291
647.7	81.768
647.9	82.715
648.1	82.469
648.4	80.727
648.6	80.923
648.9	81.466
649.1	82.39
649.3	84.498
649.6	85.045
649.8	84.702
650	85.34
650.3	82.979
650.5	84.536
650.7	83.872
651	82.994
651.2	84.069
651.4	83.054
651.7	80.934
651.9	80.693
652.1	80.603
652.4	80.916
652.6	81.817
652.8	82.617
653.1	81.994
653.3	81.014
653.5	79.954
653.8	78.871
654	79.207
654.3	77.823
654.5	78.37
654.7	76.186
655	75.191
655.2	73.78
655.4	71.77
655.7	73.211
655.9	75.221
656.1	76.069
656.4	74.01
656.6	72.136
656.8	77.148
657.1	78.789
657.3	79.003
657.5	77.831
657.8	78.279
658	79.449
658.2	79.63
658.5	78.457
658.7	79.003
658.9	79.192
659.2	78.012
659.4	76.518
659.6	75.402
659.9	75.394
660.1	73.859
660.3	74.044
660.6	72.95
660.8	73.275
661	73.573
661.3	71.491
661.5	70.48
661.8	70.118
662	69.982
662.2	70.725
662.5	70.567
662.7	71.759
662.9	69.179
663.2	68.338
663.4	64.759
663.6	64.683
663.9	65.69
664.1	60.32
664.3	59.211
664.6	59.871
664.8	60.158
665	60.056
665.3	59.871
665.5	59.128
665.7	60.433
666	60.346
666.2	59.614
666.4	61.168
666.7	60.535
666.9	60.252
667.1	58.804
667.4	60.112
667.6	59.712
667.8	59.569
668.1	59.158
668.3	59.63
668.5	60.561
668.8	60.901
669	59.905
669.2	62.156
669.5	61.923
669.7	62.865
669.9	61.395
670.2	61.73
670.4	60.554
670.6	61.04
670.9	61.451
671.1	59.166
671.3	59.464
671.6	57.427
671.8	56.601
672	57.382
672.3	57.299
672.5	57.883
672.7	57.231
673	57.608
673.2	56.899
673.4	59.543
673.7	58.943
673.9	58.706
674.1	58.898
674.4	58.822
674.6	57.925
674.8	57.638
675.1	57.355
675.3	56.65
675.5	57.14
675.8	56.495
676	57.204
676.2	59.173
676.5	57.416
676.7	57.631
676.9	56.247
677.2	56.578
677.4	56.488
677.6	55.605
677.9	56.48
678.1	55.952
678.3	57.186
678.5	56.424
678.8	55.417
679	54.998
679.2	54.727
679.5	54.949
679.7	53.203
679.9	54.67
680.2	52.781
680.4	54.202
680.6	50.499
680.9	50.733
681.1	51.574
681.3	53.128
681.6	52.324
681.8	52.992
682	53.154
682.3	55.13
682.5	56.273
682.7	54.089
683	53.26
683.2	51.645
683.4	49.944
683.7	48.979
683.9	50.846
684.1	51.826
684.4	52.603
684.6	52.671
684.8	52.437
685.1	51.634
685.3	51.347
685.5	52.094
685.7	51.894
686	53.045
686.2	53.203
686.4	53.029
686.7	51.095
686.9	51.743
687.1	50.186
687.4	50.092
687.6	47.617
687.8	48.666
688.1	47.995
688.3	46.776
688.5	45.207
688.8	46.731
689	45.422
689.2	46.784
689.5	44.385
689.7	42.888
689.9	42.488
690.2	42.733
690.4	43.495
690.6	42.877
690.8	43.375
691.1	41.161
691.3	39.35
691.5	37.883
691.8	37.152
692	39.316
692.2	41.553
692.5	40.165
692.7	39.207
692.9	39.143
693.2	38.068
693.4	37.272
693.6	36.367
693.9	37.333
694.1	37.204
694.3	38.219
694.5	37.751
694.8	37.804
695	37.687
695.2	36.695
695.5	36.948
695.7	36.925
695.9	37.661
696.2	37.468
696.4	36.194
696.6	36.296
696.9	36.669
697.1	39.89
697.3	40.757
697.6	41.225
697.8	41.783
698	42.628
698.2	42.187
698.5	43.639
698.7	44.465
698.9	45.381
699.2	44.495
699.4	41.285
699.6	43.005
699.9	41.459
700.1	41.466
700.3	43.182
700.6	44.83
700.8	46.599
701	46.29
701.2	45.332
701.5	45
701.7	45.355
701.9	44.691
702.2	45.513
702.4	47.274
702.6	47.459
702.9	45.588
703.1	42.941
703.3	45.057
703.6	45.981
703.8	46.12
704	45.932
704.2	42.643
704.5	42.303
704.7	43.137
704.9	42.831
705.2	42.104
705.4	42.605
705.6	43.009
705.9	42.93
706.1	42.896
706.3	40.455
706.5	39.418
706.8	38.996
707	39.509
707.2	39.584
707.5	38.313
707.7	36.854
707.9	35.541
708.2	34.7
708.4	35.04
708.6	34.078
708.8	33.425
709.1	34.07
709.3	32.724
709.5	31.453
709.8	32.045
710	34.523
710.2	34.972
710.5	33.614
710.7	31.728
710.9	31.721
711.1	31.698
711.4	32.309
711.6	31.63
711.8	30.767
712.1	30.733
712.3	30.352
712.5	30.19
712.8	30.503
713	28.821
713.2	28.006
713.4	29.194
713.7	30.216
713.9	29.922
714.1	31.08
714.4	30.521
714.6	29.413
714.8	28.839
715.1	28.447
715.3	29.352
715.5	29.062
715.7	28.326
716	27.154
716.2	26.686
716.4	27.131
716.7	26.437
716.9	27.203
717.1	24.928
717.3	25.407
717.6	25.241
717.8	25.626
718	24.242
718.3	23.552
718.5	23.899
718.7	24.657
718.9	24.785
719.2	23.058
719.4	23.605
719.6	21.975
719.9	20.056
720.1	20.614
720.3	20.033
720.6	17.849
720.8	17.717
721	17.54
721.2	16.05
721.5	15.028
721.7	15.055
721.9	15.277
722.2	14.429
722.4	13.595
722.6	14.466
722.8	15.571
723.1	17.947
723.3	18.69
723.5	17.536
723.8	18.449
724	15.866
724.2	15.074
724.4	15.549
724.7	16.635
724.9	16.707
725.1	18.408
725.4	20.421
725.6	18.136
725.8	17.551
726	17.057
726.3	16.642
726.5	16.371
726.7	16.808
727	14.817
727.2	14.666
727.4	15.768
727.6	17.095
727.9	17.721
728.1	16.948
728.3	17.566
728.6	19.758
728.8	21.44
729	20.633
729.2	23.167
729.5	22.73
729.7	21.383
729.9	21.395
730.2	20.471
730.4	20.81
730.6	21.862
730.8	20.09
731.1	21.142
731.3	22.145
731.5	20.67
731.7	18.313
732	18.6
732.2	18.117
732.4	16.518
732.7	18.291
732.9	16.835
733.1	15.594
733.3	15.858
733.6	16.201
733.8	16.25
734	21.108
734.3	21.798
734.5	23.065
734.7	24.706
734.9	23.043
735.2	25.181
735.4	25.26
735.6	24.151
735.9	24.155
736.1	25.253
736.3	25.543
736.5	25.69
736.8	26.422
737	25.494
737.2	24.676
737.4	23.533
737.7	23.601
737.9	27.335
738.1	27.482
738.4	27.489
738.6	28.187
738.8	29.085
739	27.395
739.3	27.599
739.5	27.67
739.7	27.402
739.9	30.767
740.2	32.49
740.4	32.792
740.6	32.434
740.9	32.645
741.1	30.306
741.3	28.832
741.5	27.263
741.8	25.811
742	27.414
742.2	27.542
742.4	27.221
742.7	28.013
742.9	27.693
743.1	26.652
743.4	24.48
743.6	24.536
743.8	24.977
744	26.818
744.3	27.342
744.5	27.557
744.7	27.455
744.9	27.086
745.2	29.085
745.4	28.666
745.6	28.692
745.8	29.33
746.1	31.087
746.3	33.003
746.5	34.595
746.8	33.942
747	34.018
747.2	34.772
747.4	37.133
747.7	37.408
747.9	38.438
748.1	37.25
748.3	39.709
748.6	40.041
748.8	39.433
749	38.747
749.2	36.786
749.5	36.763
749.7	36.707
749.9	36.062
750.2	38.343
750.4	38.841
750.6	39.026
750.8	37.755
751.1	36.914
751.3	36.533
751.5	38.37
751.7	40.184
752	37.981
752.2	36.405
752.4	36.386
752.6	35.153
752.9	34.53
753.1	32.852
753.3	31.649
753.5	30.718
753.8	31.691
754	29.247
754.2	28.221
754.4	26.527
754.7	25.754
754.9	25.283
755.1	25.807
755.4	24.302
755.6	25.124
755.8	26.369
756	25.928
756.3	25.943
756.5	24.902
756.7	22.737
756.9	22.469
757.2	19.893
757.4	19.343
757.6	17.287
757.8	16.416
758.1	16.507
758.3	17.374
758.5	14.953
758.7	11.268
759	9.907
759.2	10.355
759.4	10.751
759.6	12.053
759.9	11.015
760.1	12.17
760.3	10.812
760.5	10.054
760.8	8.715
761	9.484
761.2	9.68
761.4	11.287
761.7	12.339
761.9	12.554
762.1	12.573
762.3	12.897
762.6	10.205
762.8	9.488
763	8.975
763.2	12.056
763.5	12.686
763.7	12.773
763.9	13.335
764.1	13.459
764.4	12.939
764.6	14.817
764.8	16.409
765	15.952
765.3	14.327
765.5	14.349
765.7	15.718
765.9	17.001
766.2	16.808
766.4	16.699
766.6	14.968
766.8	15.228
767.1	14.553
767.3	14.738
767.5	15.338
767.7	16.782
768	16.262
768.2	16.371
768.4	15.304
768.6	13.829
768.9	12.328
769.1	12.72
769.3	13.312
769.5	13.263
769.8	14.414
770	15.956
770.2	13.689
770.4	14.512
770.7	15.628
770.9	16.092
771.1	16.209
771.3	17.966
771.6	17.714
771.8	17.932
772	16.597
772.2	16.914
772.5	18.181
772.7	18.506
772.9	18.381
773.1	16.654
773.4	17.74
773.6	19.26
773.8	18.374
774	18.604
774.3	18.249
774.5	17.853
774.7	16.816
774.9	16.786
775.2	16.167
775.4	16.646
775.6	17.502
775.8	18.656
776	19.203
776.3	18.321
776.5	19.46
776.7	18.672
776.9	19.298
777.2	19.226
777.4	18.811
777.6	17.883
777.8	17.872
778.1	19.169
778.3	18.144
778.5	17.691
778.7	17.838
779	18.083
779.2	18.924
779.4	18.932
779.6	18.585
779.9	17.981
780.1	19.132
780.3	17.759
780.5	16.043
780.7	15.967
781	17.069
781.2	17.736
781.4	16.114
781.6	16.771
781.9	17.148
782.1	15.583
782.3	15.157
782.5	13.678
782.8	13.505
783	13.633
783.2	13.248
783.4	13.124
783.7	12.584
783.9	10.635
784.1	9.401
784.3	8.56
784.5	9.122
784.8	7.195
785	6.309
785.2	5.818
785.4	5.905
785.7	4.664
785.9	5.585
786.1	4.725
786.3	3.978
786.6	4.491
786.8	5.392
787	5.132
787.2	5.981
787.4	6.825
787.7	7.9
787.9	8.138
788.1	8.53
788.3	9.59
788.6	8.304
788.8	7.161
789	7.071
789.2	5.977
789.5	6.045
789.7	4.777
789.9	3.774
790.1	2.616
790.3	2.247
790.6	2.164
790.8	2.911
791	3.691
791.2	5.513
791.5	7.044
791.7	7.659
791.9	7.406
792.1	6.739
792.3	5.377
792.6	5.43
792.8	3.982
793	6.101
793.2	7.052
793.5	6.494
793.7	6.761
793.9	6.358
794.1	5.818
794.3	5.528
794.6	6.622
794.8	5.189
795	5.215
795.2	4.302
795.5	5.781
795.7	5.603
795.9	7.282
796.1	6.569
796.3	6.35
796.6	8.01
796.8	7.964
797	10.269
797.2	11.257
797.5	12.49
797.7	12.954
797.9	11.472
798.1	11.065
798.3	18.2
798.6	18.611
798.8	20.772
799	22.488
799.2	24.676
799.5	25.373
799.7	26.878
799.9	24.887
800.1	22.941
800.3	22.586
800.6	21.96
800.8	22.401
801	23.001
801.2	23.012
801.5	22.518
801.7	21.964
801.9	21.327
802.1	23.197
802.3	23.593
802.6	23.94
802.8	22.994
803	24.363
803.2	26.184
803.4	25.211
803.7	26.942
803.9	25.792
804.1	24.868
804.3	24.642
804.6	24.385
804.8	25.954
805	24.276
805.2	15.507
805.4	14.564
805.7	12.841
805.9	11.608
806.1	11.068
806.3	10.11
806.5	9.364
806.8	8.504
807	9.76
807.2	11.027
807.4	11.521
807.6	9.209
807.9	7.904
808.1	8.292
808.3	8.523
808.5	11.374
808.8	12.256
809	10.314
809.2	11.102
809.4	10.993
809.6	10.122
809.9	8.911
810.1	6.833
810.3	7.617
810.5	6.192
810.7	4.661
811	3.985
811.2	2.963
811.4	2.583
811.6	1.598
811.8	2.711
812.1	3.45
812.3	3.318
812.5	3.31
812.7	3.235
812.9	3.771
813.2	5.053
813.4	4.827
813.6	6.067
813.8	5.305
814	2.926
814.3	2.658
814.5	5.69
814.7	5.192
814.9	2.236
815.2	1.764
815.4	0.365
815.6	-0.144
815.8	-0.412
816	-2.467
816.3	-2.056
816.5	-2.517
816.7	-1.981
816.9	-0.733
817.1	-1.547
817.4	-2.939
817.6	-1.581
817.8	-1.577
818	-2.483
818.2	-2.664
818.5	-2.532
818.7	-3.889
818.9	-5.643
819.1	-3.81
819.3	-3.214
819.6	-1.702
819.8	-0.393
820	-1.928
820.2	-3.109
820.4	-3.278
820.7	-3.12
820.9	-0.148
821.1	-0.322
821.3	-2.347
821.5	-0.88
821.8	1.813
822	0.772
822.2	0.942
822.4	0.9
822.6	1.983
822.9	2.733
823.1	1.413
823.3	2.319
823.5	1.24
823.7	2.156
823.9	1.662
824.2	1.579
824.4	0.576
824.6	1.568
824.8	1.074
825	1.059
825.3	0.191
825.5	1.493
825.7	2.07
825.9	1.191
826.1	-0.548
826.4	-1.17
826.6	-3.622
826.8	-3.904
827	-2.343
827.2	-2.633
827.5	-2.139
827.7	-3.218
827.9	-2.716
828.1	-1.393
828.3	-1.411
828.6	-0.932
828.8	-0.061
829	-1.049
829.2	-1.378
829.4	-0.57
829.6	-0.921
829.9	-0.318
830.1	-0.088
830.3	0.025
830.5	-1.087
830.7	-0.616
831	0.169
831.2	0.636
831.4	0.21
831.6	0.203
831.8	-0.555
832.1	0.957
832.3	0.384
832.5	1.07
832.7	0.029
832.9	0.799
833.1	0.282
833.4	0.591
833.6	1.738
833.8	2.797
834	2.948
834.2	4.031
834.5	2.752
834.7	0.259
834.9	-0.069
835.1	-0.902
835.3	-1.766
835.5	-2.249
835.8	-1.577
836	-0.653
836.2	-1.559
836.4	-0.284
836.6	-0.552
836.9	-1.321
837.1	-0.665
837.3	0.199
837.5	-0.936
837.7	-1.306
837.9	-1.362
838.2	-0.095
838.4	0.342
838.6	2.884
838.8	2.515
839	1.787
839.3	2.337
839.5	3.337
839.7	3.126
839.9	3.254
840.1	3.344
840.3	5.181
840.6	3.284
840.8	4.446
841	2.997
841.2	3.955
841.4	4.996
841.7	4.167
841.9	4.129
842.1	3.887
842.3	4.925
842.5	5.392
842.7	5.656
843	4.566
843.2	2.19
843.4	4.457
843.6	4.774
843.8	6.128
844	6.075
844.3	6.094
844.5	5.275
844.7	4.068
844.9	3.642
845.1	3.352
845.4	1.01
845.6	1.402
845.8	3.284
846	1.877
846.2	1.447
846.4	2.368
846.7	2.194
846.9	3.024
847.1	1.089
847.3	1.994
847.5	1.164
847.7	1.119
848	0.154
848.2	0.806
848.4	1.511
848.6	1.138
848.8	0.719
849	0.429
849.3	-0.725
849.5	-1.555
849.7	-2.279
849.9	-2.747
850.1	-5.315
850.3	-3.644
850.6	-5.13
850.8	-6.488
851	-7.355
851.2	-6.778
851.4	-6.156
851.6	-7.649
851.9	-7.125
852.1	-5.315
852.3	-7.382
852.5	-7.619
852.7	-6.473
852.9	-5.285
853.2	-5.289
853.4	-5.36
853.6	-6.703
853.8	-7.434
854	-9.309
854.2	-8.068
854.5	-8.162
854.7	-7.868
854.9	-7.608
855.1	-7.257
855.3	-6.971
855.5	-5.405
855.8	-6.337
856	-7.487
856.2	-8.547
856.4	-5.326
856.6	-4.421
856.8	-4.538
857.1	-2.992
857.3	-3.573
857.5	-3.293
857.7	-0.25
857.9	1.477
858.1	3.088
858.4	2.481
858.6	2.688
858.8	1.353
859	2.616
859.2	0.463
859.4	0.67
859.7	-0.506
859.9	-1.2
860.1	-1.698
860.3	-1.411
860.5	-1.374
860.7	-1.415
860.9	-3.165
861.2	-1.856
861.4	-1.272
861.6	-1
861.8	-0.948
862	0.335
862.2	-0.069
862.5	-0.163
862.7	0.584
862.9	1.085
863.1	-0.122
863.3	0.418
863.5	1.425
863.8	-1.977
864	-0.076
864.2	0.584
864.4	-1.163
864.6	-3.376
864.8	-4.18
865	-3.576
865.3	-2.422
865.5	-2.909
865.7	-2.056
865.9	-0.755
866.1	-2.158
866.3	-2.317
866.6	-2.019
866.8	-2.362
867	-3.233
867.2	-3.29
867.4	-2.279
867.6	-2.505
867.8	-3.686
868.1	-3.259
868.3	-3.961
868.5	-4.112
868.7	-6.273
868.9	-7.223
869.1	-6.48
869.3	-6.13
869.6	-7.125
869.8	-7.054
870	-7.895
870.2	-7.827
870.4	-7.555
870.6	-9.015
870.9	-10.014
871.1	-11.07
871.3	-10.64
871.5	-12.205
871.7	-9.856
871.9	-11.342
872.1	-11.315
872.4	-12.963
872.6	-13.982
872.8	-12.748
873	-12.5
873.2	-12.76
873.4	-11.259
873.6	-10.369
873.9	-9.777
874.1	-9.814
874.3	-10.108
874.5	-11.18
874.7	-13.05
874.9	-12.922
875.1	-13.567
875.4	-13.378
875.6	-14.265
875.8	-13.804
876	-11.711
876.2	-10.376
876.4	-12.017
876.6	-11.451
876.9	-11.097
877.1	-10.727
877.3	-11.572
877.5	-12.854
877.7	-11.236
877.9	-9.814
878.1	-10.323
878.4	-12.013
878.6	-12.473
878.8	-11.523
879	-11.975
879.2	-9.716
879.4	-11.398
879.6	-10.629
879.9	-10.972
880.1	-11.115
880.3	-11.428
880.5	-11.115
880.7	-10.101
880.9	-9.411
881.1	-7.929
881.3	-6.771
881.6	-7.344
881.8	-8.562
882	-8.683
882.2	-6.05
882.4	-6.56
882.6	-8.547
882.8	-9.041
883.1	-8.69
883.3	-8.702
883.5	-10.078
883.7	-8.819
883.9	-8.438
884.1	-7.216
884.3	-8.988
884.6	-10.452
884.8	-7.374
885	-7.499
885.2	-7.913
885.4	-8.988
885.6	-7.902
885.8	-8.777
886	-7.231
886.3	-8.63
886.5	-9.022
886.7	-9.479
886.9	-8.536
887.1	-9.086
887.3	-10.735
887.5	-10.663
887.8	-10.256
888	-11.191
888.2	-10.942
888.4	-10.018
888.6	-8.977
888.8	-10.708
889	-10.301
889.2	-11.919
889.5	-13.495
889.7	-12.518
889.9	-10.444
890.1	-10.523
890.3	-12.126
890.5	-11.176
890.7	-11.134
890.9	-11.251
891.2	-10.557
891.4	-11.972
891.6	-12.179
891.8	-10.761
892	-11.636
892.2	-12.454
892.4	-15.396
892.6	-16.901
892.9	-17.199
893.1	-15.883
893.3	-14.623
893.5	-16.128
893.7	-16.237
893.9	-15.396
894.1	-15.875
894.3	-16.716
894.6	-16.644
894.8	-16.437
895	-15.396
895.2	-15.487
895.4	-13.97
895.6	-15.637
895.8	-14.415
896	-12.251
896.3	-13.035
896.5	-14.853
896.7	-14.05
896.9	-12.941
897.1	-12.835
897.3	-13.209
897.5	-12.198
897.7	-12.601
898	-11.504
898.2	-12.122
898.4	-13.397
898.6	-11.636
898.8	-11.553
899	-8.181
899.2	-5.632
899.4	-4.244
899.6	-5.017
899.9	-6.642
900.1	-4.451
900.3	-3.705
900.5	-2.89
900.7	-2.83
900.9	-4.662
901.1	-3.712
901.3	-4.425
901.6	-5.089
901.8	-4.365
902	-6.514
902.2	-5.933
902.4	-6.473
902.6	-7.559
902.8	-8.532
903	-9.464
903.2	-10.278
903.5	-11.063
903.7	-12.043
903.9	-11.67
904.1	-11.504
904.3	-10.912
904.5	-11.542
904.7	-10.535
904.9	-9.588
905.1	-10.142
905.4	-9.226
905.6	-9.724
905.8	-11.609
906	-12.051
906.2	-11.41
906.4	-11.402
906.6	-12.665
906.8	-11.617
907	-12.254
907.3	-12.616
907.5	-12.473
907.7	-13.703
907.9	-12.254
908.1	-12.873
908.3	-14.86
908.5	-12.956
908.7	-13.107
908.9	-13.563
909.2	-13.201
909.4	-11.493
909.6	-10.701
909.8	-12.028
910	-13.122
910.2	-12.115
910.4	-12.797
910.6	-12.533
910.8	-13.959
911.1	-12.224
911.3	-10.663
911.5	-11.191
911.7	-11.534
911.9	-10.618
912.1	-10.21
912.3	-11.006
912.5	-9.663
912.7	-9.701
912.9	-8.619
913.2	-8.645
913.4	-10.493
913.6	-9.301
913.8	-9.147
914	-6.654
914.2	-6.19
914.4	-6.16
914.6	-6.812
914.8	-6.031
915.1	-5.643
915.3	-5.289
915.5	-3.889
915.7	-4.964
915.9	-5.537
916.1	-6.156
916.3	-4.772
916.5	-3.75
916.7	-3.41
916.9	-1.691
917.2	-1.913
917.4	-0.427
917.6	-3.112
917.8	-4.27
918	-5.915
918.2	-5.526
918.4	-7.201
918.6	-8.472
918.8	-7.653
919	-8.985
919.2	-7.959
919.5	-6.797
919.7	-8.498
919.9	-8.404
920.1	-9.437
920.3	-9.973
920.5	-10.644
920.7	-10.203
920.9	-11.719
921.1	-10.916
921.3	-11.542
921.6	-14.253
921.8	-13.929
922	-15.098
922.2	-16.463
922.4	-16.041
922.6	-16.478
922.8	-15.532
923	-16.659
923.2	-17.448
923.4	-18.715
923.6	-18.998
923.9	-19.763
924.1	-19.481
924.3	-21.17
924.5	-19.235
924.7	-19.982
924.9	-18.507
925.1	-17.915
925.3	-17.27
925.5	-16.939
925.7	-19.16
925.9	-20.657
926.2	-18.994
926.4	-18.726
926.6	-17.821
926.8	-17.953
927	-17.553
927.2	-16.957
927.4	-16.886
927.6	-17.47
927.8	-16.177
928	-15.479
928.2	-16.226
928.5	-16.098
928.7	-14.472
928.9	-13.812
929.1	-12.907
929.3	-12.586
929.5	-10.983
929.7	-11.247
929.9	-10.776
930.1	-10.991
930.3	-10.757
930.5	-9.241
930.8	-6.937
931	-7.027
931.2	-7.054
931.4	-7.695
931.6	-7.419
931.8	-7.306
932	-7.781
932.2	-8.434
932.4	-10.218
932.6	-11.364
932.8	-12.703
933	-15.294
933.3	-15.355
933.5	-16.761
933.7	-17.01
933.9	-16.776
934.1	-15.894
934.3	-15.72
934.5	-15.396
934.7	-15.652
934.9	-16.12
935.1	-15.483
935.3	-16.418
935.5	-17.097
935.7	-18.232
936	-18.44
936.2	-19.017
936.4	-19.307
936.6	-18.1
936.8	-18.613
937	-20.103
937.2	-22.139
937.4	-21.506
937.6	-21.347
937.8	-21.068
938	-23.422
938.2	-23.803
938.4	-22.377
938.7	-20.487
938.9	-19.967
939.1	-19.711
939.3	-18.028
939.5	-16.693
939.7	-16.931
939.9	-16.667
940.1	-16.773
940.3	-16.901
940.5	-17.697
940.7	-18.507
940.9	-17.414
941.1	-16.98
941.4	-16.501
941.6	-16.305
941.8	-17.361
942	-16.75
942.2	-16.882
942.4	-16.686
942.6	-14.084
942.8	-14.427
943	-15.588
943.2	-14.762
943.4	-14.381
943.6	-13.288
943.8	-14.317
944	-14.876
944.3	-15.792
944.5	-14.917
944.7	-13.74
944.9	-14.332
945.1	-13.801
945.3	-12.726
945.5	-11.466
945.7	-10.825
945.9	-11.768
946.1	-10.365
946.3	-11.342
946.5	-12.394
946.7	-12.021
946.9	-10.293
947.1	-10.256
947.4	-11.674
947.6	-12.511
947.8	-12.454
948	-12.515
948.2	-11.029
948.4	-12.092
948.6	-11.357
948.8	-11.534
949	-13.763
949.2	-12.375
949.4	-12.647
949.6	-13.963
949.8	-13.235
950	-13.903
950.2	-11.515
950.5	-10.282
950.7	-10.222
950.9	-9.901
951.1	-12.492
951.3	-11.477
951.5	-12.665
951.7	-14.404
951.9	-15.079
952.1	-16.211
952.3	-14.419
952.5	-15.075
952.7	-14.019
952.9	-13.111
953.1	-14.668
953.3	-16.15
953.5	-16.561
953.8	-15.26
954	-13.333
954.2	-15.075
954.4	-15.215
954.6	-15.626
954.8	-15.264
955	-14.646
955.2	-13.639
955.4	-13.133
955.6	-15.072
955.8	-13.522
956	-12.677
956.2	-12.963
956.4	-12.149
956.6	-14.182
956.8	-14.476
957	-14.706
957.2	-13.431
957.5	-12.292
957.7	-13.676
957.9	-13.243
958.1	-11.923
958.3	-13.144
958.5	-14.268
958.7	-15.668
958.9	-15.637
959.1	-15.245
959.3	-15.223
959.5	-14.449
959.7	-13.808
959.9	-13.989
960.1	-14.744
960.3	-15.196
960.5	-12.352
960.7	-11.477
960.9	-10.667
961.1	-10.942
961.4	-12.654
961.6	-15.298
961.8	-15.935
962	-16.26
962.2	-14.977
962.4	-16.535
962.6	-16.241
962.8	-17.384
963	-18.285
963.2	-19.352
963.4	-19.035
963.6	-21.645
963.8	-22.094
964	-23.463
964.2	-25.356
964.4	-24.474
964.6	-23.075
964.8	-21.792
965	-21.091
965.2	-21.951
965.5	-22.513
965.7	-21.476
965.9	-21.008
966.1	-22.117
966.3	-20.563
966.5	-18.134
966.7	-20.71
966.9	-20.718
967.1	-22.128
967.3	-22.63
967.5	-21.031
967.7	-21.668
967.9	-20.035
968.1	-18.643
968.3	-16.026
968.5	-17.636
968.7	-16.052
968.9	-15.536
969.1	-14.962
969.3	-12.692
969.5	-12.073
969.7	-11.564
969.9	-9.124
970.2	-8.57
970.4	-7.846
970.6	-7.163
970.8	-8.2
971	-7.551
971.2	-6.854
971.4	-7.02
971.6	-5.767
971.8	-5.27
972	-6.989
972.2	-5.764
972.4	-5.575
972.6	-7.14
972.8	-8.577
973	-7.227
973.2	-6.793
973.4	-7.28
973.6	-7.857
973.8	-9.184
974	-8.193
974.2	-8.807
974.4	-11.089
974.6	-12.262
974.8	-11.858
975	-11.308
975.2	-12.847
975.5	-12.945
975.7	-12.243
975.9	-10.738
976.1	-10.919
976.3	-12.409
976.5	-11.828
976.7	-11.704
976.9	-10.995
977.1	-11.662
977.3	-11.64
977.5	-13.171
977.7	-13.216
977.9	-12.53
978.1	-12.541
978.3	-11.708
978.5	-12.303
978.7	-11.956
978.9	-10.987
979.1	-11.1
979.3	-9.765
979.5	-10.584
979.7	-10.738
979.9	-10.139
980.1	-11.134
980.3	-11.266
980.5	-11.048
980.7	-9.203
980.9	-8.37
981.1	-9.656
981.3	-9.667
981.5	-9.467
981.7	-10.022
981.9	-11.485
982.2	-12.552
982.4	-13.435
982.6	-11.44
982.8	-13.035
983	-13.706
983.2	-14.336
983.4	-13.522
983.6	-14.057
983.8	-12.39
984	-12.624
984.2	-12.13
984.4	-12.518
984.6	-13.895
984.8	-13.933
985	-11.817
985.2	-11.24
985.4	-12.356
985.6	-14.751
985.8	-14.94
986	-13.303
986.2	-12.511
986.4	-11.911
986.6	-10.048
986.8	-11.048
987	-9.739
987.2	-9.95
987.4	-10.01
987.6	-10.244
987.8	-9.961
988	-9.569
988.2	-10.667
988.4	-10.599
988.6	-10.301
988.8	-12.492
989	-11.395
989.2	-12.032
989.4	-10.735
989.6	-11.036
989.8	-11.195
990	-10.87
990.2	-11.485
990.4	-12.896
990.6	-11.172
990.8	-8.807
991	-9.328
991.3	-10.75
991.5	-11.353
991.7	-11.783
991.9	-11.04
992.1	-11.64
992.3	-11.1
992.5	-11.364
992.7	-10.976
992.9	-11.96
993.1	-11.323
993.3	-12.967
993.5	-14.11
993.7	-13.137
993.9	-12.733
994.1	-13.771
994.3	-13.292
994.5	-12.13
994.7	-11.372
994.9	-10.889
995.1	-10.742
995.3	-10.614
995.5	-9.596
995.7	-10.833
995.9	-10.067
996.1	-10.173
996.3	-12.579
996.5	-12.198
996.7	-12.843
996.9	-14.053
997.1	-17.04
997.3	-17.938
997.5	-18.583
997.7	-18.406
997.9	-18.081
998.1	-15.347
998.3	-14.581
998.5	-14.913
998.7	-15.151
998.9	-13.646
999.1	-13.94
999.3	-13.929
999.5	-14.385
999.7	-15.754
999.9	-17.104
1000.1	-18.541
1000.3	-17.866
1000.5	-18.387
1000.7	-18.477
1000.9	-19.292
1001.1	-19.054
1001.3	-18.44
1001.5	-19.484
1001.7	-19.134
1001.9	-19.639
1002.1	-19.786
1002.3	-19.311
1002.5	-19.054
1002.7	-19.605
1002.9	-19.296
1003.1	-19.379
1003.3	-17.712
1003.5	-15.841
1003.7	-16.135
1003.9	-14.551
1004.1	-13.974
1004.3	-15.019
1004.5	-14.167
1004.7	-15.147
1004.9	-16.482
1005.1	-17.052
1005.3	-17.131
1005.5	-17.519
1005.7	-16.626
1005.9	-15.762
1006.1	-13.718
1006.3	-13.337
1006.5	-13.54
1006.7	-13.28
1006.9	-13.393
1007.1	-13.54
1007.3	-14.159
1007.5	-13.224
1007.7	-12.764
1007.9	-14.084
1008.1	-13.012
1008.3	-13.699
1008.5	-14.17
1008.7	-10.916
1008.9	-10.553
1009.1	-10.067
1009.3	-11.481
1009.5	-11.636
1009.7	-13.111
1009.9	-12.383
1010.1	-15.015
1010.3	-13.439
1010.5	-15.2
1010.7	-16.58
1010.9	-16.886
1011.1	-16.467
1011.3	-16.433
1011.5	-16.754
1011.7	-16.607
1011.9	-17.482
1012.1	-15.849
1012.3	-16.595
1012.5	-16.06
1012.7	-16.663
1012.9	-16.501
1013.1	-17.576
1013.3	-17.033
1013.5	-16.678
1013.7	-17.455
1013.9	-18.251
1014.1	-17.399
1014.3	-17.979
1014.5	-18.21
1014.7	-17.783
1014.9	-20.891
1015.1	-19.262
1015.3	-20.427
1015.5	-20.834
1015.7	-21.374
1015.9	-20.046
1016.1	-21.268
1016.3	-19.356
1016.5	-21.642
1016.7	-20.001
1016.9	-20.597
1017.1	-21.747
1017.3	-22.905
1017.5	-22.743
1017.7	-22.547
1017.9	-22.656
1018.1	-22.019
1018.3	-22.55
1018.5	-23.335
1018.7	-23.569
1018.9	-23.109
1019.1	-24.772
1019.2	-25.247
1019.4	-25.613
1019.6	-26.02
1019.8	-26.752
1020	-25.813
1020.2	-25.998
1020.4	-23.508
1020.6	-23.803
1020.8	-24.994
1021	-23.603
1021.2	-24.851
1021.4	-23.633
1021.6	-20.97
1021.8	-20.001
1022	-20.963
1022.2	-19.65
1022.4	-18.866
1022.6	-19.541
1022.8	-20.299
1023	-20.574
1023.2	-18.564
1023.4	-17.851
1023.6	-18.817
1023.8	-16.444
1024	-16.26
1024.2	-17.791
1024.4	-17.482
1024.6	-17.418
1024.8	-18.632
1025	-17.58
1025.2	-16.678
1025.4	-13.68
1025.6	-13.39
1025.8	-13.341
1026	-12.401
1026.2	-12.447
1026.4	-12.824
1026.6	-14.785
1026.8	-12.828
1027	-12.111
1027.2	-12.198
1027.4	-12.368
1027.6	-11.983
1027.8	-13.642
1028	-14.996
1028.1	-13.857
1028.3	-15.253
1028.5	-17.742
1028.7	-17.678
1028.9	-19.224
1029.1	-18.839
1029.3	-19.56
1029.5	-19.311
1029.7	-19.179
1029.9	-21.728
1030.1	-19.179
1030.3	-18.485
1030.5	-17.599
1030.7	-17.323
1030.9	-14.77
1031.1	-15.769
1031.3	-16.214
1031.5	-17.033
1031.7	-17.531
1031.9	-17.236
1032.1	-17.866
1032.3	-18.673
1032.5	-18.839
1032.7	-20.612
1032.9	-22.283
1033.1	-22.377
1033.3	-22.324
1033.5	-22.045
1033.7	-23.516
1033.9	-23.659
1034.1	-23.195
1034.3	-22.513
1034.4	-22.475
1034.6	-21.777
1034.8	-19.669
1035	-18.489
1035.2	-18.176
1035.4	-17.595
1035.6	-18.081
1035.8	-18.036
1036	-17.104
1036.2	-20.212
1036.4	-20.363
1036.6	-22.045
1036.8	-22.573
1037	-23.746
1037.2	-24.014
1037.4	-24.214
1037.6	-26.273
1037.8	-25.5
1038	-26.454
1038.2	-26.182
1038.4	-26.759
1038.6	-24.953
1038.8	-22.962
1039	-21.543
1039.2	-21.958
1039.4	-22.664
1039.5	-21.645
1039.7	-21.31
1039.9	-19.854
1040.1	-20.499
1040.3	-21.129
1040.5	-19.684
1040.7	-20.733
1040.9	-22.215
1041.1	-23.437
1041.3	-23.493
1041.5	-25.526
1041.7	-24.557
1041.9	-24.742
1042.1	-25.756
1042.3	-25.081
1042.5	-24.558
1042.7	-24.487
1042.9	-24.318
1043.1	-24.796
1043.3	-24.559
1043.5	-23.709
1043.7	-22.418
1043.8	-23.181
1044	-22.031
1044.2	-22.107
1044.4	-20.454
1044.6	-22.08
1044.8	-23.107
1045	-24.949
1045.2	-24.581
