Data from FLMT021711__2__16-27-56-114.txt Node

Date: Tue Nov 05 16:27:56 CET 2024
User: Etudiants TP
Spectrometer: FLMT02171
Trigger mode: 0
Integration Time (sec): 1,000000E-1
Scans to average: 5
Electric dark correction enabled: true
Nonlinearity correction enabled: false
Boxcar width: 15
XAxis mode: Wavelengths
Number of Pixels in Spectrum: 3648
>>>>>Begin Spectral Data<<<<<
194,658	-48,91
194,923	-46,31
195,188	-40,06
195,453	-37,15
195,717	-32,64
195,982	-31,51
196,247	-30,91
196,512	-33,6
196,777	-31,9
197,042	-31,78
197,307	-31,86
197,572	-28,92
197,837	-28,1
198,101	-26,15
198,366	-24,08
198,631	-23,02
198,896	-18,38
199,161	-13,89
199,425	-8,84
199,69	-1,58
199,955	-0,57
200,22	-3,63
200,484	-3,49
200,749	-3,26
201,014	-1,1
201,278	-0,73
201,543	-0,41
201,807	-0,37
202,072	1,79
202,337	2,48
202,601	2,03
202,866	0,83
203,13	1,47
203,395	-0,31
203,659	-0,98
203,924	-3,08
204,189	-2,62
204,453	-1,86
204,717	0,7
204,982	0,13
205,246	1,43
205,511	2,46
205,775	1,93
206,04	5,39
206,304	5,87
206,568	6,4
206,833	6,43
207,097	6,94
207,361	8,34
207,626	10,3
207,89	11,14
208,154	11,38
208,419	13,41
208,683	14,1
208,947	16,38
209,211	15,05
209,476	16,11
209,74	16,63
210,004	16,65
210,268	15,83
210,532	18,1
210,796	18,56
211,061	19,15
211,325	19,57
211,589	16,98
211,853	16,69
212,117	17,7
212,381	17,86
212,645	18,21
212,909	19,13
213,173	17,74
213,437	17,78
213,701	19,47
213,965	19,5
214,229	15,39
214,493	14,05
214,757	13,55
215,021	13,54
215,285	16,57
215,549	18,6
215,813	16,77
216,077	16,6
216,34	17,92
216,604	16,21
216,868	16,25
217,132	16,35
217,396	16,54
217,659	16,3
217,923	13,74
218,187	14,18
218,451	13,68
218,714	11,6
218,978	11,59
219,242	14,09
219,505	14,61
219,769	17,03
220,033	17,97
220,296	18,22
220,56	19,46
220,824	17,85
221,087	17,34
221,351	17,87
221,614	18,21
221,878	17,9
222,142	18,01
222,405	18,53
222,669	20,78
222,932	18,93
223,196	16,59
223,459	14,61
223,722	14,28
223,986	14,52
224,249	13,09
224,513	12,75
224,776	13,58
225,04	13,1
225,303	12,96
225,566	11,98
225,83	12,72
226,093	15,3
226,356	13,73
226,62	11,73
226,883	13,75
227,146	13,75
227,409	12,21
227,673	11,26
227,936	10,58
228,199	10,31
228,462	9,11
228,725	8,39
228,989	8,54
229,252	10,03
229,515	14,28
229,778	14,47
230,041	13,79
230,304	11,85
230,567	11,86
230,83	10,14
231,093	11,05
231,356	13,32
231,619	16,57
231,882	16,5
232,145	17,29
232,408	17,35
232,671	16,93
232,934	16,81
233,197	16,07
233,46	14,88
233,723	15,72
233,986	14,48
234,249	11,85
234,512	11,99
234,775	15,87
235,037	14,53
235,3	15,3
235,563	15,02
235,826	15,47
236,089	16,93
236,351	16,67
236,614	19,05
236,877	19,06
237,14	21,1
237,402	18,91
237,665	13,78
237,928	12,77
238,19	11,3
238,453	13,3
238,716	12,93
238,978	13,65
239,241	12,41
239,503	12,8
239,766	10,21
240,029	8,34
240,291	10,9
240,554	10,73
240,816	10,44
241,079	10,57
241,341	10,78
241,604	9,98
241,866	8,55
242,129	8
242,391	9,95
242,653	10,43
242,916	9,51
243,178	8,43
243,441	8,63
243,703	8,64
243,965	6,7
244,228	6,24
244,49	6,53
244,752	5,72
245,015	5,91
245,277	7,07
245,539	8,21
245,801	10,39
246,064	9,45
246,326	9,2
246,588	8,72
246,85	10,39
247,112	10,22
247,374	12,51
247,637	13,18
247,899	11,86
248,161	12,84
248,423	9,7
248,685	8,99
248,947	8,86
249,209	7,65
249,471	8,92
249,733	10,21
249,995	9,92
250,257	10,4
250,519	9,58
250,781	11,95
251,043	10,39
251,305	12,26
251,567	13,3
251,829	13,27
252,091	13,57
252,353	11,67
252,615	11,89
252,876	10,54
253,138	9,8
253,4	7,03
253,662	7,36
253,924	7,54
254,185	9,62
254,447	9,75
254,709	10,57
254,971	11,59
255,232	11,65
255,494	9,76
255,756	9,95
256,017	11,09
256,279	11,6
256,541	10,97
256,802	12,13
257,064	12,99
257,326	13,67
257,587	13,1
257,849	13,98
258,11	15,25
258,372	15,52
258,633	15,63
258,895	15,33
259,156	14,76
259,418	14,24
259,679	11,04
259,941	9,55
260,202	12,07
260,464	13,5
260,725	11,81
260,987	12,58
261,248	11,53
261,509	12,61
261,771	10,39
262,032	12,34
262,293	10,45
262,555	10,81
262,816	8,2
263,077	6,59
263,338	5,59
263,6	7,11
263,861	5,46
264,122	5,52
264,383	6,31
264,645	8,06
264,906	6,79
265,167	6,82
265,428	6,61
265,689	7,1
265,95	4,9
266,211	5,61
266,473	4,85
266,734	1,36
266,995	-2,29
267,256	-1,74
267,517	-0,74
267,778	2,7
268,039	3,76
268,3	1,57
268,561	-0,01
268,822	3,08
269,083	1,39
269,344	1,04
269,604	0,67
269,865	1,52
270,126	-1,51
270,387	1,42
270,648	1,82
270,909	2,79
271,17	3,34
271,43	1,97
271,691	-0,7
271,952	-1,08
272,213	-1,04
272,473	-3,05
272,734	-2,97
272,995	-1,88
273,256	-1,3
273,516	0,55
273,777	-0,57
274,038	0,67
274,298	-1,71
274,559	-1,91
274,82	2,78
275,08	4,61
275,341	5,37
275,601	5,18
275,862	2,7
276,122	4
276,383	4,7
276,643	5,67
276,904	4,18
277,164	5,49
277,425	5,15
277,685	6,91
277,946	7,69
278,206	8,19
278,467	7,29
278,727	7,34
278,987	6,43
279,248	4,42
279,508	5,74
279,768	7,89
280,029	8,73
280,289	6,94
280,549	7,33
280,81	8,13
281,07	7,27
281,33	8,77
281,59	5,91
281,851	6,21
282,111	5,86
282,371	5,19
282,631	7,71
282,891	6,31
283,151	5,79
283,412	4,64
283,672	2,53
283,932	3,32
284,192	3,73
284,452	2,06
284,712	2,06
284,972	1,15
285,232	0,98
285,492	3,38
285,752	1,54
286,012	5,61
286,272	7,3
286,532	6,09
286,792	4,94
287,052	6,72
287,312	8,39
287,571	6,74
287,831	6,04
288,091	4,25
288,351	6,39
288,611	8,14
288,871	6,25
289,13	7,29
289,39	4,02
289,65	5,81
289,91	5,32
290,17	7,54
290,429	9,87
290,689	7,21
290,949	5,92
291,208	7,26
291,468	9,37
291,728	12,99
291,987	14,1
292,247	13,39
292,506	15,57
292,766	16,11
293,026	15,44
293,285	15,69
293,545	17,26
293,804	17,4
294,064	14,1
294,323	12,58
294,583	13,56
294,842	15,54
295,102	16,04
295,361	15,64
295,621	16,99
295,88	18,04
296,139	18,18
296,399	18,33
296,658	14,4
296,917	15,53
297,177	13,11
297,436	13,99
297,695	13,02
297,955	13,7
298,214	12,28
298,473	13,7
298,732	15,42
298,992	17,67
299,251	16,02
299,51	14,22
299,769	13,1
300,028	11,99
300,287	11,73
300,547	10,73
300,806	9,97
301,065	12,96
301,324	13,64
301,583	10,84
301,842	8,5
302,101	8,58
302,36	9,11
302,619	8,16
302,878	8,19
303,137	5,99
303,396	6,74
303,655	7,19
303,914	4,89
304,173	5,45
304,432	4,5
304,691	7,62
304,95	6,05
305,208	9,68
305,467	9,93
305,726	9,39
305,985	10,27
306,244	11,59
306,503	11,26
306,761	9,87
307,02	7,29
307,279	7,79
307,537	8,12
307,796	5,78
308,055	4,21
308,314	4,68
308,572	3,72
308,831	4,86
309,09	4,34
309,348	5,11
309,607	4,94
309,865	7,87
310,124	6,62
310,382	7,38
310,641	9,19
310,9	8,12
311,158	8,82
311,417	9,37
311,675	9,77
311,933	10,57
312,192	11,92
312,45	11,52
312,709	11,53
312,967	11,14
313,226	10,41
313,484	10,65
313,742	11,74
314,001	11,11
314,259	8,8
314,517	9,03
314,776	10
315,034	12,32
315,292	11,75
315,55	9,5
315,809	9,86
316,067	10,34
316,325	8,97
316,583	10,49
316,841	9,44
317,1	7,76
317,358	5,38
317,616	5,21
317,874	4,42
318,132	4,33
318,39	4,51
318,648	2,06
318,906	2,03
319,164	2,17
319,422	0,32
319,68	-1,6
319,938	-2,09
320,196	-2,33
320,454	-2,13
320,712	-2,6
320,97	-2,16
321,228	-2,88
321,486	-2,37
321,744	-1,74
322,002	-1,58
322,26	-1,27
322,517	-1,13
322,775	-1,85
323,033	-2,18
323,291	-0,28
323,549	1,75
323,806	2,9
324,064	4,29
324,322	4,72
324,58	3,81
324,837	5,78
325,095	3,61
325,353	4,15
325,61	5,61
325,868	4,72
326,126	6,07
326,383	4,67
326,641	3,49
326,898	4,95
327,156	4,34
327,413	4,92
327,671	6,95
327,928	9,89
328,186	9,88
328,443	8,86
328,701	11,96
328,958	12,79
329,216	13,48
329,473	12,2
329,731	10,68
329,988	11,09
330,245	12,73
330,503	13,72
330,76	12,46
331,017	13,87
331,275	12,41
331,532	12,71
331,789	11,31
332,047	10,69
332,304	8,08
332,561	8,2
332,818	5,44
333,076	9,07
333,333	9,49
333,59	9,13
333,847	10,14
334,104	9,58
334,361	9,03
334,618	9,46
334,876	7,67
335,133	7,77
335,39	7,07
335,647	7,54
335,904	4,44
336,161	2,95
336,418	3,85
336,675	0,18
336,932	0,31
337,189	-1,73
337,446	-2,04
337,703	-2,95
337,96	-5,92
338,216	-6,04
338,473	-8,79
338,73	-7,87
338,987	-9,19
339,244	-7,02
339,501	-8,82
339,757	-7,77
340,014	-7,45
340,271	-4,51
340,528	-4,38
340,785	0,56
341,041	-0,78
341,298	-1,04
341,555	-0,62
341,811	0,45
342,068	-1,95
342,325	-1,74
342,581	1,75
342,838	2,77
343,094	3,25
343,351	3,91
343,608	2,97
343,864	5,3
344,121	6,38
344,377	6,47
344,634	5,73
344,89	4,7
345,147	4,23
345,403	4,72
345,66	5,52
345,916	7,04
346,172	5,82
346,429	5,24
346,685	4,41
346,942	3,34
347,198	1,08
347,454	2,26
347,711	2,16
347,967	-0,02
348,223	-0,4
348,48	0,12
348,736	1,52
348,992	2,13
349,248	2,53
349,504	2,06
349,761	1,15
350,017	2,2
350,273	2,76
350,529	0,51
350,785	0,13
351,041	0,28
351,297	0,92
351,554	-0,2
351,81	-1,69
352,066	-3,29
352,322	-2,98
352,578	-1,42
352,834	-1,73
353,09	-1,5
353,346	-1,62
353,602	-3,23
353,858	-2,89
354,114	-3,33
354,369	-2,47
354,625	-0,05
354,881	-0,02
355,137	1,24
355,393	0,57
355,649	0,98
355,905	1,73
356,16	3
356,416	3,22
356,672	-1,24
356,928	-3,29
357,183	-3,48
357,439	-4,08
357,695	-5,37
357,951	-1,27
358,206	-2,16
358,462	-1,66
358,718	-1,8
358,973	-1,45
359,229	-1,71
359,484	-1,96
359,74	-1,69
359,996	-0,85
360,251	-0,15
360,507	-0,22
360,762	-0,14
361,018	2,49
361,273	1,69
361,529	5,48
361,784	4,67
362,04	5,76
362,295	6,4
362,55	6,76
362,806	8,91
363,061	8,97
363,316	9,95
363,572	9,62
363,827	11,51
364,082	8,25
364,338	8,33
364,593	6,87
364,848	9,53
365,104	9,29
365,359	11,14
365,614	12,51
365,869	9,82
366,124	10,36
366,38	8,97
366,635	9,97
366,89	10,62
367,145	10,64
367,4	14,43
367,655	15,86
367,91	17,09
368,165	16,57
368,42	13,21
368,675	15,23
368,93	15,79
369,185	14,01
369,44	11,32
369,695	13,19
369,95	12,21
370,205	12,78
370,46	11,27
370,715	9,58
370,97	9,4
371,225	9,35
371,48	10,95
371,734	9,92
371,989	12
372,244	10,86
372,499	11,84
372,754	10,86
373,008	8,55
373,263	5,46
373,518	6,67
373,773	5,78
374,027	5,15
374,282	7,51
374,537	6,55
374,791	7,34
375,046	6,65
375,301	4,66
375,555	3,06
375,81	3,35
376,064	2,99
376,319	6,25
376,573	5,1
376,828	2,05
377,082	6,09
377,337	5,76
377,591	4,61
377,846	5,24
378,1	4,75
378,355	5,07
378,609	5,63
378,863	3,75
379,118	4,72
379,372	3,67
379,627	3,38
379,881	1,83
380,135	1,8
380,389	2,72
380,644	3,05
380,898	4,74
381,152	5,52
381,407	5,73
381,661	6,88
381,915	8,53
382,169	8,28
382,423	7,99
382,677	5,63
382,932	5,19
383,186	6,06
383,44	6,66
383,694	8,71
383,948	8,29
384,202	7,96
384,456	9,02
384,71	10,03
384,964	8,85
385,218	9,78
385,472	9,18
385,726	8,83
385,98	8,39
386,234	7,91
386,488	6,05
386,742	7,68
386,996	6,05
387,249	6,78
387,503	7,73
387,757	8,83
388,011	10,45
388,265	10,27
388,518	10,26
388,772	11,59
389,026	12,77
389,28	10,66
389,533	9,78
389,787	10,28
390,041	8,77
390,295	9,29
390,548	8,97
390,802	11,64
391,055	11,27
391,309	11,58
391,563	9,4
391,816	10
392,07	9,61
392,323	11
392,577	12,47
392,83	13,72
393,084	18,18
393,337	20,34
393,591	20,34
393,844	21,97
394,098	24,73
394,351	27,54
394,604	28,04
394,858	29,03
395,111	28,89
395,364	27,74
395,618	29,45
395,871	26,91
396,124	26,47
396,378	26,68
396,631	25,85
396,884	23,45
397,137	23,23
397,391	23,95
397,644	22,56
397,897	22,24
398,15	22,36
398,403	24,15
398,657	22,03
398,91	21,05
399,163	20,69
399,416	19,85
399,669	19,5
399,922	18,56
400,175	20,44
400,428	25,88
400,681	33,11
400,934	38,61
401,187	49,47
401,44	58,52
401,693	62,11
401,946	63,56
402,199	62,61
402,452	62,91
402,704	61,69
402,957	62,06
403,21	63,64
403,463	62,68
403,716	65,26
403,969	68,1
404,221	67,86
404,474	69,98
404,727	73,18
404,98	74,68
405,232	76,31
405,485	77,93
405,738	80,51
405,99	81,53
406,243	82,32
406,496	84,94
406,748	84,64
407,001	83,45
407,253	85,13
407,506	84,95
407,759	85,43
408,011	80,61
408,264	74,21
408,516	66,82
408,769	57,29
409,021	47,34
409,274	39,39
409,526	36,61
409,778	33,21
410,031	34,73
410,283	34,04
410,536	36,3
410,788	34,47
411,04	34,41
411,293	35,74
411,545	36,26
411,797	34,55
412,049	34,73
412,302	33,75
412,554	34,89
412,806	34,29
413,058	33,01
413,311	33,16
413,563	32,51
413,815	32,78
414,067	32,03
414,319	31,05
414,571	32,65
414,823	32,24
415,075	31,92
415,328	33,07
415,58	36,11
415,832	38,45
416,084	39,88
416,336	38,72
416,588	41,51
416,84	39,8
417,091	40,88
417,343	37,4
417,595	39,38
417,847	40,73
418,099	42,76
418,351	43,02
418,603	44,77
418,855	45,76
419,106	45,4
419,358	45,57
419,61	46,04
419,862	47,44
420,114	48,6
420,365	48,02
420,617	49,65
420,869	48,59
421,12	48,71
421,372	48,93
421,624	49,39
421,875	50,6
422,127	50,09
422,379	50,56
422,63	54,07
422,882	52,78
423,133	53,88
423,385	54,89
423,636	55,3
423,888	57,04
424,139	60,31
424,391	58,68
424,642	58,65
424,894	58,75
425,145	60,83
425,396	59,33
425,648	60,41
425,899	58,98
426,151	60,05
426,402	61,31
426,653	62,39
426,905	61,54
427,156	60,83
427,407	61,53
427,658	61,87
427,91	60,4
428,161	60,66
428,412	62,39
428,663	64,37
428,914	65,4
429,166	68,03
429,417	68,41
429,668	68,68
429,919	68,32
430,17	68,88
430,421	70,51
430,672	75,33
430,923	76,32
431,174	83,48
431,425	109,06
431,676	147,42
431,927	193,62
432,178	253,69
432,429	314,19
432,68	358,91
432,931	394,53
433,182	422,17
433,433	437,63
433,683	449,48
433,934	455,04
434,185	457,06
434,436	457,45
434,687	461,87
434,937	464,44
435,188	464,61
435,439	465,13
435,69	467,38
435,94	467,76
436,191	468,71
436,442	468,95
436,692	469,19
436,943	467,12
437,194	466,44
437,444	467,89
437,695	469,9
437,945	469,27
438,196	468,26
438,447	466,35
438,697	465,61
438,948	456,66
439,198	429,97
439,449	389,31
439,699	341,84
439,949	284,41
440,2	224,77
440,45	181,7
440,701	148,22
440,951	122,14
441,201	106,3
441,452	95,75
441,702	89,43
441,952	88,42
442,203	88,02
442,453	85,75
442,703	85,06
442,953	85,66
443,204	85,19
443,454	83,72
443,704	84,09
443,954	82,11
444,204	82,94
444,455	82,83
444,705	85,25
444,955	86,01
445,205	85,29
445,455	84,95
445,705	86,49
445,955	85,7
446,205	85,79
446,455	87,5
446,705	88,68
446,955	89,36
447,205	89,89
447,455	91,38
447,705	89,84
447,955	89,69
448,205	89,86
448,454	89,14
448,704	90,91
448,954	89,92
449,204	89,85
449,454	90,15
449,704	89,62
449,953	89,49
450,203	89,55
450,453	87,53
450,703	88,07
450,952	86,64
451,202	86,97
451,452	86,5
451,701	88,72
451,951	90,41
452,201	90,91
452,45	89,8
452,7	90,16
452,949	89,5
453,199	88,87
453,448	89,91
453,698	91,5
453,947	90,55
454,197	89,14
454,446	88,46
454,696	90,25
454,945	90,93
455,195	89,98
455,444	90,69
455,693	93,42
455,943	91,71
456,192	92,68
456,442	91,86
456,691	91,26
456,94	91,14
457,189	91,28
457,439	92,03
457,688	92,4
457,937	92,17
458,186	93,29
458,436	93,93
458,685	96,39
458,934	96,96
459,183	97,2
459,432	96,99
459,681	97,34
459,93	96,34
460,179	95,59
460,429	96,37
460,678	98,14
460,927	99,75
461,176	98,34
461,425	97,97
461,674	100,06
461,923	99,33
462,172	99,49
462,42	98,97
462,669	101,13
462,918	100,76
463,167	100,7
463,416	98,73
463,665	100,15
463,914	100,39
464,162	99,37
464,411	100,74
464,66	102,42
464,909	100,88
465,158	99,74
465,406	99,47
465,655	101,71
465,904	103,18
466,152	102,24
466,401	101,42
466,65	102,64
466,898	101,54
467,147	99,64
467,395	98,84
467,644	100,14
467,893	99,76
468,141	98,73
468,39	97,25
468,638	95,91
468,887	95,49
469,135	93,36
469,384	93,04
469,632	94,02
469,88	93,34
470,129	92,93
470,377	90,01
470,626	91,05
470,874	91,15
471,122	91,29
471,371	90,67
471,619	89,84
471,867	90,94
472,115	89,6
472,364	87,86
472,612	91,65
472,86	89,74
473,108	90,69
473,356	89,52
473,605	88,48
473,853	86,11
474,101	86,09
474,349	84,98
474,597	86,93
474,845	85,7
475,093	84,49
475,341	82,93
475,589	83,11
475,837	84,01
476,085	85,55
476,333	84,86
476,581	85,2
476,829	86,46
477,077	88,22
477,325	87,58
477,573	90,4
477,821	91,77
478,069	94,07
478,317	96,62
478,564	101,21
478,812	102,75
479,06	104,35
479,308	105,03
479,555	109,22
479,803	112,23
480,051	117,56
480,299	121,4
480,546	128,49
480,794	132,73
481,042	140,67
481,289	149,43
481,537	161,13
481,784	170,24
482,032	182,08
482,28	193,42
482,527	206,7
482,775	220,35
483,022	235,13
483,27	249,96
483,517	265,66
483,765	278,21
484,012	291,58
484,259	303,5
484,507	317,8
484,754	329,75
485,002	342,62
485,249	351,41
485,496	362,62
485,744	370,74
485,991	379,33
486,238	385,83
486,486	395,71
486,733	402,57
486,98	413,15
487,227	418,81
487,474	424,91
487,722	429,8
487,969	432,5
488,216	436,58
488,463	439,29
488,71	438,77
488,957	437
489,204	434,65
489,451	431,3
489,699	426,94
489,946	419,84
490,193	413,22
490,44	405,81
490,687	397,31
490,934	388,07
491,18	375,61
491,427	368,84
491,674	364,03
491,921	355,93
492,168	347,21
492,415	337,56
492,662	328,85
492,909	323,06
493,155	314,96
493,402	308,51
493,649	298,85
493,896	292,9
494,142	283,17
494,389	277,46
494,636	268,85
494,883	260,45
495,129	254,69
495,376	247,63
495,623	241,69
495,869	237,08
496,116	230,89
496,362	225,16
496,609	220,91
496,855	217,16
497,102	213,68
497,348	208,57
497,595	204,38
497,841	201,16
498,088	194,67
498,334	189,33
498,581	183,82
498,827	180,09
499,074	175,84
499,32	169,87
499,566	167,88
499,813	162,07
500,059	156,29
500,305	153,12
500,552	147,4
500,798	144,11
501,044	141,85
501,29	137,86
501,537	131,63
501,783	130,48
502,029	128,79
502,275	122,29
502,521	117,63
502,767	114,93
503,013	113,64
503,26	109,52
503,506	103,01
503,752	102,19
503,998	98,71
504,244	97,81
504,49	93,5
504,736	92,08
504,982	89
505,228	88,91
505,474	88
505,72	87,59
505,966	86,36
506,211	87,01
506,457	85,76
506,703	81,42
506,949	79,66
507,195	77,69
507,441	74,94
507,686	75,7
507,932	74,94
508,178	76,56
508,424	72,37
508,669	70,09
508,915	71,22
509,161	74,22
509,406	74,61
509,652	73,81
509,898	77,34
510,143	78,06
510,389	76,57
510,634	73,39
510,88	76,58
511,125	77,53
511,371	75,64
511,616	75,95
511,862	72,32
512,107	70,89
512,353	70,71
512,598	70,31
512,844	67,85
513,089	65,05
513,335	65,22
513,58	65,2
513,825	63,85
514,071	62,37
514,316	62,02
514,561	61,44
514,806	59,33
515,052	61,99
515,297	61,39
515,542	61,83
515,787	59,76
516,033	61,58
516,278	61,42
516,523	59,81
516,768	56,87
517,013	53,58
517,258	53,09
517,503	52,04
517,748	51,44
517,993	51,15
518,238	51,21
518,483	46,61
518,728	46,13
518,973	46,29
519,218	44,96
519,463	46,11
519,708	46,17
519,953	43,38
520,198	43,79
520,443	44,7
520,688	46,24
520,933	45,24
521,177	44,65
521,422	43,68
521,667	46,11
521,912	45,85
522,157	42,08
522,401	43,97
522,646	42,38
522,891	41,67
523,135	40,56
523,38	42,42
523,625	42,05
523,869	43,34
524,114	43,36
524,358	42,46
524,603	43,67
524,848	41,79
525,092	41,46
525,337	44,04
525,581	45,26
525,826	46,88
526,07	47,65
526,315	48,13
526,559	45,77
526,803	44,98
527,048	47,28
527,292	46,93
527,537	47,98
527,781	47,66
528,025	46,8
528,269	47,68
528,514	48,67
528,758	48,69
529,002	49,42
529,247	52,7
529,491	54,45
529,735	60,87
529,979	62,55
530,223	65,97
530,467	65,89
530,712	67,21
530,956	66,81
531,2	69,36
531,444	69,52
531,688	73,82
531,932	75,28
532,176	78,02
532,42	80
532,664	83
532,908	84,18
533,152	85,37
533,396	88,03
533,64	93,09
533,884	97,99
534,128	105,59
534,371	115,14
534,615	124,14
534,859	133,22
535,103	143,66
535,347	155,62
535,59	169,51
535,834	181,59
536,078	199,29
536,322	219,97
536,565	244,74
536,809	270,2
537,053	304,98
537,296	344,35
537,54	392,95
537,784	450,01
538,027	515,97
538,271	583,83
538,514	653,07
538,758	719,78
539,001	785,2
539,245	848,72
539,488	913,13
539,732	972,84
539,975	1033,91
540,219	1092,12
540,462	1145,25
540,706	1201
540,949	1253,43
541,192	1306,15
541,436	1361,12
541,679	1423,09
541,922	1492,01
542,166	1562,42
542,409	1643,95
542,652	1727,56
542,895	1808,7
543,139	1879,26
543,382	1944,81
543,625	1997,52
543,868	2040,89
544,111	2077,03
544,354	2100,44
544,598	2112,86
544,841	2113,53
545,084	2102,43
545,327	2081,16
545,57	2051,02
545,813	2015,42
546,056	1974,1
546,299	1932,61
546,542	1893,4
546,785	1852,9
547,028	1810,73
547,271	1769,62
547,514	1726,01
547,756	1683,66
547,999	1643,78
548,242	1601,94
548,485	1558,34
548,728	1515,36
548,971	1466,03
549,213	1411,7
549,456	1344,68
549,699	1272,59
549,942	1190,46
550,184	1102,76
550,427	1016,64
550,67	940,49
550,912	868
551,155	804,36
551,398	745,77
551,64	688,35
551,883	640,81
552,125	595,83
552,368	557,27
552,61	517,94
552,853	484,1
553,095	450,72
553,338	420,3
553,58	393,6
553,823	366,83
554,065	343,27
554,308	317,38
554,55	294,79
554,792	273,27
555,035	254,62
555,277	236,74
555,519	223,59
555,762	208,5
556,004	196,81
556,246	181,26
556,488	170,66
556,731	157,92
556,973	150,11
557,215	140,69
557,457	133,98
557,699	130,01
557,941	121,5
558,183	113,58
558,426	108,06
558,668	100,26
558,91	95,88
559,152	93,3
559,394	88,36
559,636	85,83
559,878	83,35
560,12	81,65
560,362	79,66
560,604	78,48
560,845	75,18
561,087	73,46
561,329	74,97
561,571	70,29
561,813	69,01
562,055	66,74
562,297	66,06
562,538	64,95
562,78	65,84
563,022	60,83
563,264	60,23
563,505	59,04
563,747	60,28
563,989	58,12
564,23	57,86
564,472	56,18
564,714	56,68
564,955	56,42
565,197	53,42
565,438	54,61
565,68	56,69
565,921	54,87
566,163	55,53
566,404	54,05
566,646	55,19
566,887	55,55
567,129	55,65
567,37	52,58
567,612	53,04
567,853	50,58
568,094	50,22
568,336	49,89
568,577	49,47
568,818	47,91
569,06	46,42
569,301	45,94
569,542	45,69
569,783	46,86
570,025	47,32
570,266	46,8
570,507	48,4
570,748	48,3
570,989	50,3
571,23	50,75
571,472	52,5
571,713	52,23
571,954	52,65
572,195	51,77
572,436	54,27
572,677	58,38
572,918	63,74
573,159	68,9
573,4	75,79
573,641	82,66
573,882	91,32
574,123	95,94
574,364	98,76
574,604	105,15
574,845	111,92
575,086	119,46
575,327	127,76
575,568	136,65
575,809	145,38
576,049	153,94
576,29	160,06
576,531	172,47
576,771	182,63
577,012	193,1
577,253	201,21
577,494	209
577,734	214,97
577,975	222,73
578,215	229,47
578,456	234,12
578,697	242,27
578,937	252,24
579,178	259,89
579,418	269,56
579,659	280,08
579,899	285,05
580,14	293,81
580,38	300,44
580,62	305,55
580,861	311,5
581,101	316,79
581,342	319,69
581,582	320,99
581,822	327,43
582,063	330,96
582,303	335,13
582,543	338,54
582,783	341,34
583,024	343,98
583,264	349,09
583,504	350,82
583,744	358,97
583,984	363,4
584,224	369,59
584,465	374,04
584,705	379,09
584,945	383,74
585,185	387,85
585,425	390,85
585,665	392,18
585,905	392,44
586,145	392,26
586,385	388,72
586,625	387,51
586,865	382,88
587,105	377,81
587,345	376,06
587,585	369,85
587,824	363,57
588,064	358,04
588,304	350,25
588,544	344,72
588,784	341,39
589,024	342,07
589,263	341,79
589,503	341,22
589,743	344
589,982	344,44
590,222	346,36
590,462	342,81
590,701	338,42
590,941	335,37
591,181	327,05
591,42	318,3
591,66	310,71
591,899	303,99
592,139	295,27
592,378	288,6
592,618	281,09
592,857	274,1
593,097	268,95
593,336	265,62
593,576	260,54
593,815	257,55
594,055	255,71
594,294	254,15
594,533	250,91
594,773	248,6
595,012	248,14
595,251	248,57
595,491	248,44
595,73	252,04
595,969	252,37
596,208	250,89
596,447	251,68
596,687	249,27
596,926	244,86
597,165	238,27
597,404	234,04
597,643	226,89
597,882	221,87
598,121	217,29
598,36	214,87
598,599	212,1
598,838	208,7
599,077	203,91
599,316	201,48
599,555	197,62
599,794	194,88
600,033	194,71
600,272	194,54
600,511	192,94
600,75	192,53
600,989	192,62
601,228	191,18
601,466	188,37
601,705	186,95
601,944	187,56
602,183	187,42
602,422	184,32
602,66	180,37
602,899	177,31
603,138	172,76
603,376	169,52
603,615	166,73
603,854	162,19
604,092	159,02
604,331	158,46
604,569	158,18
604,808	158,18
605,047	160,27
605,285	163,62
605,524	167,4
605,762	171,02
606	181,4
606,239	194,85
606,477	212,85
606,716	236,17
606,954	272,55
607,193	321,68
607,431	387,08
607,669	467,81
607,908	558,11
608,146	655,29
608,384	752,52
608,622	841,41
608,861	924,52
609,099	999,27
609,337	1065,63
609,575	1126,03
609,813	1182,44
610,052	1230,07
610,29	1268,54
610,528	1304,48
610,766	1336,8
611,004	1367,97
611,242	1393,69
611,48	1418,25
611,718	1439,55
611,956	1458,88
612,194	1475,51
612,432	1489,77
612,67	1501,07
612,908	1510,42
613,146	1514,31
613,384	1515,25
613,621	1511,1
613,859	1501,4
614,097	1481,5
614,335	1454,23
614,573	1410,41
614,811	1350,27
615,048	1271,92
615,286	1186,37
615,524	1092,97
615,761	998,07
615,999	913,21
616,237	834,13
616,474	764,32
616,712	702,06
616,95	643,73
617,187	592,35
617,425	550,52
617,662	515,07
617,9	480,78
618,137	448,94
618,375	420,06
618,612	393,77
618,85	373,5
619,087	354,6
619,325	336,22
619,562	318,81
619,799	303,94
620,037	291,34
620,274	281,82
620,511	275,74
620,749	267,75
620,986	263,01
621,223	259,51
621,461	258,99
621,698	258,09
621,935	258,05
622,172	256,66
622,409	260,63
622,647	262,04
622,884	263,09
623,121	265,69
623,358	266,56
623,595	268,56
623,832	269,43
624,069	269,72
624,306	271,77
624,543	272,47
624,78	271,81
625,017	272,23
625,254	273,38
625,491	276,35
625,728	276,71
625,965	278,75
626,202	277,46
626,438	277,24
626,675	277,51
626,912	281,08
627,149	282,75
627,386	288,33
627,622	290,94
627,859	294,39
628,096	298,15
628,333	301,01
628,569	302,54
628,806	305,75
629,043	304,32
629,279	301,74
629,516	299,79
629,752	291,88
629,989	288,02
630,225	280,26
630,462	273,79
630,699	267,5
630,935	259,55
631,171	251,87
631,408	244,63
631,644	236,48
631,881	228,83
632,117	222,14
632,354	216,56
632,59	209,2
632,826	202,66
633,063	197,06
633,299	191,12
633,535	183,22
633,771	176,66
634,008	170,37
634,244	160,59
634,48	150,92
634,716	141,03
634,953	129,44
635,189	119,59
635,425	109,25
635,661	101,18
635,897	91,35
636,133	82,03
636,369	74,88
636,605	67,19
636,841	62,51
637,077	60,38
637,313	56,32
637,549	55,39
637,785	52,66
638,021	51,29
638,257	50,23
638,493	51,27
638,729	48,78
638,965	50,81
639,2	51,11
639,436	49,26
639,672	47,91
639,908	47,64
640,144	49,31
640,379	49,97
640,615	47,41
640,851	48,04
641,086	47,18
641,322	46,08
641,558	46,38
641,793	47,93
642,029	44,78
642,264	45,03
642,5	44,45
642,736	41,44
642,971	41,04
643,207	38,8
643,442	36,45
643,678	35,83
643,913	36,95
644,148	34,83
644,384	37,33
644,619	37,83
644,855	39,93
645,09	40,92
645,325	41,17
645,561	42,4
645,796	39,44
646,031	43,95
646,266	41,69
646,502	42,74
646,737	46,45
646,972	47,48
647,207	49,68
647,442	49,3
647,678	49,8
647,913	53,77
648,148	56,27
648,383	57,73
648,618	59,65
648,853	61,85
649,088	64,51
649,323	68,86
649,558	70,27
649,793	72,29
650,028	75,45
650,263	73,19
650,498	76,67
650,733	77,72
650,968	77,92
651,202	79,76
651,437	79,27
651,672	75,46
651,907	74,66
652,142	74,1
652,376	74,36
652,611	74,47
652,846	74,59
653,081	75,89
653,315	73,61
653,55	73,44
653,785	70,08
654,019	68,8
654,254	65,95
654,488	64,83
654,723	61,43
654,958	57,18
655,192	55,28
655,427	51,38
655,661	50,94
655,896	50,56
656,13	49,14
656,364	44,88
656,599	41,82
656,833	41,37
657,068	40,01
657,302	37,93
657,536	36,8
657,771	37,09
658,005	36,53
658,239	37,3
658,474	35
658,708	36,61
658,942	37,56
659,176	36,35
659,41	34,62
659,645	35,68
659,879	37,61
660,113	35,74
660,347	35,45
660,581	34,01
660,815	33,95
661,049	33,36
661,283	31,74
661,517	31,38
661,751	30,68
661,985	28,93
662,219	30,02
662,453	29,19
662,687	30,18
662,921	26,65
663,155	26,54
663,389	22,49
663,622	22,41
663,856	22,95
664,09	21,39
664,324	21,3
664,558	22,03
664,791	21,74
665,025	21,36
665,259	22,09
665,492	20,5
665,726	22,36
665,96	22,13
666,193	20,71
666,427	21,33
666,661	21,05
666,894	17,93
667,128	15,3
667,361	16,15
667,595	14,34
667,828	14,65
668,062	14,02
668,295	15,16
668,529	15,25
668,762	16,07
668,995	15,05
669,229	17,93
669,462	19,03
669,695	19,85
669,929	19,15
670,162	21,1
670,395	19,6
670,629	22,46
670,862	22,82
671,095	20,28
671,328	20,08
671,561	17,9
671,795	17,16
672,028	17,71
672,261	17,16
672,494	17,45
672,727	16,41
672,96	16,9
673,193	13,78
673,426	17,03
673,659	17,34
673,892	16,95
674,125	17,54
674,358	17,05
674,591	16,32
674,824	16,31
675,057	15,25
675,29	14,01
675,523	15,13
675,755	14,62
675,988	15,18
676,221	16,24
676,454	15,23
676,687	15,02
676,919	14,18
677,152	14,15
677,385	12,94
677,617	14,07
677,85	14,19
678,083	13,85
678,315	15,98
678,548	14,83
678,78	14,56
679,013	14,83
679,246	15,28
679,478	16,97
679,711	14,97
679,943	17,18
680,175	15,69
680,408	20,31
680,64	17,24
680,873	17,79
681,105	18,72
681,338	20,81
681,57	22,19
681,802	22,24
682,034	23,03
682,267	25,45
682,499	26,74
682,731	24,89
682,964	23,87
683,196	22,07
683,428	22,23
683,66	22,53
683,892	26,24
684,124	27,9
684,356	30,61
684,589	32,5
684,821	31,6
685,053	32,51
685,285	33,75
685,517	35,68
685,749	36,94
685,981	39,12
686,213	40,74
686,445	40,34
686,676	37,37
686,908	39,02
687,14	37,15
687,372	37,63
687,604	35,02
687,836	36,47
688,068	34,8
688,299	34,13
688,531	33,02
688,763	35,09
688,995	34,51
689,226	35,19
689,458	34,21
689,69	34,18
689,921	33,18
690,153	34,75
690,384	35,97
690,616	34,9
690,848	34,65
691,079	31,66
691,311	29,72
691,542	26,39
691,774	24,51
692,005	25,32
692,237	25,32
692,468	22,75
692,699	19,99
692,931	19,68
693,162	17,01
693,393	14,8
693,625	13,85
693,856	14,27
694,087	13,07
694,319	14,23
694,55	12,67
694,781	12,55
695,012	12,19
695,243	11,87
695,475	11,14
695,706	10,15
695,937	8,79
696,168	8,29
696,399	7,1
696,63	5,38
696,861	4,16
697,092	8,92
697,323	9,8
697,554	9,54
697,785	9,51
698,016	8,55
698,247	6,34
698,478	6,38
698,709	6,98
698,94	8,16
699,171	7,09
699,401	3,54
699,632	5,24
699,863	3,82
700,094	4,47
700,325	5,33
700,555	7,38
700,786	9,72
701,017	9,42
701,247	10,04
701,478	11,13
701,709	12,72
701,939	11,75
702,17	13,54
702,401	15,26
702,631	16,74
702,862	17,62
703,092	17,84
703,323	22,18
703,553	24,83
703,784	28,86
704,014	32,3
704,244	30,85
704,475	32,83
704,705	36,11
704,936	38,7
705,166	41,96
705,396	46,9
705,627	50,81
705,857	53,96
706,087	58,75
706,317	62,01
706,548	64,15
706,778	66,48
707,008	68,91
707,238	69,88
707,468	71,25
707,698	69,27
707,928	69,72
708,158	72,09
708,389	73,03
708,619	73,3
708,849	73,95
709,079	76,19
709,309	76,46
709,539	78,1
709,768	80,68
709,998	82,18
710,228	81,49
710,458	80,69
710,688	77,95
710,918	77,33
711,148	74,32
711,378	72,88
711,607	69,87
711,837	67,87
712,067	64,92
712,297	62,28
712,526	59,17
712,756	56,54
712,986	51,47
713,215	45,07
713,445	41,99
713,674	40,88
713,904	37,69
714,134	37,66
714,363	35,99
714,593	33,13
714,822	33,11
715,052	30,5
715,281	27,6
715,511	25,17
715,74	22,8
715,969	19,57
716,199	17,95
716,428	15,5
716,657	11,57
716,887	10,56
717,116	6,51
717,345	6,27
717,575	4,4
717,804	3,75
718,033	-0,18
718,262	-0,55
718,492	-1,68
718,721	-2,59
718,95	-3,81
719,179	-4,02
719,408	-4,02
719,637	-6,49
719,866	-8,6
720,095	-6,49
720,324	-7,53
720,553	-9,6
720,782	-10,39
721,011	-10,91
721,24	-11,64
721,469	-13,29
721,698	-12,15
721,927	-11,94
722,156	-12,18
722,385	-12,13
722,613	-9,18
722,842	-9,03
723,071	-6,18
723,3	-4,97
723,529	-5,05
723,757	-4,25
723,986	-6,43
724,215	-6,53
724,443	-6,22
724,672	-5,56
724,901	-4,32
725,129	-2,38
725,358	0,04
725,586	-1,3
725,815	-0,99
726,043	-1,96
726,272	-4,28
726,5	-5,19
726,729	-3,55
726,957	-5,47
727,186	-7,56
727,414	-6,58
727,642	-5,96
727,871	-5,01
728,099	-5,62
728,327	-6,55
728,556	-3,54
728,784	-2,14
729,012	-3,16
729,241	-2,21
729,469	-2,56
729,697	-6,01
729,925	-5,35
730,153	-6,58
730,381	-7,76
730,61	-8,41
730,838	-10,4
731,066	-10,31
731,294	-8,72
731,522	-10,79
731,75	-13,7
731,978	-14,91
732,206	-16
732,434	-16,71
732,662	-15,65
732,89	-17,29
733,118	-17,35
733,346	-16,23
733,573	-15,66
733,801	-15,95
734,029	-9,93
734,257	-8,16
734,485	-5,61
734,712	-4,78
734,94	-6,65
735,168	-3,14
735,396	-2,9
735,623	-4,52
735,851	-5,07
736,078	-4,31
736,306	-2,91
736,534	-2,49
736,761	-0,99
736,989	-2,33
737,216	-3,5
737,444	-3,67
737,671	-3,11
737,899	0,63
738,126	-1,35
738,354	-2,23
738,581	-1,45
738,809	-0,25
739,036	-1,51
739,263	-1,56
739,491	-3,54
739,718	-3,28
739,945	1,1
740,173	2,6
740,4	2,94
740,627	1,58
740,854	0,89
741,081	-2
741,309	-3,67
741,536	-6,5
741,763	-6,81
741,99	-5,26
742,217	-5,36
742,444	-4,2
742,671	-4,47
742,898	-3,52
743,125	-4,75
743,352	-7,67
743,579	-7,86
743,806	-8,64
744,033	-7,43
744,26	-7,19
744,487	-8,38
744,714	-7,88
744,941	-8,5
745,167	-4,46
745,394	-5,86
745,621	-5,91
745,848	-5,63
746,075	-3,04
746,301	0,49
746,528	3,24
746,755	2,83
746,981	1,99
747,208	2,56
747,435	3,39
747,661	4,92
747,888	6,47
748,114	4,86
748,341	8,34
748,567	9,69
748,794	8,05
749,02	7,7
749,247	5,55
749,473	3,11
749,7	4,86
749,926	2,73
750,152	5,99
750,379	7,63
750,605	8,02
750,831	7,95
751,058	6,09
751,284	5,4
751,51	7,73
751,737	9,35
751,963	8,39
752,189	6,4
752,415	8,11
752,641	7,72
752,867	7,29
753,094	6,19
753,32	4,42
753,546	3,35
753,772	3,89
753,998	1,79
754,224	1,1
754,45	2,25
754,676	1,86
754,902	-0,04
755,128	1,14
755,354	-1,74
755,579	-1,31
755,805	0,46
756,031	-0,55
756,257	-1,62
756,483	-2,01
756,709	-4,51
756,934	-3,26
757,16	-6,75
757,386	-6,36
757,612	-8,46
757,837	-8,66
758,063	-6,4
758,289	-3,69
758,514	-5,5
758,74	-8,6
758,965	-10,21
759,191	-8,53
759,416	-8,1
759,642	-5,98
759,868	-5,13
760,093	-2,77
760,318	-3,97
760,544	-3,69
760,769	-3,78
760,995	-2,66
761,22	-3,24
761,445	-3,33
761,671	-2,29
761,896	0,73
762,121	-1,06
762,347	0,49
762,572	-0,56
762,797	-0,92
763,022	-0,79
763,248	2,38
763,473	2,27
763,698	3,49
763,923	3,21
764,148	2,52
764,373	0,55
764,598	1,8
764,823	2,8
765,048	1,05
765,273	-1,75
765,498	-1,49
765,723	-1,34
765,948	-0,13
766,173	-1,11
766,398	-1,25
766,623	-4,09
766,848	-4,81
767,073	-6,96
767,298	-7,41
767,522	-8,99
767,747	-8,67
767,972	-9,11
768,197	-8,27
768,421	-9,28
768,646	-10,84
768,871	-13,3
769,095	-10,03
769,32	-10,64
769,545	-11,64
769,769	-10,34
769,994	-9,65
770,218	-11,57
770,443	-8,77
770,667	-9,18
770,892	-8,34
771,116	-7,01
771,341	-5,55
771,565	-5,28
771,79	-4,2
772,014	-4,38
772,238	-4,57
772,463	-3,07
772,687	-2,6
772,911	-3,71
773,136	-5,5
773,36	-4,69
773,584	-3,75
773,808	-5,4
774,033	-4,53
774,257	-4,96
774,481	-4,61
774,705	-5,27
774,929	-5,5
775,153	-4,53
775,377	-4,55
775,602	-5,58
775,826	-5,09
776,05	-5,05
776,274	-5,88
776,498	-6,19
776,722	-7,31
776,945	-5,36
777,169	-5,58
777,393	-6,59
777,617	-6,43
777,841	-7,11
778,065	-6,29
778,289	-5,76
778,512	-5,59
778,736	-5,72
778,96	-4,6
779,184	-2,37
779,407	-2,49
779,631	-2,26
779,855	-2,16
780,078	-1,17
780,302	-2,19
780,526	-3,86
780,749	-3,05
780,973	-2,92
781,196	-1,09
781,42	-2,27
781,643	-0,75
781,867	-0,14
782,09	-3,04
782,314	-1,93
782,537	-0,99
782,76	-1,33
782,984	-2,19
783,207	-2,82
783,431	-1,52
783,654	-1,82
783,877	-4,07
784,1	-5,58
784,324	-6,15
784,547	-7,82
784,77	-10,47
784,993	-11,35
785,216	-12,54
785,44	-12,87
785,663	-15,21
785,886	-15
786,109	-15,47
786,332	-16,11
786,555	-16,64
786,778	-15,19
787,001	-14,22
787,224	-13,7
787,447	-12,55
787,67	-12,17
787,893	-11,74
788,116	-11,7
788,339	-10,95
788,561	-12,62
788,784	-14,9
789,007	-15,74
789,23	-17,53
789,453	-17,7
789,675	-19,65
789,898	-20,76
790,121	-20,68
790,344	-21,59
790,566	-21,49
790,789	-20,45
791,012	-19,78
791,234	-17,96
791,457	-13,68
791,679	-11,76
791,902	-10,95
792,124	-10,17
792,347	-10,72
792,569	-10,47
792,792	-12,17
793,014	-10,72
793,237	-9,78
793,459	-8,56
793,681	-9,4
793,904	-10,89
794,126	-11,23
794,348	-11,12
794,571	-8,82
794,793	-9,88
795,015	-10,25
795,237	-10,6
795,46	-9,41
795,682	-9,89
795,904	-6,66
796,126	-7,25
796,348	-7,52
796,57	-3,86
796,792	-2,74
797,014	-0,15
797,237	1,33
797,459	3,71
797,681	3,99
797,903	4
798,124	4,69
798,346	11,95
798,568	12,52
798,79	15,18
799,012	16,11
799,234	16,72
799,456	17,5
799,678	19,85
799,899	18,18
800,121	15,91
800,343	14,95
800,565	15,66
800,786	15,83
801,008	16,59
801,23	15,34
801,451	14,9
801,673	13,55
801,895	12,72
802,116	13,7
802,338	14,5
802,559	16,06
802,781	13,73
803,002	15,87
803,224	17,49
803,445	15,66
803,667	16,16
803,888	14,4
804,109	14,99
804,331	13,02
804,552	12,75
804,773	14,76
804,995	11,67
805,216	0,46
805,437	-1,61
805,658	-4,86
805,88	-6,6
806,101	-5,88
806,322	-5,04
806,543	-6,38
806,764	-8,41
806,985	-6,07
807,207	-4,31
807,428	-4,63
807,649	-6,74
807,87	-7,94
808,091	-6,23
808,312	-5,54
808,533	-0,96
808,754	2
808,975	1,35
809,195	2,96
809,416	3,09
809,637	2,98
809,858	2,65
810,079	0,94
810,3	1,93
810,52	1,68
810,741	0,79
810,962	-0,11
811,183	-0,46
811,403	0,13
811,624	-1,05
811,845	0,23
812,065	2,47
812,286	4,11
812,506	4,85
812,727	4,58
812,948	5,07
813,168	5,38
813,389	5,05
813,609	6,88
813,83	5,71
814,05	4,79
814,27	5,05
814,491	9,07
814,711	8,36
814,931	5,88
815,152	3,69
815,372	1,31
815,592	-1,39
815,813	-1,75
816,033	-3,82
816,253	-2,74
816,473	-2,44
816,694	-3,3
816,914	-2,17
817,134	-1,54
817,354	-2,79
817,574	-1,3
817,794	-2,78
818,014	-3,18
818,234	-4,35
818,454	-5,53
818,674	-7,85
818,894	-10,27
819,114	-9,69
819,334	-8,55
819,554	-6,72
819,774	-4,7
819,994	-5,97
820,214	-6,96
820,433	-6,82
820,653	-7,05
820,873	-6,1
821,093	-6,3
821,312	-8,55
821,532	-6,55
821,752	-4,57
821,972	-4,18
822,191	-3,43
822,411	-3,18
822,63	-3,39
822,85	-3,48
823,07	-5,78
823,289	-5,15
823,509	-5,37
823,728	-4,11
823,948	-6,02
824,167	-6,7
824,387	-7,7
824,606	-5,65
824,825	-6,48
825,045	-5,82
825,264	-5,81
825,483	-3,35
825,703	-1,14
825,922	-1,91
826,141	-3,24
826,361	-3,68
826,58	-7,26
826,799	-8,36
827,018	-8,23
827,237	-8,51
827,456	-7,11
827,676	-8,22
827,895	-6,69
828,114	-5,32
828,333	-6,4
828,552	-5,4
828,771	-5,63
828,99	-7,65
829,209	-7,64
829,428	-4,63
829,647	-4,42
829,866	-2,9
830,084	-3,04
830,303	-2,63
830,522	-3,97
830,741	-3,68
830,96	-3,97
831,179	-3,64
831,397	-5,81
831,616	-5,73
831,835	-5,64
832,053	-5
832,272	-5,35
832,491	-5,49
832,709	-6,17
832,928	-5,89
833,147	-5,88
833,365	-4,44
833,584	-1,62
833,802	0,48
834,021	1,65
834,239	2,3
834,458	1,62
834,676	-2,42
834,894	-2,96
835,113	-2,79
835,331	-4,35
835,55	-4,75
835,768	-4,58
835,986	-4
836,204	-6,09
836,423	-5,07
836,641	-7,05
836,859	-7,79
837,077	-8,79
837,296	-8,66
837,514	-9,06
837,732	-9,03
837,95	-9,1
838,168	-6,72
838,386	-7,62
838,604	-6,98
838,822	-6,59
839,04	-7,55
839,258	-7,01
839,476	-5,61
839,694	-5,54
839,912	-5,64
840,13	-6,19
840,348	-4,67
840,566	-6,3
840,783	-6,13
841,001	-7,8
841,219	-5,84
841,437	-3,22
841,655	-2,86
841,872	-3,17
842,09	-3,35
842,308	-1,95
842,525	-1,93
842,743	-1,8
842,961	-2,37
843,178	-5,38
843,396	-2,74
843,613	-3,25
843,831	-1,16
844,048	-1,67
844,266	-1,4
844,483	-2,02
844,701	-3,73
844,918	-3,76
845,136	-2,98
845,353	-4,31
845,57	-4,53
845,788	-1,19
846,005	-2,9
846,222	-4,36
846,439	-2,94
846,657	-3,58
846,874	-2,59
847,091	-5,69
847,308	-4,03
847,526	-5,04
847,743	-4,41
847,96	-6,65
848,177	-7,26
848,394	-9,01
848,611	-9,16
848,828	-9,68
849,045	-11,16
849,262	-11,32
849,479	-10,21
849,696	-10,9
849,913	-10,86
850,13	-14,43
850,347	-11,59
850,564	-12,75
850,78	-12,16
850,997	-13,46
851,214	-12,38
851,431	-10,55
851,647	-12,39
851,864	-10,36
852,081	-8,47
852,298	-9,97
852,514	-12,26
852,731	-10,92
852,948	-9,03
853,164	-9,82
853,381	-8,51
853,597	-10,28
853,814	-11,25
854,03	-14,27
854,247	-12,96
854,463	-13,16
854,68	-12,71
854,896	-11,35
855,113	-9,68
855,329	-9,82
855,545	-8,39
855,762	-8,19
855,978	-10,44
856,194	-12,23
856,411	-9,51
856,627	-8
856,843	-7,07
857,059	-5,41
857,275	-5,23
857,492	-5,76
857,708	-4
857,924	-3,67
858,14	-2,19
858,356	-1,63
858,572	-3,18
858,788	-5,09
859,004	-4,07
859,22	-5,47
859,436	-5,66
859,652	-6,55
859,868	-6,88
860,084	-9,35
860,3	-8,83
860,516	-7,86
860,731	-7,57
860,947	-10,52
861,163	-9,63
861,379	-9,18
861,595	-9,01
861,81	-9,65
862,026	-9,41
862,242	-8,66
862,457	-8,57
862,673	-6,14
862,889	-6,21
863,104	-6,1
863,32	-6,33
863,535	-4,58
863,751	-8,43
863,966	-7,93
864,182	-6,58
864,397	-7,05
864,613	-7,12
864,828	-8,9
865,044	-8,83
865,259	-7,02
865,474	-8,12
865,69	-6,65
865,905	-5,56
866,12	-7,52
866,336	-7,6
866,551	-6,9
866,766	-6,55
866,981	-7,51
867,196	-7,6
867,412	-7,44
867,627	-5,95
867,842	-6,52
868,057	-7,19
868,272	-8,08
868,487	-8,24
868,702	-8,48
868,917	-9,48
869,132	-7,81
869,347	-6,49
869,562	-7,37
869,777	-7,87
869,992	-8,96
870,207	-9,45
870,422	-9,61
870,636	-10,86
870,851	-11,9
871,066	-12,97
871,281	-13,2
871,495	-14,08
871,71	-11,66
871,925	-14,31
872,14	-13,89
872,354	-16,3
872,569	-16,29
872,783	-13,88
872,998	-14,39
873,213	-15,71
873,427	-13,13
873,642	-11,24
873,856	-11,43
874,071	-11,03
874,285	-13,18
874,5	-14,82
874,714	-16,52
874,928	-16,05
875,143	-17,16
875,357	-18,02
875,571	-18,79
875,786	-19,27
876	-19,25
876,214	-17,78
876,429	-19,15
876,643	-17,86
876,857	-17,78
877,071	-16,75
877,285	-16,9
877,499	-18,78
877,714	-16,78
877,928	-14,54
878,142	-15,62
878,356	-17,59
878,57	-17,2
878,784	-15,42
878,998	-15,5
879,212	-15,02
879,426	-17,29
879,639	-16,19
879,853	-16,67
880,067	-18,13
880,281	-19,17
880,495	-17,08
880,709	-15,31
880,922	-14,39
881,136	-13,78
881,35	-11,22
881,564	-12,13
881,777	-12,47
881,991	-11,63
882,205	-8,81
882,418	-8,43
882,632	-10,8
882,845	-10,63
883,059	-10,83
883,273	-10,9
883,486	-11,86
883,7	-10,11
883,913	-10,2
884,126	-8,99
884,34	-11,04
884,553	-13,45
884,767	-9,87
884,98	-10,21
885,193	-10,57
885,407	-11,78
885,62	-9,57
885,833	-7,72
886,046	-6,82
886,26	-7,91
886,473	-7,98
886,686	-7,84
886,899	-7,56
887,112	-8,75
887,326	-9,88
887,539	-8,5
887,752	-7,02
887,965	-8,91
888,178	-7,08
888,391	-6,79
888,604	-6,79
888,817	-9,55
889,03	-9,94
889,243	-9,84
889,455	-12,11
889,668	-11,31
889,881	-10,23
890,094	-10,47
890,307	-12,21
890,52	-11,59
890,732	-10,34
890,945	-10,41
891,158	-11,2
891,37	-12,88
891,583	-12,98
891,796	-11,86
892,008	-13,23
892,221	-14,11
892,434	-17,28
892,646	-17,9
892,859	-18,54
893,071	-16,66
893,284	-15,86
893,496	-15,56
893,709	-15,94
893,921	-15,22
894,133	-15,64
894,346	-16,33
894,558	-16,08
894,771	-17,15
894,983	-14,94
895,195	-14,26
895,407	-13,11
895,62	-13,84
895,832	-13,16
896,044	-11,33
896,256	-12,51
896,468	-14,23
896,681	-12,19
896,893	-12,5
897,105	-12,85
897,317	-13,73
897,529	-12,08
897,741	-11,06
897,953	-9,57
898,165	-9,63
898,377	-10,37
898,589	-8,67
898,801	-8,1
899,013	-7,69
899,224	-5,48
899,436	-3,23
899,648	-3,84
899,86	-3,95
900,072	-2,6
900,283	-1,51
900,495	-1,53
900,707	-0,79
900,919	-3,22
901,13	-1,75
901,342	-3,02
901,554	-4,25
901,765	-4,71
901,977	-6,12
902,188	-7,55
902,4	-7,9
902,611	-8,33
902,823	-8,9
903,034	-9,79
903,246	-11,94
903,457	-12,16
903,669	-12,82
903,88	-13,33
904,091	-13,99
904,303	-13,85
904,514	-15
904,725	-13,67
904,936	-11,82
905,148	-11,39
905,359	-11,14
905,57	-10,13
905,781	-11,58
905,992	-11,85
906,204	-11,51
906,415	-11,43
906,626	-13,63
906,837	-12,9
907,048	-13,7
907,259	-14,62
907,47	-14,82
907,681	-15,54
907,892	-13,41
908,103	-14,4
908,314	-15,46
908,525	-13,41
908,735	-11,32
908,946	-12,19
909,157	-12,58
909,368	-10,78
909,579	-9,33
909,789	-9,68
910	-10,75
910,211	-8,82
910,421	-10,25
910,632	-9,48
910,843	-11,32
911,053	-9,07
911,264	-7,94
911,475	-9,84
911,685	-10,14
911,896	-10,82
912,106	-11,04
912,317	-11,85
912,527	-10,95
912,737	-11,94
912,948	-12,19
913,158	-11,59
913,369	-13,83
913,579	-11,83
913,789	-11,18
914	-8,45
914,21	-7,67
914,42	-7,95
914,63	-6,77
914,841	-6,51
915,051	-6,23
915,261	-7,35
915,471	-5,04
915,681	-4,17
915,891	-4,21
916,101	-4,02
916,311	-3,23
916,521	-2,26
916,731	-1,73
916,941	0,91
917,151	0,55
917,361	3,39
917,571	0,72
917,781	-0,72
917,991	-1,31
918,201	-0,96
918,411	-2,81
918,621	-3,31
918,83	-2,38
919,04	-3,26
919,25	-1,86
919,46	-1,52
919,669	-3,02
919,879	-1,47
920,089	-2,9
920,298	-4,08
920,508	-3,98
920,717	-3,9
920,927	-5,49
921,136	-5,52
921,346	-5,67
921,555	-7,63
921,765	-7,72
921,974	-9,08
922,184	-11,83
922,393	-12,66
922,603	-13,37
922,812	-11,84
923,021	-12,42
923,23	-14,52
923,44	-16,62
923,649	-16,66
923,858	-17,16
924,067	-18
924,277	-18,58
924,486	-17,17
924,695	-18,54
924,904	-15,62
925,113	-15,51
925,322	-13,83
925,531	-14,27
925,74	-16,07
925,949	-16,69
926,158	-15,52
926,367	-16,76
926,576	-15,72
926,785	-15,61
926,994	-16,75
927,203	-15,79
927,412	-15,36
927,621	-16,26
927,83	-14,01
928,038	-14,47
928,247	-14,05
928,456	-13,37
928,665	-11,89
928,873	-11,05
929,082	-9,5
929,291	-9,37
929,499	-8,15
929,708	-8,68
929,916	-6,88
930,125	-7,69
930,333	-8,13
930,542	-6,53
930,75	-4,89
930,959	-5,52
931,167	-5,5
931,376	-6,75
931,584	-5,86
931,793	-6,02
932,001	-6,34
932,209	-7,08
932,418	-8,71
932,626	-10,2
932,834	-11,25
933,042	-13,91
933,251	-13,56
933,459	-13,8
933,667	-15,21
933,875	-16,07
934,083	-14,71
934,291	-14,53
934,499	-14,28
934,707	-14,02
934,915	-15,52
935,123	-13,64
935,331	-14,09
935,539	-16,42
935,747	-18,44
935,955	-19,76
936,163	-19,08
936,371	-19,51
936,579	-17,77
936,787	-18,63
936,995	-19,84
937,202	-21,65
937,41	-21,74
937,618	-21,62
937,826	-22,56
938,033	-26,29
938,241	-28,37
938,449	-25,8
938,656	-24,66
938,864	-24,2
939,071	-22,59
939,279	-20,41
939,486	-17,78
939,694	-17,92
939,901	-18,09
940,109	-17,7
940,316	-16,37
940,524	-17,06
940,731	-18,1
940,939	-16,04
941,146	-17,18
941,353	-17,68
941,561	-18,62
941,768	-18,8
941,975	-18,3
942,182	-17,21
942,39	-15,28
942,597	-13,09
942,804	-12,92
943,011	-13,66
943,218	-12,41
943,425	-11,22
943,632	-11,73
943,839	-11,48
944,046	-12,71
944,253	-12,1
944,46	-10,49
944,667	-8,16
944,874	-10,31
945,081	-8,64
945,288	-7,44
945,495	-6,51
945,702	-6,35
945,909	-8,48
946,115	-7,81
946,322	-8,16
946,529	-8,86
946,736	-9,6
946,942	-9,23
947,149	-9,23
947,356	-10,21
947,562	-10,56
947,769	-8,76
947,976	-9,22
948,182	-8,59
948,389	-8,65
948,595	-8,83
948,802	-9,36
949,008	-10,58
949,215	-10,21
949,421	-11,46
949,628	-12,52
949,834	-12,79
950,04	-12,77
950,247	-9,26
950,453	-8,15
950,659	-9,2
950,865	-6,59
951,072	-9,6
951,278	-8,94
951,484	-9,78
951,69	-12,13
951,896	-13,85
952,103	-15,28
952,309	-14,07
952,515	-15,28
952,721	-14,87
952,927	-14,42
953,133	-15,39
953,339	-15,42
953,545	-16,17
953,751	-15,94
953,957	-14,21
954,163	-15,68
954,369	-16,07
954,574	-17,34
954,78	-17,66
954,986	-16,32
955,192	-14,32
955,398	-14,65
955,603	-16,07
955,809	-14,23
956,015	-13,22
956,22	-13,31
956,426	-12,07
956,632	-15,1
956,837	-14,23
957,043	-13,38
957,248	-14,01
957,454	-13,35
957,66	-14,37
957,865	-14,69
958,07	-13,41
958,276	-13,31
958,481	-12,78
958,687	-13,72
958,892	-11,46
959,097	-10,43
959,303	-9,88
959,508	-10,21
959,713	-10,49
959,919	-10,89
960,124	-11,07
960,329	-10,66
960,534	-9,13
960,739	-7,72
960,945	-6,99
961,15	-7,02
961,355	-8,64
961,56	-12
961,765	-12,45
961,97	-12,75
962,175	-12,52
962,38	-15,05
962,585	-15,33
962,79	-16,57
962,995	-16,85
963,2	-17,62
963,404	-16,32
963,609	-18,61
963,814	-20,02
964,019	-20,24
964,224	-22,43
964,428	-20,74
964,633	-19,78
964,838	-20,07
965,042	-19,29
965,247	-21,87
965,452	-21,79
965,656	-21,16
965,861	-19,43
966,066	-20,7
966,27	-18,65
966,475	-15,74
966,679	-19,19
966,884	-16,93
967,088	-18,86
967,292	-19,13
967,497	-18,53
967,701	-19,27
967,906	-17,23
968,11	-16,02
968,314	-13,54
968,518	-13,49
968,723	-11,05
968,927	-10,14
969,131	-9,15
969,335	-8,66
969,539	-8,73
969,744	-8,76
969,948	-5,8
970,152	-4,03
970,356	-3,5
970,56	-2,68
970,764	-4,78
970,968	-3,15
971,172	-2,44
971,376	-2,65
971,58	-1,42
971,784	-1,34
971,988	-3,41
972,192	-1,6
972,395	-1,66
972,599	-4,1
972,803	-6,13
973,007	-4,26
973,21	-5,47
973,414	-5,71
973,618	-4,98
973,822	-4,93
974,025	-3,66
974,229	-6,02
974,432	-9,36
974,636	-10,11
974,84	-10,25
975,043	-11,12
975,247	-11,66
975,45	-12,28
975,654	-10,02
975,857	-8,97
976,06	-9,82
976,264	-11,65
976,467	-10,74
976,671	-12,54
976,874	-11,39
977,077	-11,92
977,28	-12,99
977,484	-14,49
977,687	-14,84
977,89	-14,82
978,093	-15,42
978,297	-14,4
978,5	-16,08
978,703	-14,62
978,906	-12,72
979,109	-13,67
979,312	-11,87
979,515	-12,98
979,718	-13,16
979,921	-13,15
980,124	-14,57
980,327	-14,74
980,53	-13,38
980,733	-10,46
980,936	-8,41
981,138	-10,22
981,341	-9,82
981,544	-10,41
981,747	-12
981,949	-14,4
982,152	-13,45
982,355	-13,19
982,558	-10,44
982,76	-11,6
982,963	-9,69
983,165	-10,94
983,368	-9,13
983,571	-10,22
983,773	-9,11
983,976	-8,21
984,178	-6,35
984,381	-6,04
984,583	-6,95
984,785	-6,94
984,988	-4,31
985,19	-3,8
985,392	-3,41
985,595	-7,15
985,797	-6,26
985,999	-4,29
986,202	-2,96
986,404	-2,14
986,606	-1,34
986,808	-2,39
987,01	-1,09
987,212	-3
987,415	-2,85
987,617	-1,97
987,819	-1,22
988,021	0,78
988,223	-0,22
988,425	-2,14
988,627	-2,45
988,829	-6,34
989,031	-5,47
989,232	-6,84
989,434	-4,88
989,636	-6,29
989,838	-5,75
990,04	-3,8
990,242	-4,64
990,443	-7,77
990,645	-6,23
990,847	-4,03
991,048	-4,23
991,25	-7,18
991,452	-7,57
991,653	-9,07
991,855	-7,38
992,057	-9,26
992,258	-8,4
992,46	-9,46
992,661	-9,23
992,863	-10,3
993,064	-9,2
993,265	-9,25
993,467	-10,28
993,668	-9,24
993,87	-9,32
994,071	-9,65
994,272	-9,6
994,473	-7,86
994,675	-6,9
994,876	-6,27
995,077	-5,15
995,278	-4,46
995,48	-4,09
995,681	-6,09
995,882	-4
996,083	-4,74
996,284	-8,13
996,485	-7,26
996,686	-6,99
996,887	-9,42
997,088	-12,37
997,289	-13,18
997,49	-11,65
997,691	-12,52
997,892	-12,63
998,092	-9,77
998,293	-8,11
998,494	-9,65
998,695	-9,78
998,896	-7,98
999,096	-8,1
999,297	-7,7
999,498	-9,86
999,698	-11,47
999,899	-12,53
1000,1	-12,71
1000,3	-12,51
1000,501	-12,82
1000,701	-12,36
1000,902	-12,16
1001,102	-12,39
1001,303	-11,64
1001,503	-13,74
1001,704	-13,32
1001,904	-12,82
1002,105	-14,18
1002,305	-12,43
1002,505	-13,27
1002,706	-14,6
1002,906	-15,48
1003,106	-15,36
1003,306	-14,34
1003,507	-13,1
1003,707	-15,37
1003,907	-12,52
1004,107	-10,71
1004,307	-12,35
1004,507	-11,91
1004,707	-11,91
1004,907	-12,27
1005,107	-14,02
1005,308	-12,87
1005,507	-13,27
1005,707	-12,38
1005,907	-12,18
1006,107	-9,46
1006,307	-10,43
1006,507	-13,12
1006,707	-12,35
1006,907	-13,35
1007,106	-14,7
1007,306	-14,69
1007,506	-14,75
1007,706	-14,11
1007,905	-15,9
1008,105	-15,9
1008,305	-15,13
1008,504	-16,11
1008,704	-12,03
1008,903	-12,13
1009,103	-10,26
1009,303	-12,21
1009,502	-11,51
1009,702	-11,51
1009,901	-11,37
1010,1	-14,43
1010,3	-13,46
1010,499	-14,01
1010,699	-15,18
1010,898	-16,97
1011,097	-16,6
1011,296	-15,89
1011,496	-16,62
1011,695	-17,55
1011,894	-18,11
1012,093	-15,53
1012,293	-17,31
1012,492	-16,64
1012,691	-15,3
1012,89	-16,57
1013,089	-17,38
1013,288	-15,81
1013,487	-16,45
1013,686	-17,16
1013,885	-17,92
1014,084	-16,78
1014,283	-17,17
1014,482	-18,4
1014,681	-18,06
1014,88	-21,82
1015,078	-20,26
1015,277	-21,55
1015,476	-20,22
1015,675	-20,09
1015,873	-20,22
1016,072	-21,66
1016,271	-19,04
1016,47	-22,43
1016,668	-21,75
1016,867	-22,36
1017,065	-22,5
1017,264	-23,75
1017,463	-22,61
1017,661	-21,97
1017,86	-22,67
1018,058	-22,63
1018,256	-24,38
1018,455	-25,33
1018,653	-24,93
1018,852	-23,46
1019,05	-24,07
1019,248	-25,66
1019,447	-27,23
1019,645	-27,61
1019,843	-27,17
1020,041	-26,56
1020,24	-26,38
1020,438	-22,65
1020,636	-23,46
1020,834	-25,47
1021,032	-23,04
1021,23	-24,13
1021,428	-22,88
1021,626	-19,95
1021,824	-19,9
1022,022	-20,68
1022,22	-18,27
1022,418	-18,76
1022,616	-17,53
1022,814	-17,64
1023,012	-18,69
1023,21	-16,97
1023,408	-16,13
1023,606	-17,16
1023,803	-14,5
1024,001	-13,53
1024,199	-16,3
1024,397	-14,66
1024,594	-14,05
1024,792	-16,19
1024,99	-15,82
1025,187	-16,66
1025,385	-13,16
1025,582	-11,99
1025,78	-11,81
1025,977	-12,42
1026,175	-11,34
1026,372	-12,03
1026,57	-14,11
1026,767	-11,09
1026,965	-10,73
1027,162	-11,04
1027,359	-11,2
1027,557	-11,37
1027,754	-13,49
1027,951	-14,18
1028,148	-13,18
1028,346	-14,83
1028,543	-15,91
1028,74	-17,25
1028,937	-19,31
1029,134	-18,33
1029,331	-18,5
1029,528	-19,03
1029,725	-20,77
1029,923	-22,83
1030,12	-18,98
1030,317	-16,75
1030,513	-16,04
1030,71	-15,66
1030,907	-13,22
1031,104	-14,1
1031,301	-12,78
1031,498	-13,58
1031,695	-14,34
1031,892	-13,88
1032,088	-14,68
1032,285	-16,8
1032,482	-16,82
1032,678	-19,4
1032,875	-21,58
1033,072	-21,19
1033,268	-21,01
1033,465	-20,58
1033,662	-20,68
1033,858	-20,79
1034,055	-20,84
1034,251	-19,38
1034,448	-18,65
1034,644	-19,73
1034,84	-17,68
1035,037	-16,02
1035,233	-16,43
1035,43	-15,2
1035,626	-16,02
1035,822	-15,01
1036,019	-16,17
1036,215	-19,79
1036,411	-20,54
1036,607	-22,67
1036,803	-24,29
1037	-24,93
1037,196	-26,61
1037,392	-27,66
1037,588	-28,86
1037,784	-28,96
1037,98	-28,82
1038,176	-27,81
1038,372	-27,47
1038,568	-25,63
1038,764	-24,09
1038,96	-22,2
1039,156	-22,11
1039,352	-23,64
1039,547	-23,12
1039,743	-23,03
1039,939	-21,96
1040,135	-23,79
1040,331	-24,54
1040,526	-23,7
1040,722	-23,73
1040,918	-23,54
1041,113	-25,5
1041,309	-24,65
1041,505	-26,07
1041,7	-24,44
1041,896	-23,91
1042,091	-23,7
1042,287	-23,13
1042,482	-21,85
1042,678	-21,28
1042,873	-20,14
1043,069	-20,77
1043,264	-18,9
1043,459	-17,39
1043,655	-16,6
1043,85	-16,02
1044,045	-15,94
1044,24	-15,41
1044,436	-13,71
1044,631	-15,17
1044,826	-15,12
1045,021	-17,09
1045,216	-16,62
