Data from FLMT021711__21__16-32-35-387.txt Node

Date: Tue Nov 05 16:32:35 CET 2024
User: Etudiants TP
Spectrometer: FLMT02171
Trigger mode: 0
Integration Time (sec): 1,000000E-1
Scans to average: 5
Electric dark correction enabled: true
Nonlinearity correction enabled: false
Boxcar width: 15
XAxis mode: Wavelengths
Number of Pixels in Spectrum: 3648
>>>>>Begin Spectral Data<<<<<
194,658	-50,17
194,923	-48,72
195,188	-43,91
195,453	-43,5
195,717	-37,66
195,982	-36,67
196,247	-35,4
196,512	-37,74
196,777	-36,99
197,042	-36,41
197,307	-36,87
197,572	-33,51
197,837	-34,42
198,101	-32,46
198,366	-29,74
198,631	-27,82
198,896	-23,99
199,161	-18,27
199,425	-11,51
199,69	-3,82
199,955	-4
200,22	-5,27
200,484	-6
200,749	-7,13
201,014	-6,24
201,278	-6,74
201,543	-5,12
201,807	-5,59
202,072	-4,12
202,337	-4,49
202,601	-3,69
202,866	-5,71
203,13	-4,61
203,395	-6,35
203,659	-5,29
203,924	-7,66
204,189	-6,42
204,453	-5,32
204,717	-3,06
204,982	-2,21
205,246	-0,75
205,511	1,02
205,775	0,89
206,04	5,4
206,304	6,3
206,568	7,04
206,833	6,24
207,097	7,43
207,361	7,82
207,626	9,35
207,89	9,15
208,154	10,25
208,419	10,86
208,683	10,18
208,947	12,61
209,211	11,91
209,476	12,48
209,74	12,1
210,004	11,92
210,268	11,3
210,532	14,33
210,796	14
211,061	14,36
211,325	15,19
211,589	14,95
211,853	14,98
212,117	14,7
212,381	13,6
212,645	12,89
212,909	13,84
213,173	12
213,437	12,97
213,701	12,92
213,965	13,21
214,229	10,17
214,493	9,9
214,757	9,17
215,021	10,57
215,285	14,35
215,549	16,87
215,813	15,35
216,077	16,31
216,34	17,39
216,604	17,56
216,868	19,78
217,132	19,12
217,396	18,75
217,659	19,75
217,923	17,07
218,187	16,33
218,451	16,63
218,714	13,62
218,978	12,88
219,242	14,83
219,505	14,61
219,769	14,72
220,033	13,62
220,296	15,03
220,56	16,59
220,824	15,29
221,087	15,47
221,351	15,86
221,614	14,34
221,878	16,34
222,142	16,06
222,405	15,21
222,669	16,96
222,932	13,45
223,196	10,97
223,459	7,07
223,722	7,9
223,986	6,67
224,249	5,06
224,513	4,42
224,776	3,27
225,04	2,41
225,303	2,71
225,566	3,71
225,83	4,55
226,093	6,77
226,356	5,45
226,62	4,77
226,883	6,34
227,146	7,43
227,409	6,87
227,673	5,32
227,936	6,04
228,199	8,09
228,462	7,49
228,725	6,61
228,989	6,84
229,252	7,3
229,515	11,92
229,778	12,33
230,041	9,74
230,304	7,33
230,567	8,61
230,83	5,57
231,093	7,56
231,356	7,88
231,619	13,3
231,882	11,86
232,145	13,32
232,408	11,75
232,671	10,61
232,934	12,02
233,197	9,95
233,46	9,25
233,723	10,14
233,986	8,49
234,249	7,95
234,512	9,62
234,775	12,01
235,037	11,69
235,3	12,59
235,563	13,06
235,826	13,79
236,089	14,59
236,351	13,18
236,614	14,5
236,877	15,44
237,14	17,19
237,402	15,05
237,665	10,45
237,928	8,76
238,19	8,24
238,453	10,28
238,716	10,3
238,978	11,32
239,241	11,29
239,503	13,17
239,766	9,15
240,029	7,81
240,291	10,16
240,554	10,82
240,816	11,64
241,079	9,82
241,341	10,03
241,604	8,09
241,866	5,64
242,129	6,15
242,391	6,46
242,653	5,55
242,916	4,4
243,178	3,7
243,441	3,38
243,703	1,98
243,965	1,1
244,228	2,18
244,49	1,69
244,752	1,87
245,015	0,53
245,277	1,61
245,539	1,65
245,801	1,86
246,064	2,6
246,326	2,35
246,588	2,37
246,85	3,12
247,112	2,55
247,374	3,19
247,637	3,45
247,899	3,65
248,161	4,5
248,423	0,2
248,685	1,27
248,947	0,43
249,209	1,69
249,471	3,34
249,733	6,34
249,995	5,02
250,257	5,05
250,519	5,31
250,781	7,37
251,043	5,96
251,305	7,62
251,567	9,66
251,829	9,9
252,091	9,34
252,353	5,55
252,615	6,24
252,876	5,22
253,138	3,55
253,4	1,07
253,662	2,79
253,924	5,04
254,185	6,23
254,447	6,63
254,709	5,31
254,971	6,69
255,232	7,88
255,494	7,61
255,756	6,65
256,017	7,18
256,279	6,3
256,541	6,22
256,802	5,74
257,064	6,51
257,326	5,9
257,587	5,52
257,849	5,15
258,11	7,77
258,372	7,36
258,633	7,21
258,895	7,27
259,156	6,32
259,418	5,89
259,679	2,19
259,941	1,31
260,202	2,95
260,464	5,63
260,725	4,74
260,987	3,47
261,248	5,23
261,509	5
261,771	2,87
262,032	4,18
262,293	4,05
262,555	3,99
262,816	3,49
263,077	1,13
263,338	-0,19
263,6	-0
263,861	0,14
264,122	-0,76
264,383	1,85
264,645	3,3
264,906	2,21
265,167	2,11
265,428	1,14
265,689	2,47
265,95	0,38
266,211	1,13
266,473	1,55
266,734	-0,64
266,995	-3,95
267,256	-2,53
267,517	-1,42
267,778	1,12
268,039	1,51
268,3	2,38
268,561	-0,76
268,822	2,17
269,083	0,5
269,344	-2,17
269,604	-1,8
269,865	0,12
270,126	-3,29
270,387	-3,55
270,648	-2,48
270,909	-2,46
271,17	-3,09
271,43	-5,54
271,691	-8,59
271,952	-9,29
272,213	-7,27
272,473	-10,5
272,734	-9,29
272,995	-7,81
273,256	-6,19
273,516	-3,58
273,777	-5,13
274,038	-2,88
274,298	-4,53
274,559	-4,19
274,82	-0,07
275,08	1,85
275,341	4,15
275,601	2,19
275,862	0,28
276,122	1,31
276,383	-0,1
276,643	1,88
276,904	1,38
277,164	4,68
277,425	6,81
277,685	9,23
277,946	9,06
278,206	10,23
278,467	11,72
278,727	12,24
278,987	12,27
279,248	11,91
279,508	13,79
279,768	16,41
280,029	17,08
280,289	14,49
280,549	14,84
280,81	13,39
281,07	13,29
281,33	13,98
281,59	12,57
281,851	13,81
282,111	13,01
282,371	11,99
282,631	12,19
282,891	9,45
283,151	8,52
283,412	5,99
283,672	6,23
283,932	5,84
284,192	6,81
284,452	5,69
284,712	4,63
284,972	2,88
285,232	0,62
285,492	2,69
285,752	2,07
286,012	6,35
286,272	7,84
286,532	5,99
286,792	5,54
287,052	5,58
287,312	6,59
287,571	6,63
287,831	7,53
288,091	5,69
288,351	6,68
288,611	9,11
288,871	10,05
289,13	9,32
289,39	5,48
289,65	7,06
289,91	4,93
290,17	6,87
290,429	9,65
290,689	7,54
290,949	6,01
291,208	7,82
291,468	10
291,728	11,12
291,987	13
292,247	11,39
292,506	13,53
292,766	15,48
293,026	14,22
293,285	15,31
293,545	16,15
293,804	14,05
294,064	11,8
294,323	9,23
294,583	9,36
294,842	9,49
295,102	10,66
295,361	10,39
295,621	8,25
295,88	8,49
296,139	8,74
296,399	8,49
296,658	5,77
296,917	5,94
297,177	5,08
297,436	7,2
297,695	5,44
297,955	6,68
298,214	5,53
298,473	5,49
298,732	8,89
298,992	11,47
299,251	9,65
299,51	6,7
299,769	7,68
300,028	7,98
300,287	7,76
300,547	7,55
300,806	5,41
301,065	8,56
301,324	9,37
301,583	5,29
301,842	3,8
302,101	1,61
302,36	2,63
302,619	3,32
302,878	3,86
303,137	1,64
303,396	2,64
303,655	6,04
303,914	3,14
304,173	2,41
304,432	2,45
304,691	3,83
304,95	1,16
305,208	4,17
305,467	3,79
305,726	3,65
305,985	5,08
306,244	6,21
306,503	5,37
306,761	4,06
307,02	2,13
307,279	2,61
307,537	3,27
307,796	0,43
308,055	-2,98
308,314	-1,07
308,572	-2,12
308,831	-0,1
309,09	-1,09
309,348	0,06
309,607	0,87
309,865	2,99
310,124	2,99
310,382	3,65
310,641	3,55
310,9	1,51
311,158	2,57
311,417	2,35
311,675	2,05
311,933	2,96
312,192	4,23
312,45	3,8
312,709	3,41
312,967	4,29
313,226	3,55
313,484	1,95
313,742	1,38
314,001	0,3
314,259	-1,19
314,517	-0,2
314,776	-0,16
315,034	1,64
315,292	0,55
315,55	-0,9
315,809	-0,42
316,067	0,13
316,325	-2,32
316,583	-1,8
316,841	-3,39
317,1	-4,37
317,358	-7,4
317,616	-7,79
317,874	-7,18
318,132	-7,11
318,39	-6,82
318,648	-7,65
318,906	-7,52
319,164	-7,87
319,422	-9,03
319,68	-9,72
319,938	-8,85
320,196	-7,66
320,454	-6,85
320,712	-6,91
320,97	-7,74
321,228	-9,09
321,486	-6,41
321,744	-6,33
322,002	-5,14
322,26	-6,79
322,517	-7,17
322,775	-9,02
323,033	-9,88
323,291	-7,89
323,549	-5,91
323,806	-4,85
324,064	-3,6
324,322	-1,88
324,58	-3,17
324,837	-1,37
325,095	-2,7
325,353	-0,76
325,61	-0,33
325,868	-1,6
326,126	-1,57
326,383	-2,72
326,641	-2,8
326,898	-2,13
327,156	-1,07
327,413	1,18
327,671	1,32
327,928	2,08
328,186	1,42
328,443	1,34
328,701	3,81
328,958	4,97
329,216	4,87
329,473	3,92
329,731	4,24
329,988	4,05
330,245	7,06
330,503	8,06
330,76	7,64
331,017	9,31
331,275	7,58
331,532	7,61
331,789	5,96
332,047	5,41
332,304	2,6
332,561	2,98
332,818	1,6
333,076	4,05
333,333	4,58
333,59	5,34
333,847	6,59
334,104	6,47
334,361	5,64
334,618	4,84
334,876	3,98
335,133	3,03
335,39	0,3
335,647	1,09
335,904	-1,98
336,161	-3,29
336,418	-2,81
336,675	-4,99
336,932	-3
337,189	-2,73
337,446	-2,18
337,703	-2,41
337,96	-5,85
338,216	-6,78
338,473	-9,5
338,73	-8,69
338,987	-10,38
339,244	-7,81
339,501	-9,66
339,757	-9,41
340,014	-7,96
340,271	-6,42
340,528	-5,21
340,785	-1,69
341,041	-2,3
341,298	-4,18
341,555	-4,07
341,811	-3,93
342,068	-5,29
342,325	-4,49
342,581	-2,82
342,838	-2,3
343,094	-1,96
343,351	-1,18
343,608	-2,49
343,864	-0,45
344,121	0,56
344,377	-0,24
344,634	-1,41
344,89	-2,84
345,147	-3,77
345,403	-4,69
345,66	-5,29
345,916	-3,33
346,172	-4,95
346,429	-5,16
346,685	-5,8
346,942	-4,16
347,198	-6,7
347,454	-6
347,711	-5,23
347,967	-7,3
348,223	-6,48
348,48	-7,61
348,736	-6,15
348,992	-6,58
349,248	-5,06
349,504	-4,28
349,761	-4,92
350,017	-4,18
350,273	-4,68
350,529	-4,72
350,785	-4,26
351,041	-5,19
351,297	-3,69
351,554	-5,49
351,81	-6,37
352,066	-8,25
352,322	-8,06
352,578	-5,89
352,834	-6,14
353,09	-6,43
353,346	-6,49
353,602	-6,19
353,858	-7,74
354,114	-7,7
354,369	-6,32
354,625	-3,57
354,881	-5,72
355,137	-3,64
355,393	-3,34
355,649	-3,15
355,905	-3,12
356,16	-2,66
356,416	-1,55
356,672	-6,13
356,928	-5,61
357,183	-6,35
357,439	-7,3
357,695	-8,61
357,951	-5,79
358,206	-6,47
358,462	-8,21
358,718	-9,78
358,973	-9,16
359,229	-9,25
359,484	-8,06
359,74	-6,33
359,996	-4,47
360,251	-2,82
360,507	-4,52
360,762	-4,45
361,018	-1,41
361,273	-2,3
361,529	-0,82
361,784	0,4
362,04	0,84
362,295	0,88
362,55	0,18
362,806	1,19
363,061	0,72
363,316	1,01
363,572	1,56
363,827	3,34
364,082	-0,41
364,338	-0,99
364,593	-0,91
364,848	-0,77
365,104	-0,84
365,359	1,15
365,614	1,78
365,869	0,37
366,124	0,29
366,38	0,7
366,635	1,68
366,89	3,07
367,145	2,84
367,4	4,93
367,655	5,34
367,91	5,25
368,165	3,66
368,42	1
368,675	0,86
368,93	0,86
369,185	-1,36
369,44	-2,43
369,695	-1,39
369,95	-1,37
370,205	-1,91
370,46	-2,58
370,715	-2,01
370,97	-1,05
371,225	-1,86
371,48	-0,56
371,734	-1,14
371,989	0,43
372,244	0,54
372,499	1,1
372,754	1,34
373,008	-0,24
373,263	-3,44
373,518	-1,37
373,773	-3,76
374,027	-4,34
374,282	-1,93
374,537	-0,8
374,791	0,71
375,046	-1,18
375,301	-2,77
375,555	-3,73
375,81	-3,58
376,064	-2,11
376,319	1,78
376,573	1,87
376,828	-2,2
377,082	2,3
377,337	1,22
377,591	-0,28
377,846	1,05
378,1	2,73
378,355	4,17
378,609	2,47
378,863	-0,5
379,118	1,06
379,372	-1,26
379,627	-2,35
379,881	-2,73
380,135	-2,97
380,389	-4,17
380,644	-3,53
380,898	-3,47
381,152	-1,23
381,407	-1,5
381,661	0,72
381,915	3,02
382,169	2,51
382,423	1,15
382,677	-2,22
382,932	-0,62
383,186	0,43
383,44	-0,81
383,694	0,15
383,948	-2,41
384,202	-3,81
384,456	-2,04
384,71	-0,79
384,964	-2,15
385,218	-1,12
385,472	-0,17
385,726	-1,35
385,98	-1,67
386,234	-2,37
386,488	-3,67
386,742	-2
386,996	-4,08
387,249	-2,65
387,503	-1,26
387,757	-0,66
388,011	0,06
388,265	1,57
388,518	1,15
388,772	2,71
389,026	1,23
389,28	-0,14
389,533	-1,19
389,787	0,55
390,041	-1,16
390,295	-1,25
390,548	-0,91
390,802	1,32
391,055	1,19
391,309	1,39
391,563	0,67
391,816	1,26
392,07	-0,29
392,323	0,12
392,577	1,84
392,83	2,89
393,084	7
393,337	9,48
393,591	10,68
393,844	11,4
394,098	14,41
394,351	18,62
394,604	20,77
394,858	22,44
395,111	22,11
395,364	21,42
395,618	22,74
395,871	21,14
396,124	19,58
396,378	19,26
396,631	20,41
396,884	19,42
397,137	18,86
397,391	19,68
397,644	17,8
397,897	18,11
398,15	18,34
398,403	20,28
398,657	17,78
398,91	16,64
399,163	17,53
399,416	17,52
399,669	17,24
399,922	18,08
400,175	19,89
400,428	25,05
400,681	32,68
400,934	38,85
401,187	45,34
401,44	52,81
401,693	54,56
401,946	54,93
402,199	52,55
402,452	52,04
402,704	50,23
402,957	50
403,21	51,17
403,463	51,02
403,716	52,75
403,969	55,4
404,221	56,17
404,474	56,54
404,727	60,22
404,98	63,48
405,232	63,71
405,485	64,76
405,738	66,76
405,99	68,61
406,243	69,43
406,496	72,61
406,748	72,75
407,001	72,55
407,253	73,57
407,506	74,34
407,759	75,16
408,011	69,14
408,264	64,75
408,516	57,05
408,769	46,42
409,021	39,91
409,274	31,51
409,526	31,09
409,778	27,39
410,031	28,68
410,283	27,78
410,536	32,29
410,788	31,3
411,04	31,12
411,293	32,17
411,545	32,75
411,797	31,64
412,049	30,87
412,302	31,31
412,554	30,36
412,806	27,16
413,058	25,6
413,311	24,68
413,563	23,53
413,815	23,35
414,067	21,15
414,319	19,73
414,571	20,76
414,823	19,89
415,075	18,45
415,328	19,2
415,58	21,4
415,832	24,46
416,084	25,51
416,336	25,43
416,588	28,41
416,84	27,01
417,091	29,19
417,343	24,73
417,595	26,37
417,847	27,34
418,099	28,56
418,351	27,47
418,603	31,3
418,855	32,24
419,106	32,61
419,358	32,34
419,61	31,9
419,862	32,76
420,114	30,8
420,365	30,61
420,617	31,51
420,869	31,27
421,12	31,36
421,372	31,73
421,624	30,79
421,875	32,17
422,127	30,96
422,379	32,07
422,63	34,35
422,882	34,99
423,133	35,31
423,385	35,47
423,636	36,26
423,888	37,12
424,139	38,44
424,391	36,39
424,642	35,04
424,894	34,62
425,145	35,66
425,396	33,32
425,648	34,1
425,899	31,97
426,151	32,09
426,402	29,94
426,653	30,11
426,905	29,28
427,156	28,48
427,407	29,62
427,658	29,96
427,91	29,85
428,161	30,84
428,412	33,46
428,663	34,98
428,914	36,76
429,166	39,08
429,417	40,27
429,668	39,52
429,919	37,13
430,17	36,22
430,421	36,45
430,672	38,45
430,923	38,6
431,174	41,38
431,425	53,33
431,676	72,38
431,927	97,33
432,178	130,54
432,429	166,01
432,68	193,12
432,931	216,51
433,182	233,39
433,433	242,16
433,683	251,36
433,934	255,34
434,185	257,5
434,436	257,91
434,687	260,07
434,937	262,47
435,188	261,83
435,439	260,81
435,69	262,56
435,94	262,82
436,191	262,7
436,442	262,42
436,692	260,95
436,943	257,63
437,194	256,67
437,444	258,54
437,695	261,52
437,945	261,96
438,196	261,27
438,447	259,37
438,697	259,74
438,948	254,84
439,198	242,05
439,449	219,29
439,699	192,61
439,949	159,83
440,2	124,86
440,45	98,03
440,701	76,31
440,951	61,14
441,201	51,68
441,452	44,11
441,702	40,72
441,952	37,81
442,203	36,76
442,453	33,08
442,703	32,38
442,953	33,61
443,204	33,99
443,454	32,57
443,704	31,55
443,954	29,73
444,204	29,68
444,455	30,66
444,705	32,35
444,955	32,16
445,205	31,7
445,455	30,19
445,705	30,97
445,955	29,22
446,205	29,25
446,455	29,48
446,705	30,69
446,955	30,14
447,205	31,14
447,455	32,65
447,705	32,76
447,955	31,48
448,205	31,4
448,454	31,13
448,704	32,14
448,954	31,28
449,204	30,77
449,454	30,22
449,704	30,94
449,953	30,92
450,203	34,21
450,453	31,01
450,703	31,68
450,952	31,42
451,202	32,39
451,452	32,23
451,701	34,29
451,951	36,79
452,201	36,29
452,45	34,78
452,7	35,33
452,949	34,27
453,199	34,48
453,448	35,21
453,698	37,15
453,947	36,7
454,197	36,74
454,446	35,58
454,696	37,72
454,945	38,31
455,195	36,81
455,444	36,8
455,693	41,26
455,943	39,53
456,192	41,01
456,442	40,85
456,691	41,56
456,94	41,35
457,189	40,43
457,439	41,12
457,688	41,98
457,937	41,19
458,186	43,25
458,436	41,89
458,685	42,85
458,934	40,01
459,183	39,56
459,432	40,03
459,681	39,98
459,93	39,2
460,179	40,39
460,429	39,84
460,678	41,69
460,927	44,54
461,176	42,89
461,425	43,19
461,674	46,32
461,923	44,91
462,172	46,02
462,42	44,71
462,669	46,03
462,918	45,33
463,167	45,03
463,416	42,8
463,665	44,35
463,914	43,85
464,162	43,34
464,411	44,42
464,66	45,43
464,909	44,85
465,158	44,22
465,406	43,56
465,655	43,99
465,904	44,6
466,152	45,77
466,401	45,08
466,65	47,37
466,898	45,65
467,147	43,59
467,395	43,39
467,644	44,87
467,893	44,37
468,141	44,04
468,39	42,66
468,638	40,3
468,887	40,05
469,135	38,88
469,384	37,4
469,632	37,56
469,88	35,66
470,129	36,04
470,377	33,27
470,626	35,51
470,874	36,9
471,122	36,79
471,371	35,53
471,619	33,6
471,867	35,49
472,115	34,61
472,364	32,57
472,612	34,28
472,86	34,32
473,108	35,62
473,356	35,4
473,605	36,47
473,853	34,56
474,101	35
474,349	34,11
474,597	37,47
474,845	36,27
475,093	35,93
475,341	34,33
475,589	34,01
475,837	35,92
476,085	37,28
476,333	35,95
476,581	37,95
476,829	37,63
477,077	38,78
477,325	39,52
477,573	41,79
477,821	41,35
478,069	42,16
478,317	42,75
478,564	45,05
478,812	44,65
479,06	44,51
479,308	44,94
479,555	45,35
479,803	45,67
480,051	49,65
480,299	51,07
480,546	52,62
480,794	52,78
481,042	56,54
481,289	58,46
481,537	62,72
481,784	65,37
482,032	72,38
482,28	77,1
482,527	82,48
482,775	87
483,022	94,54
483,27	102,54
483,517	110,45
483,765	116,41
484,012	122,41
484,259	125,15
484,507	133,95
484,754	139,89
485,002	144,8
485,249	148,68
485,496	155,06
485,744	159,88
485,991	162,97
486,238	164,82
486,486	170,75
486,733	174,19
486,98	179,97
487,227	181,77
487,474	185
487,722	188,55
487,969	189,04
488,216	190,33
488,463	191,88
488,71	190,65
488,957	190,39
489,204	189,11
489,451	190,03
489,699	187,41
489,946	182,45
490,193	180,67
490,44	178,04
490,687	173,9
490,934	168,48
491,18	161,53
491,427	157,37
491,674	156,57
491,921	154,97
492,168	149,03
492,415	142,68
492,662	139,52
492,909	138,31
493,155	134,3
493,402	129,14
493,649	125,21
493,896	123,82
494,142	117,79
494,389	115,63
494,636	111,33
494,883	106,81
495,129	103,52
495,376	97,49
495,623	95,32
495,869	94,11
496,116	91,98
496,362	90,15
496,609	90,5
496,855	92,02
497,102	88,95
497,348	86,3
497,595	85,2
497,841	84,54
498,088	80,52
498,334	77,44
498,581	74,27
498,827	72,7
499,074	70,76
499,32	68,81
499,566	68,16
499,813	66,31
500,059	63,15
500,305	61,55
500,552	57,74
500,798	54,93
501,044	57,63
501,29	55,35
501,537	50,42
501,783	51,71
502,029	52,17
502,275	49,34
502,521	47,52
502,767	45,54
503,013	46,7
503,26	43,94
503,506	39,06
503,752	39,03
503,998	36,96
504,244	34,83
504,49	31,48
504,736	31,39
504,982	29,15
505,228	29,4
505,474	27,94
505,72	29,31
505,966	28,25
506,211	29,97
506,457	30
506,703	27,33
506,949	25,5
507,195	24,04
507,441	20,92
507,686	24
507,932	23,25
508,178	23,14
508,424	21,75
508,669	18,66
508,915	18,82
509,161	19,68
509,406	18,83
509,652	18,08
509,898	19,63
510,143	20,25
510,389	20,04
510,634	16,45
510,88	18,9
511,125	22,22
511,371	21,81
511,616	21,82
511,862	19,04
512,107	16,71
512,353	17,07
512,598	17,91
512,844	16,28
513,089	15,18
513,335	14,7
513,58	14,74
513,825	14,56
514,071	12,23
514,316	11,17
514,561	12,43
514,806	11,55
515,052	14,66
515,297	12,45
515,542	13,27
515,787	14,52
516,033	15,28
516,278	15,42
516,523	14,43
516,768	14,88
517,013	12,83
517,258	12
517,503	12,41
517,748	11,54
517,993	10,61
518,238	12,03
518,483	9,8
518,728	8,72
518,973	7,53
519,218	7,45
519,463	7,99
519,708	7,86
519,953	6,31
520,198	6,17
520,443	8,21
520,688	9,5
520,933	8,48
521,177	8,73
521,422	5,81
521,667	8,07
521,912	8,32
522,157	4,76
522,401	7,18
522,646	6,73
522,891	7,32
523,135	6,49
523,38	6,48
523,625	6,09
523,869	7,97
524,114	7,97
524,358	6,87
524,603	7,1
524,848	6,13
525,092	5,21
525,337	7,29
525,581	8,74
525,826	9,4
526,07	10,11
526,315	10,22
526,559	9,23
526,803	7,15
527,048	9,82
527,292	10,4
527,537	10,03
527,781	9,69
528,025	7,61
528,269	9
528,514	9,37
528,758	8,8
529,002	9,95
529,247	11,77
529,491	11,88
529,735	16,32
529,979	14,15
530,223	14,58
530,467	12,86
530,712	12,61
530,956	11,25
531,2	11,9
531,444	11,14
531,688	13,49
531,932	14,62
532,176	15,63
532,42	16,54
532,664	17,08
532,908	16,12
533,152	16,59
533,396	16,84
533,64	17,7
533,884	18,28
534,128	19,47
534,371	23,53
534,615	26,2
534,859	27,58
535,103	29,79
535,347	32,6
535,59	37,32
535,834	37,92
536,078	44,46
536,322	50,68
536,565	60,13
536,809	66,37
537,053	77,63
537,296	87,33
537,54	102,02
537,784	118,47
538,027	138,2
538,271	158,18
538,514	179,32
538,758	199,84
539,001	219,81
539,245	240,12
539,488	259,43
539,732	278,7
539,975	296,27
540,219	314,98
540,462	331,06
540,706	347,53
540,949	363,56
541,192	378,9
541,436	397,74
541,679	418,68
541,922	438,3
542,166	456,51
542,409	481,42
542,652	506,27
542,895	531,76
543,139	553,03
543,382	574,4
543,625	590,61
543,868	602,94
544,111	611,08
544,354	617,5
544,598	621,7
544,841	621,62
545,084	617,82
545,327	610,8
545,57	603,4
545,813	593,34
546,056	579,47
546,299	568,23
546,542	554,85
546,785	542,16
547,028	528,4
547,271	515,41
547,514	502,65
547,756	487,27
547,999	475,55
548,242	463,13
548,485	448,98
548,728	437,25
548,971	420,22
549,213	404,88
549,456	384,96
549,699	363,76
549,942	338,48
550,184	313,12
550,427	287,45
550,67	264,31
550,912	240,24
551,155	221,13
551,398	204,82
551,64	190,29
551,883	177,36
552,125	163,49
552,368	152,13
552,61	138,98
552,853	130,56
553,095	119,83
553,338	110,53
553,58	103,51
553,823	93,7
554,065	89,19
554,308	79,51
554,55	73,22
554,792	65,62
555,035	59,74
555,277	55,83
555,519	52,69
555,762	46,87
556,004	43,45
556,246	36,85
556,488	35,13
556,731	29,14
556,973	27,34
557,215	24,69
557,457	24,99
557,699	24,99
557,941	20,25
558,183	17,46
558,426	18,47
558,668	14,4
558,91	13,4
559,152	10,85
559,394	8,91
559,636	9,19
559,878	9,79
560,12	9,74
560,362	9,36
560,604	8,02
560,845	7,41
561,087	6,21
561,329	8,05
561,571	4,72
561,813	5,18
562,055	4,28
562,297	5,9
562,538	6,22
562,78	7,68
563,022	4,41
563,264	4,96
563,505	4,74
563,747	5,11
563,989	3,06
564,23	3,33
564,472	2,6
564,714	4,78
564,955	4,09
565,197	0,69
565,438	2,95
565,68	5,91
565,921	3,6
566,163	4,16
566,404	2,63
566,646	4,13
566,887	4,19
567,129	4,55
567,37	3,22
567,612	4,63
567,853	2,15
568,094	3,96
568,336	2,67
568,577	3,36
568,818	3,03
569,06	1,26
569,301	0,15
569,542	-0,12
569,783	0,2
570,025	-0,12
570,266	-0,15
570,507	1,32
570,748	1,74
570,989	2,72
571,23	4,39
571,472	4,92
571,713	3,77
571,954	4,18
572,195	2,7
572,436	4,25
572,677	6,96
572,918	8,61
573,159	7,34
573,4	7,45
573,641	9,68
573,882	11,09
574,123	11,06
574,364	9,77
574,604	10,73
574,845	10,95
575,086	12,74
575,327	15,04
575,568	16,12
575,809	17,61
576,049	18,91
576,29	19,39
576,531	25,31
576,771	29,81
577,012	33,14
577,253	35,73
577,494	37,22
577,734	38,17
577,975	40,39
578,215	41,99
578,456	41,89
578,697	43,61
578,937	45,2
579,178	47,9
579,418	50,36
579,659	50,8
579,899	49,39
580,14	51,16
580,38	51,79
580,62	53,43
580,861	58,3
581,101	58
581,342	60,07
581,582	57,76
581,822	60,75
582,063	60,72
582,303	62,17
582,543	62,1
582,783	63,64
583,024	65,06
583,264	69,15
583,504	68,7
583,744	70,88
583,984	71,13
584,224	72,08
584,465	71,78
584,705	72,16
584,945	74,07
585,185	74,17
585,425	75,29
585,665	75,67
585,905	75,45
586,145	74,59
586,385	75,11
586,625	74,91
586,865	72
587,105	72,92
587,345	73,41
587,585	72,02
587,824	69,41
588,064	68,47
588,304	65,23
588,544	64,57
588,784	61,51
589,024	62,95
589,263	62,58
589,503	62,39
589,743	64,62
589,982	64,82
590,222	65,26
590,462	64,16
590,701	61,49
590,941	62,69
591,181	60,04
591,42	57,04
591,66	57,51
591,899	57,79
592,139	56,69
592,378	55,93
592,618	55,12
592,857	52,83
593,097	51,97
593,336	51,08
593,576	50,32
593,815	49,64
594,055	49,43
594,294	50,53
594,533	49,82
594,773	49,42
595,012	50,25
595,251	52,92
595,491	55,58
595,73	56,01
595,969	57,09
596,208	58,91
596,447	62,9
596,687	62,19
596,926	62,02
597,165	57,23
597,404	57,82
597,643	55,51
597,882	53,15
598,121	51,6
598,36	52,36
598,599	52,26
598,838	51,29
599,077	46,75
599,316	46,84
599,555	43,92
599,794	43,15
600,033	43,2
600,272	44,12
600,511	41,61
600,75	42,98
600,989	44,02
601,228	43,37
601,466	41,72
601,705	40,81
601,944	39,95
602,183	39,2
602,422	38,11
602,66	35,95
602,899	33,32
603,138	33,25
603,376	32,44
603,615	31,66
603,854	29,6
604,092	29,51
604,331	29,91
604,569	31,19
604,808	30,77
605,047	33,17
605,285	33,9
605,524	36,07
605,762	35,55
606	39,32
606,239	44,34
606,477	51,18
606,716	55,74
606,954	67,43
607,193	79,41
607,431	97,63
607,669	120,99
607,908	149,51
608,146	181,27
608,384	211,01
608,622	239,95
608,861	266,45
609,099	291,39
609,337	313,78
609,575	334,84
609,813	352,8
610,052	368,33
610,29	378,85
610,528	391,11
610,766	401,9
611,004	411,7
611,242	420,65
611,48	430,43
611,718	437,11
611,956	445,95
612,194	451,11
612,432	455,55
612,67	459,61
612,908	463,79
613,146	464,29
613,384	464,85
613,621	462,23
613,859	460,8
614,097	455,53
614,335	447,05
614,573	436,4
614,811	419,75
615,048	396,07
615,286	370,5
615,524	341,36
615,761	311,77
615,999	285,24
616,237	260,61
616,474	239,8
616,712	219,53
616,95	200,58
617,187	184,28
617,425	171,59
617,662	160,78
617,9	148,2
618,137	136,64
618,375	128,85
618,612	119,28
618,85	112,17
619,087	108,24
619,325	99,89
619,562	94,15
619,799	88,61
620,037	84,5
620,274	81,59
620,511	81,4
620,749	78,36
620,986	77,82
621,223	74,21
621,461	74,48
621,698	75,22
621,935	74,72
622,172	73,61
622,409	76,11
622,647	77,19
622,884	75,11
623,121	76,81
623,358	77,17
623,595	79,47
623,832	79,81
624,069	79,09
624,306	80,4
624,543	82,45
624,78	82,52
625,017	83,03
625,254	85,78
625,491	86,69
625,728	88,01
625,965	87,87
626,202	87,41
626,438	85,44
626,675	86,97
626,912	89,23
627,149	91,47
627,386	93,87
627,622	94,31
627,859	95,27
628,096	96,45
628,333	99,09
628,569	101,39
628,806	103,67
629,043	104,17
629,279	106,08
629,516	106,46
629,752	103,63
629,989	102,06
630,225	101,16
630,462	98,34
630,699	94,63
630,935	91,01
631,171	86,15
631,408	84,4
631,644	81,36
631,881	77,18
632,117	73,07
632,354	72,55
632,59	68,2
632,826	68,16
633,063	65,1
633,299	63,22
633,535	59,71
633,771	57,76
634,008	57,2
634,244	53,23
634,48	49,3
634,716	46,6
634,953	41,69
635,189	38,52
635,425	37,03
635,661	33,3
635,897	29,04
636,133	25,19
636,369	20,37
636,605	14,68
636,841	12,2
637,077	10,96
637,313	9,74
637,549	8,1
637,785	7,73
638,021	9,25
638,257	8,36
638,493	10,61
638,729	8,97
638,965	9,69
639,2	10,99
639,436	12,34
639,672	11,5
639,908	11,14
640,144	12,17
640,379	13,4
640,615	12,21
640,851	13,54
641,086	14,7
641,322	14,32
641,558	16,37
641,793	16,1
642,029	15,18
642,264	16,02
642,5	15,89
642,736	12,63
642,971	13,45
643,207	12,41
643,442	11,43
643,678	13,01
643,913	13,99
644,148	14,52
644,384	16,42
644,619	15,63
644,855	18,21
645,09	19,76
645,325	19,29
645,561	19,39
645,796	18,2
646,031	21,98
646,266	21,55
646,502	20,79
646,737	22,69
646,972	23,81
647,207	25,16
647,442	25,28
647,678	23,37
647,913	26,55
648,148	27,7
648,383	26,9
648,618	26,83
648,853	27,89
649,088	30,18
649,323	31,71
649,558	31,86
649,793	33,52
650,028	35
650,263	33,66
650,498	36,26
650,733	36,36
650,968	35,12
651,202	36,38
651,437	35,38
651,672	33,32
651,907	34,95
652,142	34,8
652,376	33,87
652,611	34,9
652,846	37,07
653,081	36,05
653,315	34,64
653,55	33,64
653,785	31,82
654,019	31,45
654,254	28,24
654,488	28,34
654,723	23,95
654,958	21,82
655,192	19,08
655,427	16,89
655,661	16,31
655,896	17,4
656,13	17,27
656,364	13,54
656,599	11,52
656,833	13,86
657,068	14,42
657,302	14,22
657,536	12,14
657,771	11,83
658,005	12,95
658,239	13,22
658,474	12,07
658,708	13,65
658,942	14,82
659,176	12,33
659,41	10,22
659,645	10,22
659,879	9,85
660,113	7,32
660,347	7,33
660,581	5,34
660,815	5,64
661,049	5,32
661,283	2,12
661,517	2,43
661,751	1,66
661,985	2,85
662,219	4,5
662,453	3,59
662,687	4,63
662,921	2,43
663,155	0,24
663,389	-4,98
663,622	-4,56
663,856	-1,97
664,09	-4,41
664,324	-6,08
664,558	-5,58
664,791	-6,18
665,025	-6,71
665,259	-7,33
665,492	-7,83
665,726	-6,49
665,96	-7,97
666,193	-11,35
666,427	-9,92
666,661	-11,02
666,894	-12,88
667,128	-14,26
667,361	-13,77
667,595	-14,23
667,828	-14,17
668,062	-14,36
668,295	-12,84
668,529	-11,68
668,762	-11,73
668,995	-12,25
669,229	-11,67
669,462	-10,21
669,695	-7,76
669,929	-9,04
670,162	-7,18
670,395	-8,74
670,629	-7,02
670,862	-6,09
671,095	-9,02
671,328	-9,25
671,561	-12,76
671,795	-12,41
672,028	-10,7
672,261	-10,01
672,494	-9,45
672,727	-10,06
672,96	-8,97
673,193	-9,67
673,426	-5,47
673,659	-6,27
673,892	-5,06
674,125	-4,53
674,358	-4,36
674,591	-5,3
674,824	-4,84
675,057	-4,53
675,29	-5,07
675,523	-5,02
675,755	-5,94
675,988	-5,41
676,221	-2,94
676,454	-3,64
676,687	-3,7
676,919	-4,72
677,152	-4,55
677,385	-5,24
677,617	-2,87
677,85	-2,49
678,083	-2,43
678,315	-0,51
678,548	-0,53
678,78	1,26
679,013	1,05
679,246	0,03
679,478	0,55
679,711	-0,63
679,943	1,55
680,175	-0,88
680,408	2,91
680,64	-0,5
680,873	1,39
681,105	2,01
681,338	3,62
681,57	3,5
681,802	4,55
682,034	3,96
682,267	6,89
682,499	7,21
682,731	5,79
682,964	6,65
683,196	5,91
683,428	4,34
683,66	3,84
683,892	6,85
684,124	7,8
684,356	9,78
684,589	9,87
684,821	8,21
685,053	9,18
685,285	10,5
685,517	11,32
685,749	11,37
685,981	12,55
686,213	12,74
686,445	14,46
686,676	13,06
686,908	13,61
687,14	12,31
687,372	13,15
687,604	9,8
687,836	11,38
688,068	10,64
688,299	9,47
688,531	8,66
688,763	11,13
688,995	10,28
689,226	12,98
689,458	9,6
689,69	9,53
689,921	9,3
690,153	9,8
690,384	11,66
690,616	10,03
690,848	11,32
691,079	8,25
691,311	5,44
691,542	2,2
691,774	1,18
692,005	3,38
692,237	4,52
692,468	0,88
692,699	0,27
692,931	-0,41
693,162	-3,08
693,393	-3,51
693,625	-4,71
693,856	-5,24
694,087	-5,89
694,319	-5,14
694,55	-6,67
694,781	-6,32
695,012	-7,25
695,243	-8,69
695,475	-8,06
695,706	-8,03
695,937	-8,31
696,168	-8,89
696,399	-11,18
696,63	-9,87
696,861	-8,89
697,092	-5,59
697,323	-4,61
697,554	-4,99
697,785	-4,07
698,016	-4,15
698,247	-6,57
698,478	-3,69
698,709	-1,05
698,94	1,27
699,171	-0,46
699,401	-2,77
699,632	-2,02
699,863	-4,76
700,094	-4,55
700,325	-2,08
700,555	-1,97
700,786	0,23
701,017	0,67
701,247	0,64
701,478	0,41
701,709	2,64
701,939	1,87
702,17	4,09
702,401	7,09
702,631	8,01
702,862	6,84
703,092	4,46
703,323	8,27
703,553	10,44
703,784	11,78
704,014	12,52
704,244	10,9
704,475	10,79
704,705	11,82
704,936	12,33
705,166	13,14
705,396	16,37
705,627	16,83
705,857	18,79
706,087	19,42
706,317	21,16
706,548	20,84
706,778	23,73
707,008	25,12
707,238	27,18
707,468	26,62
707,698	26,56
707,928	26,57
708,158	26,7
708,389	27,23
708,619	27,56
708,849	26,62
709,079	27,4
709,309	27,21
709,539	24,62
709,768	26,15
709,998	28,76
710,228	30,34
710,458	28,3
710,688	26,61
710,918	25,35
711,148	23,08
711,378	21,37
711,607	20,3
711,837	19,74
712,067	19,52
712,297	18,63
712,526	17,16
712,756	15,55
712,986	11,47
713,215	8,45
713,445	7,18
713,674	7,77
713,904	5,62
714,134	7,7
714,363	6,57
714,593	4,74
714,822	3,73
715,052	1,34
715,281	2,44
715,511	1,22
715,74	-0,55
715,969	-0,94
716,199	-2,56
716,428	-3,21
716,657	-3,6
716,887	-2,91
717,116	-5,85
717,345	-5,07
717,575	-4,12
717,804	-4,36
718,033	-4,68
718,262	-5,28
718,492	-5,48
718,721	-4,95
718,95	-5,64
719,179	-7,43
719,408	-7,77
719,637	-10,62
719,866	-10,58
720,095	-9,98
720,324	-9,34
720,553	-12,47
720,782	-13,8
721,011	-13,55
721,24	-15,91
721,469	-16,9
721,698	-16,11
721,927	-16,15
722,156	-16,14
722,385	-17,56
722,613	-15,79
722,842	-14,13
723,071	-12,33
723,3	-10,89
723,529	-12,26
723,757	-11,3
723,986	-15,57
724,215	-15,44
724,443	-15,25
724,672	-15,1
724,901	-14,23
725,129	-13,79
725,358	-9,61
725,586	-10,52
725,815	-11,01
726,043	-12,2
726,272	-12,93
726,5	-13,49
726,729	-11,14
726,957	-12,67
727,186	-13,91
727,414	-13,03
727,642	-11,5
727,871	-11,23
728,099	-11,1
728,327	-11,29
728,556	-10,72
728,784	-9,61
729,012	-11,16
729,241	-9,77
729,469	-10,61
729,697	-13,27
729,925	-13,53
730,153	-14,84
730,381	-14,95
730,61	-14,85
730,838	-17,39
731,066	-15,61
731,294	-15,58
731,522	-18,44
731,75	-20,89
731,978	-21,74
732,206	-21,13
732,434	-23,53
732,662	-21,15
732,89	-22,8
733,118	-22,59
733,346	-22,08
733,573	-19,95
733,801	-21,07
734,029	-16,74
734,257	-14,28
734,485	-11,64
734,712	-9,6
734,94	-10,21
735,168	-8,24
735,396	-7,66
735,623	-8,86
735,851	-8,08
736,078	-5,82
736,306	-4,38
736,534	-4,39
736,761	-2,82
736,989	-4,85
737,216	-5,68
737,444	-7,78
737,671	-6,41
737,899	-1,79
738,126	-2,6
738,354	-1,66
738,581	-0,96
738,809	0,33
739,036	-0,82
739,263	-1,69
739,491	-3,33
739,718	-3,84
739,945	0,92
740,173	1,65
740,4	2,09
740,627	0,23
740,854	1,24
741,081	-1,22
741,309	-3,06
741,536	-6,45
741,763	-7,57
741,99	-5,92
742,217	-5,23
742,444	-4,96
742,671	-3,58
742,898	-4,42
743,125	-6,59
743,352	-9,49
743,579	-8,63
743,806	-8,93
744,033	-6,39
744,26	-6,1
744,487	-5,03
744,714	-4,36
744,941	-5,22
745,167	-3,24
745,394	-4,89
745,621	-5,4
745,848	-6,2
746,075	-5,78
746,301	-4,04
746,528	-0,39
746,755	-1,54
746,981	-2,62
747,208	-1,5
747,435	0,69
747,661	0,41
747,888	1,56
748,114	-0
748,341	1,13
748,567	2,17
748,794	0,66
749,02	0,33
749,247	-3,3
749,473	-4,13
749,7	-3,57
749,926	-4,44
750,152	0,61
750,379	0,55
750,605	0,22
750,831	-0,12
751,058	-0,28
751,284	-0,5
751,51	1,81
751,737	2,48
751,963	0,49
752,189	-0,5
752,415	-0,72
752,641	-0,86
752,867	-0,71
753,094	-0,08
753,32	-0,29
753,546	-2,54
753,772	-1,46
753,998	-4,17
754,224	-4,2
754,45	-6
754,676	-6,17
754,902	-7,46
755,128	-7,44
755,354	-8,02
755,579	-7,97
755,805	-6,39
756,031	-8,8
756,257	-8,69
756,483	-9,55
756,709	-11,55
756,934	-11,34
757,16	-15,91
757,386	-14,95
757,612	-15,73
757,837	-17,84
758,063	-16,8
758,289	-15,36
758,514	-17,07
758,74	-20,01
758,965	-22,31
759,191	-20,38
759,416	-19,77
759,642	-18,68
759,868	-18,06
760,093	-17,06
760,318	-19,14
760,544	-18,19
760,769	-18,07
760,995	-16,76
761,22	-17,88
761,445	-15,55
761,671	-13,19
761,896	-11,57
762,121	-10,89
762,347	-11,53
762,572	-13,47
762,797	-13,88
763,022	-12,71
763,248	-8,23
763,473	-7,77
763,698	-7,88
763,923	-7,02
764,148	-6,56
764,373	-7,44
764,598	-7,02
764,823	-4,97
765,048	-7,45
765,273	-9,44
765,498	-9,63
765,723	-9,58
765,948	-7,83
766,173	-8,98
766,398	-8,12
766,623	-10,59
766,848	-10,55
767,073	-11
767,298	-10,84
767,522	-11,14
767,747	-11,43
767,972	-12,43
768,197	-11,87
768,421	-12,36
768,646	-15,25
768,871	-17,1
769,095	-17,73
769,32	-15,56
769,545	-15,32
769,769	-14,94
769,994	-13,57
770,218	-16,52
770,443	-14,28
770,667	-14,03
770,892	-13,88
771,116	-14,31
771,341	-13,34
771,565	-13,81
771,79	-12,94
772,014	-13,25
772,238	-14,01
772,463	-11,95
772,687	-11,79
772,911	-11,18
773,136	-13,39
773,36	-11,48
773,584	-8,59
773,808	-10,87
774,033	-11,58
774,257	-10,46
774,481	-11,78
774,705	-12,55
774,929	-12,47
775,153	-11,5
775,377	-11,75
775,602	-11,67
775,826	-10,55
776,05	-7,49
776,274	-8,5
776,498	-8,63
776,722	-7,57
776,945	-6,7
777,169	-6,7
777,393	-8,23
777,617	-8,71
777,841	-8,29
778,065	-7,35
778,289	-8,35
778,512	-8,28
778,736	-7,51
778,96	-7,51
779,184	-4,22
779,407	-5,11
779,631	-5,05
779,855	-6,36
780,078	-5,47
780,302	-8,3
780,526	-10,88
780,749	-10,23
780,973	-8,49
781,196	-8,56
781,42	-9,85
781,643	-8,37
781,867	-7,44
782,09	-10,73
782,314	-11,98
782,537	-12,15
782,76	-12,7
782,984	-13,2
783,207	-14,07
783,431	-13,23
783,654	-14,76
783,877	-17,92
784,1	-19,22
784,324	-19,6
784,547	-19,88
784,77	-22,87
784,993	-23,76
785,216	-24,03
785,44	-24,12
785,663	-25,9
785,886	-24,03
786,109	-26,24
786,332	-25,78
786,555	-24,09
786,778	-22,87
787,001	-21,75
787,224	-19,86
787,447	-17,59
787,67	-16,3
787,893	-17
788,116	-17,32
788,339	-16,63
788,561	-18,54
788,784	-21,25
789,007	-21,33
789,23	-21,46
789,453	-21,8
789,675	-22,37
789,898	-24,35
790,121	-24,9
790,344	-25,55
790,566	-25,63
790,789	-23,79
791,012	-23,92
791,234	-21,78
791,457	-19,44
791,679	-18,61
791,902	-17,59
792,124	-17,18
792,347	-17,15
792,569	-16,98
792,792	-18,71
793,014	-16,59
793,237	-16,67
793,459	-17,81
793,681	-17,54
793,904	-18,81
794,126	-20,35
794,348	-21,3
794,571	-20,71
794,793	-21,5
795,015	-20,96
795,237	-20,63
795,46	-20,34
795,682	-19,67
795,904	-16,05
796,126	-17,7
796,348	-17,66
796,57	-15,51
796,792	-14,48
797,014	-11,93
797,237	-10,81
797,459	-9,19
797,681	-8,3
797,903	-9
798,124	-8,59
798,346	0,69
798,568	3,39
798,79	5,64
799,012	7,82
799,234	8,68
799,456	9,25
799,678	9,82
799,899	7,94
800,121	5,71
800,343	6,32
800,565	5,31
800,786	6,57
801,008	7,41
801,23	6,56
801,451	6,99
801,673	5,08
801,895	3,93
802,116	5,01
802,338	6,23
802,559	6,34
802,781	3,59
803,002	6,12
803,224	8,12
803,445	5,89
803,667	7,03
803,888	4,49
804,109	4,02
804,331	3,02
804,552	3,1
804,773	5,22
804,995	3,17
805,216	-7,46
805,437	-9,92
805,658	-12,2
805,88	-14,35
806,101	-14,17
806,322	-12,71
806,543	-12,99
806,764	-14,6
806,985	-12,12
807,207	-12,61
807,428	-10,95
807,649	-13,8
807,87	-13,94
808,091	-11,19
808,312	-10,49
808,533	-4,54
808,754	-2,1
808,975	-2,46
809,195	-0,26
809,416	1,16
809,637	1,78
809,858	1,08
810,079	-1,08
810,3	-0,1
810,52	-1,78
810,741	-2,14
810,962	-2,67
811,183	-2,21
811,403	-3,22
811,624	-4,35
811,845	-3,56
812,065	-3,42
812,286	-2,94
812,506	-3,2
812,727	-3,78
812,948	-3,67
813,168	-3,53
813,389	-3,82
813,609	-2,09
813,83	-4,17
814,05	-5,5
814,27	-5,91
814,491	-3,46
814,711	-4,88
814,931	-8,65
815,152	-9,46
815,372	-12,46
815,592	-13,4
815,813	-14,4
816,033	-16,07
816,253	-15,95
816,473	-18,11
816,694	-17,51
816,914	-16,46
817,134	-16,85
817,354	-18,36
817,574	-17,45
817,794	-17,87
818,014	-18,79
818,234	-18,66
818,454	-18,56
818,674	-20,73
818,894	-23,14
819,114	-20,87
819,334	-19,11
819,554	-17,53
819,774	-13,88
819,994	-15,45
820,214	-15,94
820,433	-16,09
820,653	-15,39
820,873	-12,98
821,093	-12,21
821,312	-12,93
821,532	-11,08
821,752	-9,02
821,972	-10,38
822,191	-9,5
822,411	-10,82
822,63	-11,09
822,85	-11,52
823,07	-13,89
823,289	-11,94
823,509	-13,51
823,728	-11,55
823,948	-12,77
824,167	-12,28
824,387	-12,9
824,606	-10,96
824,825	-12,2
825,045	-11,99
825,264	-12,81
825,483	-10,4
825,703	-7,73
825,922	-8,8
826,141	-10,5
826,361	-9,92
826,58	-15,57
826,799	-17,17
827,018	-16,14
827,237	-16,94
827,456	-16,33
827,676	-15,34
827,895	-15,7
828,114	-15,18
828,333	-14,78
828,552	-15,09
828,771	-14
828,99	-16,58
829,209	-15,94
829,428	-13,58
829,647	-13,71
829,866	-12,6
830,084	-12,88
830,303	-12,98
830,522	-13,45
830,741	-12,33
830,96	-11,47
831,179	-11,92
831,397	-13,93
831,616	-12,15
831,835	-12,7
832,053	-11,62
832,272	-12,74
832,491	-12,76
832,709	-14,37
832,928	-14,58
833,147	-15,22
833,365	-13,72
833,584	-10,44
833,802	-7,98
834,021	-6,9
834,239	-5,45
834,458	-6,7
834,676	-8,86
834,894	-9,94
835,113	-10,73
835,331	-10,7
835,55	-12,35
835,768	-11,18
835,986	-10,29
836,204	-12,07
836,423	-11,75
836,641	-12,87
836,859	-13,85
837,077	-13,21
837,296	-13,53
837,514	-14,84
837,732	-15,35
837,95	-15,35
838,168	-13,6
838,386	-14,96
838,604	-12,99
838,822	-13,41
839,04	-14,07
839,258	-12,05
839,476	-11,57
839,694	-11,19
839,912	-12,36
840,13	-12,56
840,348	-11,49
840,566	-15,48
840,783	-13,13
841,001	-15,18
841,219	-13,51
841,437	-12,56
841,655	-11,3
841,872	-11,29
842,09	-11,82
842,308	-10,11
842,525	-9,68
842,743	-9,61
842,961	-9,7
843,178	-10,55
843,396	-6,95
843,613	-5,67
843,831	-4,68
844,048	-5,38
844,266	-4,45
844,483	-5,5
844,701	-5,79
844,918	-4,92
845,136	-5,78
845,353	-8,9
845,57	-7,88
845,788	-6,16
846,005	-8,49
846,222	-8,99
846,439	-7,98
846,657	-7,62
846,874	-7,81
847,091	-10,09
847,308	-7,81
847,526	-9,07
847,743	-8,72
847,96	-11,76
848,177	-11,08
848,394	-11,93
848,611	-12,57
848,828	-13,93
849,045	-14,35
849,262	-15
849,479	-15,48
849,696	-17,53
849,913	-18,22
850,13	-22,42
850,347	-20,89
850,564	-22,23
850,78	-23,33
850,997	-24,76
851,214	-23,8
851,431	-22,98
851,647	-25,82
851,864	-24,01
852,081	-21,42
852,298	-24,23
852,514	-24,73
852,731	-23,66
852,948	-21,93
853,164	-21,75
853,381	-22,41
853,597	-22,18
853,814	-23,4
854,03	-26,19
854,247	-25,63
854,463	-25,84
854,68	-24,55
854,896	-24,46
855,113	-24,3
855,329	-24,06
855,545	-20,56
855,762	-22,32
855,978	-25,34
856,194	-27,33
856,411	-22,95
856,627	-20,7
856,843	-18,29
857,059	-17,42
857,275	-18,39
857,492	-17,63
857,708	-13,98
857,924	-13,8
858,14	-11,26
858,356	-12,22
858,572	-12,02
858,788	-13,38
859,004	-11,67
859,22	-13,41
859,436	-12,78
859,652	-14,19
859,868	-15,17
860,084	-14,25
860,3	-14,69
860,516	-14,36
860,731	-12,42
860,947	-14,85
861,163	-13,7
861,379	-13,56
861,595	-12,46
861,81	-10,9
862,026	-11,39
862,242	-12,59
862,457	-11,14
862,673	-8,99
862,889	-8,52
863,104	-9,9
863,32	-10,33
863,535	-10,18
863,751	-13,39
863,966	-10,67
864,182	-8,64
864,397	-11,1
864,613	-11,65
864,828	-13,24
865,044	-11,73
865,259	-11,15
865,474	-10,71
865,69	-10,05
865,905	-8,59
866,12	-11,19
866,336	-10,58
866,551	-10,04
866,766	-10,48
866,981	-10,31
867,196	-9,52
867,412	-9,87
867,627	-9,25
867,842	-10,97
868,057	-12,37
868,272	-13,42
868,487	-14,76
868,702	-15,57
868,917	-16,27
869,132	-16,27
869,347	-16,23
869,562	-15,97
869,777	-16,04
869,992	-17,72
870,207	-18,33
870,422	-18,9
870,636	-19,94
870,851	-21,4
871,066	-22,33
871,281	-21,86
871,495	-22,69
871,71	-19,9
871,925	-21,86
872,14	-23,65
872,354	-24,56
872,569	-25,78
872,783	-24,09
872,998	-23,41
873,213	-23,87
873,427	-22,12
873,642	-20,96
873,856	-21,12
874,071	-21,19
874,285	-22,96
874,5	-23,78
874,714	-25,39
874,928	-26,47
875,143	-26,83
875,357	-25,78
875,571	-25,81
875,786	-25,93
876	-23,31
876,214	-22,14
876,429	-24,07
876,643	-22,9
876,857	-22,6
877,071	-21,03
877,285	-22,05
877,499	-23,84
877,714	-21,31
877,928	-20,11
878,142	-21,91
878,356	-24,14
878,57	-23,05
878,784	-21,33
878,998	-22,55
879,212	-20,09
879,426	-21,89
879,639	-21,3
879,853	-21,28
880,067	-21,5
880,281	-21,95
880,495	-20,73
880,709	-18,54
880,922	-16,76
881,136	-15,28
881,35	-12,63
881,564	-12,37
881,777	-14,45
881,991	-14,46
882,205	-12,38
882,418	-11,17
882,632	-13,34
882,845	-13
883,059	-11,84
883,273	-12,79
883,486	-14,02
883,7	-12,11
883,913	-12,52
884,126	-11,85
884,34	-14,82
884,553	-16,83
884,767	-13,54
884,98	-13,24
885,193	-14,35
885,407	-14,33
885,62	-12,01
885,833	-12,56
886,046	-9,6
886,26	-10,82
886,473	-11,58
886,686	-12,65
886,899	-11,42
887,112	-13,08
887,326	-16,72
887,539	-15,97
887,752	-15,04
887,965	-16,94
888,178	-16,41
888,391	-14,55
888,604	-13,74
888,817	-14,89
889,03	-14,79
889,243	-16,15
889,455	-18,66
889,668	-18,35
889,881	-16,29
890,094	-16,55
890,307	-19,02
890,52	-17,7
890,732	-16,48
890,945	-14,79
891,158	-13,62
891,37	-14,83
891,583	-14,91
891,796	-12,94
892,008	-15,15
892,221	-16
892,434	-18,96
892,646	-20,51
892,859	-21,81
893,071	-19,86
893,284	-19,16
893,496	-20,96
893,709	-20,22
893,921	-18,57
894,133	-18,89
894,346	-19,33
894,558	-19,35
894,771	-19,07
894,983	-18,56
895,195	-17,15
895,407	-17,79
895,62	-19,76
895,832	-18,64
896,044	-16,75
896,256	-17,93
896,468	-20,28
896,681	-18,62
896,893	-18,01
897,105	-17,32
897,317	-18,98
897,529	-18,25
897,741	-17,63
897,953	-16,49
898,165	-17,24
898,377	-19,1
898,589	-16,25
898,801	-16,2
899,013	-13,71
899,224	-11,44
899,436	-10,46
899,648	-11,79
899,86	-12,82
900,072	-10,7
900,283	-10,84
900,495	-8,99
900,707	-8,69
900,919	-11,02
901,13	-9,32
901,342	-10,52
901,554	-10,74
901,765	-10,78
901,977	-12,16
902,188	-11,45
902,4	-12,41
902,611	-13,4
902,823	-13,49
903,034	-13,6
903,246	-14,59
903,457	-14,96
903,669	-16,56
903,88	-16,13
904,091	-16,11
904,303	-15,43
904,514	-16,95
904,725	-15,47
904,936	-15,05
905,148	-16,29
905,359	-14,43
905,57	-14,31
905,781	-17,49
905,992	-17,51
906,204	-17,21
906,415	-17,58
906,626	-20,09
906,837	-18,57
907,048	-21,39
907,259	-20,66
907,47	-20,53
907,681	-21
907,892	-17,42
908,103	-19,62
908,314	-22,87
908,525	-20,64
908,735	-21,29
908,946	-20,96
909,157	-21,6
909,368	-20,14
909,579	-19,18
909,789	-20,29
910	-21,34
910,211	-18,31
910,421	-18,94
910,632	-20,03
910,843	-22,98
911,053	-19,99
911,264	-18,54
911,475	-18,79
911,685	-18,19
911,896	-18,5
912,106	-18,64
912,317	-18,11
912,527	-15,29
912,737	-14,87
912,948	-14,34
913,158	-12,78
913,369	-15,45
913,579	-13,07
913,789	-13,91
914	-10,83
914,21	-12,08
914,42	-13,24
914,63	-11,36
914,841	-10,02
915,051	-9,47
915,261	-8,83
915,471	-6,69
915,681	-6,25
915,891	-6,16
916,101	-6,51
916,311	-6,22
916,521	-5,61
916,731	-6,62
916,941	-4,95
917,151	-5,64
917,361	-2,53
917,571	-5,99
917,781	-7,45
917,991	-8,14
918,201	-8,45
918,411	-11,88
918,621	-11,98
918,83	-12,63
919,04	-15,4
919,25	-14,36
919,46	-11,36
919,669	-13,71
919,879	-14,15
920,089	-15,57
920,298	-16,81
920,508	-17,68
920,717	-16,7
920,927	-18,41
921,136	-18,82
921,346	-19,87
921,555	-21,89
921,765	-21,45
921,974	-24,15
922,184	-26,01
922,393	-27,54
922,603	-28,77
922,812	-27,89
923,021	-27,57
923,23	-28,98
923,44	-31,53
923,649	-30,79
923,858	-32,04
924,067	-30,89
924,277	-32,77
924,486	-31,31
924,695	-31,44
924,904	-29,74
925,113	-29,76
925,322	-27,93
925,531	-26,87
925,74	-29
925,949	-30,06
926,158	-28,17
926,367	-26,28
926,576	-25,64
926,785	-26,41
926,994	-27,99
927,203	-27,36
927,412	-28,1
927,621	-27,88
927,83	-25,99
928,038	-26,9
928,247	-28,01
928,456	-27,02
928,665	-25,42
928,873	-23,84
929,082	-21,09
929,291	-19,96
929,499	-18,2
929,708	-18,57
929,916	-16,82
930,125	-17,63
930,333	-17,39
930,542	-15,19
930,75	-12,3
930,959	-12,53
931,167	-12,34
931,376	-13,46
931,584	-12,69
931,793	-12,22
932,001	-13,62
932,209	-14,79
932,418	-18,35
932,626	-19,33
932,834	-21,72
933,042	-23,93
933,251	-23,46
933,459	-21,86
933,667	-21,77
933,875	-21,95
934,083	-21,6
934,291	-22,4
934,499	-20,28
934,707	-19,87
934,915	-20,62
935,123	-19,71
935,331	-19,59
935,539	-22,41
935,747	-24,49
935,955	-26,46
936,163	-26,03
936,371	-25,42
936,579	-24,53
936,787	-26,44
936,995	-28,87
937,202	-32,35
937,41	-31,41
937,618	-32,5
937,826	-30,79
938,033	-33,57
938,241	-35,09
938,449	-32,51
938,656	-30,47
938,864	-29,25
939,071	-28,54
939,279	-25,5
939,486	-23,37
939,694	-24,31
939,901	-26,49
940,109	-25,69
940,316	-23,2
940,524	-23,26
940,731	-24,56
940,939	-24,08
941,146	-24,15
941,353	-23,65
941,561	-23,3
941,768	-23,69
941,975	-21,43
942,182	-21,67
942,39	-20,89
942,597	-18,07
942,804	-18,84
943,011	-18,18
943,218	-16,18
943,425	-15,37
943,632	-13,53
943,839	-15,8
944,046	-16,55
944,253	-16,91
944,46	-16,14
944,667	-13,55
944,874	-14,83
945,081	-13,74
945,288	-12,77
945,495	-12,36
945,702	-12,76
945,909	-14,96
946,115	-13,19
946,322	-13,55
946,529	-14,33
946,736	-14,89
946,942	-13,32
947,149	-11,69
947,356	-13,9
947,562	-15,41
947,769	-16,9
947,976	-19,14
948,182	-17,78
948,389	-19,62
948,595	-17,86
948,802	-17,39
949,008	-18,81
949,215	-18,07
949,421	-19,26
949,628	-21,23
949,834	-21,47
950,04	-22,07
950,247	-18,62
950,453	-18,52
950,659	-19,34
950,865	-17,95
951,072	-22,79
951,278	-21,04
951,484	-22,2
951,69	-24,86
951,896	-25,08
952,103	-25,5
952,309	-23,29
952,515	-23,53
952,721	-21,78
952,927	-22,21
953,133	-23,1
953,339	-25,51
953,545	-26,93
953,751	-24,79
953,957	-22,37
954,163	-21,28
954,369	-19,4
954,574	-21,12
954,78	-20,65
954,986	-21,74
955,192	-21,04
955,398	-22,53
955,603	-24,49
955,809	-22,57
956,015	-19,78
956,22	-19,5
956,426	-19,95
956,632	-23,46
956,837	-22,19
957,043	-21,83
957,248	-21,39
957,454	-20
957,66	-22,61
957,865	-22,24
958,07	-19,93
958,276	-21,3
958,481	-23,28
958,687	-24,76
958,892	-24,07
959,097	-25,22
959,303	-25,65
959,508	-27,56
959,713	-27,15
959,919	-26,03
960,124	-27,42
960,329	-27,1
960,534	-25,56
960,739	-24,95
960,945	-23,8
961,15	-24
961,355	-24,13
961,56	-26,34
961,765	-27,35
961,97	-27,07
962,175	-26,83
962,38	-31,2
962,585	-30,1
962,79	-31,14
962,995	-30,33
963,2	-30,84
963,404	-31,22
963,609	-33,2
963,814	-33,55
964,019	-34,76
964,224	-36,87
964,428	-35,79
964,633	-33,86
964,838	-32,66
965,042	-31,81
965,247	-33,47
965,452	-32,84
965,656	-30,03
965,861	-28,8
966,066	-28,48
966,27	-26,25
966,475	-23,79
966,679	-27,01
966,884	-25,3
967,088	-27,97
967,292	-28,44
967,497	-27,35
967,701	-27,33
967,906	-26,42
968,11	-24,49
968,314	-21,55
968,518	-22,44
968,723	-19,8
968,927	-19,47
969,131	-17,16
969,335	-15,01
969,539	-15,57
969,744	-13,63
969,948	-12,13
970,152	-10,88
970,356	-8,61
970,56	-8,34
970,764	-9,64
970,968	-8,73
971,172	-8,29
971,376	-8,17
971,58	-6,97
971,784	-5,59
971,988	-8,71
972,192	-6,4
972,395	-7,16
972,599	-10,22
972,803	-10,7
973,007	-9,01
973,21	-10,05
973,414	-9,67
973,618	-9,66
973,822	-10,75
974,025	-10,82
974,229	-11,18
974,432	-12,99
974,636	-14,79
974,84	-14,97
975,043	-14,72
975,247	-17,33
975,45	-18,47
975,654	-18,41
975,857	-16,77
976,06	-18,87
976,264	-20,35
976,467	-19,88
976,671	-20,99
976,874	-19,76
977,077	-20,46
977,28	-22,09
977,484	-23,13
977,687	-23,62
977,89	-22,17
978,093	-23,21
978,297	-22,07
978,5	-23,36
978,703	-22,21
978,906	-21
979,109	-21,65
979,312	-20,7
979,515	-22,74
979,718	-22,66
979,921	-22,74
980,124	-23,2
980,327	-23,03
980,53	-21,81
980,733	-20,86
980,936	-18,1
981,138	-19,35
981,341	-18,61
981,544	-18,59
981,747	-18,01
981,949	-19,9
982,152	-18,71
982,355	-18,55
982,558	-15,15
982,76	-17,58
982,963	-18,03
983,165	-17,29
983,368	-16,64
983,571	-16,99
983,773	-14,26
983,976	-14,18
984,178	-15,04
984,381	-14,4
984,583	-15,7
984,785	-15,79
984,988	-14,28
985,19	-13,41
985,392	-15,05
985,595	-17,33
985,797	-17,26
985,999	-15,03
986,202	-14,25
986,404	-13,17
986,606	-11,52
986,808	-13,11
987,01	-10,97
987,212	-11,77
987,415	-12,04
987,617	-12,69
987,819	-13,14
988,021	-13,06
988,223	-13,22
988,425	-15,4
988,627	-14,4
988,829	-17,61
989,031	-15,12
989,232	-15,55
989,434	-15,12
989,636	-15,89
989,838	-15,15
990,04	-15,72
990,242	-15,62
990,443	-16,84
990,645	-16,34
990,847	-14,41
991,048	-13,67
991,25	-15,11
991,452	-15,4
991,653	-15,89
991,855	-15,21
992,057	-14,28
992,258	-14,61
992,46	-15,75
992,661	-16,6
992,863	-17,09
993,064	-15,28
993,265	-17,61
993,467	-20,59
993,668	-18,74
993,87	-18,06
994,071	-17,61
994,272	-17,28
994,473	-16,24
994,675	-13,79
994,876	-13,96
995,077	-13,55
995,278	-12,87
995,48	-12,56
995,681	-13,5
995,882	-11,88
996,083	-13,08
996,284	-15,22
996,485	-16,11
996,686	-17,35
996,887	-18,36
997,088	-20,68
997,289	-22,15
997,49	-22,36
997,691	-23,55
997,892	-24,09
998,092	-20,05
998,293	-20,1
998,494	-20,11
998,695	-19,77
998,896	-18,32
999,096	-18,74
999,297	-19,44
999,498	-20,05
999,698	-21,22
999,899	-22,76
1000,1	-25,58
1000,3	-25,45
1000,501	-25,35
1000,701	-26,07
1000,902	-27,76
1001,102	-27,4
1001,303	-26,13
1001,503	-28
1001,704	-27,18
1001,904	-29,69
1002,105	-30,21
1002,305	-29,01
1002,505	-30,21
1002,706	-29,48
1002,906	-27,5
1003,106	-27,13
1003,306	-26,11
1003,507	-25,9
1003,707	-26,45
1003,907	-24,03
1004,107	-21,74
1004,307	-23,8
1004,507	-22,68
1004,707	-22,07
1004,907	-23,26
1005,107	-22,97
1005,308	-22,97
1005,507	-24,32
1005,707	-23,03
1005,907	-21,81
1006,107	-20,02
1006,307	-17,73
1006,507	-18,63
1006,707	-18,61
1006,907	-17,02
1007,106	-17,6
1007,306	-17,88
1007,506	-17,8
1007,706	-17,79
1007,905	-20,11
1008,105	-18,76
1008,305	-19,13
1008,504	-19,17
1008,704	-14,94
1008,903	-14,86
1009,103	-14,84
1009,303	-16,8
1009,502	-15,51
1009,702	-15,28
1009,901	-13,51
1010,1	-16,01
1010,3	-14,75
1010,499	-16,37
1010,699	-18,06
1010,898	-20,68
1011,097	-20,68
1011,296	-21,9
1011,496	-22,26
1011,695	-21,73
1011,894	-22,26
1012,093	-19,79
1012,293	-20,4
1012,492	-20,7
1012,691	-19,62
1012,89	-19,79
1013,089	-23,2
1013,288	-22,51
1013,487	-22,31
1013,686	-22,86
1013,885	-24,61
1014,084	-23,44
1014,283	-22,95
1014,482	-23,64
1014,681	-24,07
1014,88	-26,71
1015,078	-25,31
1015,277	-26,12
1015,476	-25,79
1015,675	-27,15
1015,873	-26,44
1016,072	-30,23
1016,271	-28,31
1016,47	-30,69
1016,668	-29,61
1016,867	-30,33
1017,065	-31,06
1017,264	-30,92
1017,463	-29,84
1017,661	-29,7
1017,86	-29,58
1018,058	-29,01
1018,256	-29,97
1018,455	-30,15
1018,653	-29,67
1018,852	-28,95
1019,05	-29,83
1019,248	-29,87
1019,447	-30,6
1019,645	-30,99
1019,843	-32,1
1020,041	-29,85
1020,24	-29,63
1020,438	-27,43
1020,636	-28,35
1020,834	-30,26
1021,032	-28,2
1021,23	-28,77
1021,428	-27,33
1021,626	-24,46
1021,824	-24,23
1022,022	-25,37
1022,22	-21,73
1022,418	-21,15
1022,616	-21,85
1022,814	-22,79
1023,012	-22,29
1023,21	-20,6
1023,408	-19,58
1023,606	-20,26
1023,803	-17,13
1024,001	-16,13
1024,199	-18,25
1024,397	-17,9
1024,594	-18,23
1024,792	-19,27
1024,99	-19,59
1025,187	-20,19
1025,385	-15,87
1025,582	-15,86
1025,78	-15,95
1025,977	-16,26
1026,175	-15,92
1026,372	-15,15
1026,57	-17,08
1026,767	-14,49
1026,965	-13,98
1027,162	-14,62
1027,359	-15,4
1027,557	-15,7
1027,754	-17,97
1027,951	-18,81
1028,148	-17,38
1028,346	-19,54
1028,543	-21,47
1028,74	-21,07
1028,937	-22,41
1029,134	-22,9
1029,331	-22,78
1029,528	-22,8
1029,725	-24,25
1029,923	-26,75
1030,12	-25,61
1030,317	-24
1030,513	-23,22
1030,71	-23,04
1030,907	-21,3
1031,104	-22,4
1031,301	-22,88
1031,498	-23,93
1031,695	-23,53
1031,892	-23,11
1032,088	-22,68
1032,285	-24,93
1032,482	-25,65
1032,678	-27,13
1032,875	-28,75
1033,072	-28
1033,268	-27,26
1033,465	-27,35
1033,662	-29,3
1033,858	-29,03
1034,055	-28,53
1034,251	-26,65
1034,448	-27,05
1034,644	-25,82
1034,84	-24,44
1035,037	-23,73
1035,233	-24,46
1035,43	-23,32
1035,626	-23,72
1035,822	-23,07
1036,019	-23,92
1036,215	-26,91
1036,411	-26,67
1036,607	-28,47
1036,803	-29,59
1037	-31,13
1037,196	-31,82
1037,392	-32,38
1037,588	-34,97
1037,784	-34,56
1037,98	-35,36
1038,176	-35,4
1038,372	-35,33
1038,568	-34,58
1038,764	-32,28
1038,96	-31,29
1039,156	-31,79
1039,352	-33,14
1039,547	-31,06
1039,743	-30,13
1039,939	-27,92
1040,135	-28,65
1040,331	-30,88
1040,526	-28,27
1040,722	-29,51
1040,918	-31,5
1041,113	-32,49
1041,309	-30,46
1041,505	-32,59
1041,7	-33,16
1041,896	-32,76
1042,091	-32,91
1042,287	-32,27
1042,482	-32,52
1042,678	-32,54
1042,873	-31,88
1043,069	-31,89
1043,264	-30,67
1043,459	-28,72
1043,655	-27,27
1043,85	-27,73
1044,045	-27,04
1044,24	-26,54
1044,436	-24,22
1044,631	-24,73
1044,826	-26,53
1045,021	-27,1
1045,216	-25,82
