Data from FLMT021711__23__16-32-47-106.txt Node

Date: Tue Nov 05 16:32:47 CET 2024
User: Etudiants TP
Spectrometer: FLMT02171
Trigger mode: 0
Integration Time (sec): 1,000000E-1
Scans to average: 5
Electric dark correction enabled: true
Nonlinearity correction enabled: false
Boxcar width: 15
XAxis mode: Wavelengths
Number of Pixels in Spectrum: 3648
>>>>>Begin Spectral Data<<<<<
194,658	-45,35
194,923	-44,13
195,188	-38,71
195,453	-39,08
195,717	-34,5
195,982	-33,52
196,247	-32,88
196,512	-36,14
196,777	-34,97
197,042	-34,35
197,307	-33,84
197,572	-30,7
197,837	-31,06
198,101	-29,12
198,366	-27,45
198,631	-26,77
198,896	-23,1
199,161	-18,24
199,425	-13,27
199,69	-5,72
199,955	-6,45
200,22	-9,66
200,484	-10,6
200,749	-10,02
201,014	-9,55
201,278	-9,68
201,543	-9,66
201,807	-10,33
202,072	-10,14
202,337	-11,01
202,601	-10,53
202,866	-14,58
203,13	-12,43
203,395	-14,73
203,659	-13,89
203,924	-15,53
204,189	-14,44
204,453	-12,65
204,717	-9,56
204,982	-8,63
205,246	-7,07
205,511	-6,62
205,775	-7,13
206,04	-3,4
206,304	-3,11
206,568	-1,02
206,833	-0,56
207,097	0,49
207,361	1,95
207,626	4,54
207,89	5,93
208,154	6,94
208,419	8,17
208,683	8,84
208,947	11,2
209,211	11,06
209,476	10,94
209,74	11,95
210,004	12,22
210,268	13,47
210,532	16,32
210,796	17,16
211,061	18,88
211,325	18,49
211,589	17,32
211,853	17,36
212,117	18,06
212,381	17,76
212,645	18,39
212,909	17,02
213,173	14,8
213,437	15,38
213,701	16,33
213,965	16,3
214,229	13,2
214,493	12,73
214,757	10,76
215,021	10,15
215,285	13,78
215,549	14,01
215,813	10,63
216,077	8,7
216,34	10,36
216,604	10,38
216,868	11,58
217,132	11,38
217,396	10,95
217,659	11,06
217,923	8,49
218,187	7,14
218,451	5,9
218,714	5,05
218,978	5
219,242	6,56
219,505	7,28
219,769	9,22
220,033	8,96
220,296	8,65
220,56	8,58
220,824	5,14
221,087	6,87
221,351	6,28
221,614	5,82
221,878	6,3
222,142	4,05
222,405	4,35
222,669	6,29
222,932	4,1
223,196	3,99
223,459	1
223,722	2,29
223,986	3,43
224,249	2,92
224,513	2,87
224,776	2,95
225,04	1,85
225,303	2,09
225,566	1,87
225,83	3,64
226,093	4,72
226,356	4,24
226,62	3,89
226,883	4,18
227,146	4,42
227,409	4,69
227,673	2,83
227,936	0,96
228,199	1,99
228,462	0,65
228,725	-0,34
228,989	1,35
229,252	1,79
229,515	6,99
229,778	5,27
230,041	4,8
230,304	4,41
230,567	4,75
230,83	2,3
231,093	4,33
231,356	4,28
231,619	9,63
231,882	8,71
232,145	10,25
232,408	8,71
232,671	7,67
232,934	7,4
233,197	6,54
233,46	4,79
233,723	5,59
233,986	3,17
234,249	1,96
234,512	3,95
234,775	7,25
235,037	6,64
235,3	6,95
235,563	6,69
235,826	6,34
236,089	8,83
236,351	8,19
236,614	10,74
236,877	11,35
237,14	12,61
237,402	11,99
237,665	6,57
237,928	6,61
238,19	4,49
238,453	6,56
238,716	5,66
238,978	6,99
239,241	5,22
239,503	6,13
239,766	1,72
240,029	0,05
240,291	1,6
240,554	1,98
240,816	1,22
241,079	1,82
241,341	0,86
241,604	1,26
241,866	-0,07
242,129	1,28
242,391	2,82
242,653	1,73
242,916	1,43
243,178	0,71
243,441	0
243,703	-1,49
243,965	-1,03
244,228	-1,32
244,49	-0,59
244,752	-0,46
245,015	1,1
245,277	1,9
245,539	1,79
245,801	3,27
246,064	3,47
246,326	4,99
246,588	5,23
246,85	7,36
247,112	8,25
247,374	9,95
247,637	11,73
247,899	10,99
248,161	11,22
248,423	8,45
248,685	9,36
248,947	8,96
249,209	8,66
249,471	10,27
249,733	10,12
249,995	9,22
250,257	8,65
250,519	8,98
250,781	12,56
251,043	9,32
251,305	9,83
251,567	12,4
251,829	14,47
252,091	12,71
252,353	9,74
252,615	9,11
252,876	7,97
253,138	6,8
253,4	3,25
253,662	3,94
253,924	5,65
254,185	6,5
254,447	5,3
254,709	4,8
254,971	4,64
255,232	4,72
255,494	3,8
255,756	2,54
256,017	3,08
256,279	3,98
256,541	3
256,802	3,62
257,064	3,72
257,326	3,6
257,587	4,54
257,849	6,16
258,11	9,79
258,372	9,39
258,633	9,11
258,895	7,29
259,156	6,63
259,418	7,06
259,679	3,87
259,941	1,57
260,202	3,6
260,464	6,28
260,725	5,57
260,987	4,49
261,248	3,73
261,509	4,32
261,771	1,82
262,032	3,76
262,293	2,75
262,555	2,72
262,816	1,91
263,077	1,28
263,338	-1,1
263,6	-0,44
263,861	-1,66
264,122	-1,3
264,383	0,28
264,645	1,69
264,906	0,57
265,167	1,42
265,428	0,25
265,689	0,1
265,95	-1,76
266,211	-2,77
266,473	-1,96
266,734	-4,58
266,995	-6,71
267,256	-4,68
267,517	-3,3
267,778	-1,33
268,039	0,08
268,3	-0,64
268,561	-2,59
268,822	0,14
269,083	-1,91
269,344	-2,67
269,604	-2,19
269,865	-0,02
270,126	-3,62
270,387	-3,35
270,648	-3,11
270,909	-4,09
271,17	-5,19
271,43	-7,34
271,691	-9,11
271,952	-9,24
272,213	-8,78
272,473	-10,17
272,734	-9,77
272,995	-8,32
273,256	-7,55
273,516	-4,45
273,777	-6,89
274,038	-5,03
274,298	-7,57
274,559	-7,68
274,82	-4,86
275,08	-2,61
275,341	-2,56
275,601	-3,25
275,862	-5,66
276,122	-5,84
276,383	-5,76
276,643	-4,3
276,904	-5,96
277,164	-1,81
277,425	-2,27
277,685	0,68
277,946	0,22
278,206	1,18
278,467	3,41
278,727	4,7
278,987	5,14
279,248	5,26
279,508	7,85
279,768	9,98
280,029	10,77
280,289	9,37
280,549	8,48
280,81	8,1
281,07	7,48
281,33	8,07
281,59	6,26
281,851	8,8
282,111	6,61
282,371	6,16
282,631	7,37
282,891	6,73
283,151	4,92
283,412	3,9
283,672	3,84
283,932	5,85
284,192	6,67
284,452	5,39
284,712	4,21
284,972	3,51
285,232	1,21
285,492	3,53
285,752	1,44
286,012	6,04
286,272	6,78
286,532	4,14
286,792	4,33
287,052	6,34
287,312	6,26
287,571	3,9
287,831	3,88
288,091	2,18
288,351	2
288,611	5,06
288,871	4,31
289,13	2,87
289,39	-0,43
289,65	0,75
289,91	-0,7
290,17	1,73
290,429	4,67
290,689	1,98
290,949	0,06
291,208	0,27
291,468	2,98
291,728	3,04
291,987	4,02
292,247	2,84
292,506	5,31
292,766	7,37
293,026	6,42
293,285	8,19
293,545	9,2
293,804	8,8
294,064	6,4
294,323	4,89
294,583	6,4
294,842	5,17
295,102	5,01
295,361	5,33
295,621	5,82
295,88	5,62
296,139	5,67
296,399	6,48
296,658	3,4
296,917	4,99
297,177	4,32
297,436	6,16
297,695	3,9
297,955	5,18
298,214	3,64
298,473	3,94
298,732	6
298,992	7,84
299,251	7,63
299,51	3,77
299,769	3,78
300,028	2,59
300,287	2,42
300,547	2,95
300,806	1,39
301,065	3,97
301,324	4,65
301,583	2,67
301,842	-0,45
302,101	-2,02
302,36	-2,07
302,619	-2,74
302,878	-2
303,137	-3,14
303,396	-1,88
303,655	1,77
303,914	-0,25
304,173	0,67
304,432	-0,99
304,691	0,37
304,95	-1,76
305,208	3
305,467	3,41
305,726	3,11
305,985	3,59
306,244	5,92
306,503	5,82
306,761	3,43
307,02	1,63
307,279	1,82
307,537	2,77
307,796	1,52
308,055	0,71
308,314	1,95
308,572	-0,88
308,831	-0,58
309,09	-0,23
309,348	-0,3
309,607	-2,35
309,865	2,34
310,124	1,68
310,382	4,09
310,641	4,52
310,9	3,52
311,158	3,64
311,417	3,9
311,675	2,58
311,933	3,55
312,192	3,79
312,45	4,93
312,709	4,36
312,967	3,66
313,226	1,16
313,484	0,66
313,742	-0,13
314,001	-2,11
314,259	-4,14
314,517	-2,85
314,776	0,57
315,034	3,7
315,292	2,98
315,55	1,32
315,809	0,46
316,067	-0,42
316,325	-2,69
316,583	-0,24
316,841	-0,33
317,1	-1,29
317,358	-4,06
317,616	-3,48
317,874	-5,14
318,132	-6,54
318,39	-7,84
318,648	-7,9
318,906	-8,28
319,164	-7,95
319,422	-9,58
319,68	-11,66
319,938	-11,92
320,196	-11,38
320,454	-10,49
320,712	-10,53
320,97	-9,42
321,228	-10,03
321,486	-8,82
321,744	-7,08
322,002	-5,31
322,26	-6,58
322,517	-8,28
322,775	-9,96
323,033	-13,35
323,291	-11,08
323,549	-8,53
323,806	-7,12
324,064	-5,44
324,322	-2,53
324,58	-5,32
324,837	-3,48
325,095	-5,55
325,353	-4,63
325,61	-2,39
325,868	-2,18
326,126	1,02
326,383	0,6
326,641	-0,85
326,898	1,09
327,156	0,4
327,413	1,85
327,671	3,96
327,928	6,31
328,186	6,27
328,443	4,95
328,701	7,31
328,958	7,05
329,216	6,43
329,473	4,49
329,731	4,8
329,988	3,92
330,245	6,35
330,503	7,77
330,76	7,86
331,017	9,54
331,275	6,69
331,532	6,65
331,789	4,7
332,047	3,55
332,304	1,02
332,561	1,86
332,818	0,14
333,076	1,92
333,333	3,71
333,59	3,52
333,847	4,29
334,104	2,48
334,361	1,06
334,618	0,67
334,876	-1,12
335,133	-1,48
335,39	-2,52
335,647	-2,69
335,904	-6,72
336,161	-8,22
336,418	-7,93
336,675	-11
336,932	-9,3
337,189	-8,41
337,446	-7,1
337,703	-8,34
337,96	-10,88
338,216	-10,58
338,473	-13,12
338,73	-13,37
338,987	-12,26
339,244	-8,5
339,501	-9,99
339,757	-8,38
340,014	-7,25
340,271	-5
340,528	-4,82
340,785	-1,12
341,041	-1,49
341,298	-3,77
341,555	-4,54
341,811	-6,24
342,068	-8,27
342,325	-7,78
342,581	-5,46
342,838	-3,17
343,094	-3,35
343,351	-4,29
343,608	-6,44
343,864	-3,81
344,121	-3,5
344,377	-3,85
344,634	-3,09
344,89	-4,2
345,147	-5,89
345,403	-7,21
345,66	-7,1
345,916	-4,83
346,172	-7,25
346,429	-7,47
346,685	-9,1
346,942	-9,29
347,198	-12,76
347,454	-11,47
347,711	-11,56
347,967	-13,38
348,223	-13,86
348,48	-13,68
348,736	-12,76
348,992	-11,88
349,248	-10,06
349,504	-9,83
349,761	-9,05
350,017	-7,75
350,273	-7,08
350,529	-8,03
350,785	-8,56
351,041	-8,64
351,297	-7,64
351,554	-7,22
351,81	-8,78
352,066	-8,73
352,322	-8,68
352,578	-8,58
352,834	-8,01
353,09	-7,19
353,346	-7,39
353,602	-7,61
353,858	-8,97
354,114	-9,27
354,369	-8,09
354,625	-5,83
354,881	-7,74
355,137	-5,8
355,393	-6,04
355,649	-6,2
355,905	-5,74
356,16	-6,81
356,416	-6,77
356,672	-10,61
356,928	-11,26
357,183	-12,32
357,439	-12,63
357,695	-13,04
357,951	-9,4
358,206	-9,98
358,462	-10,34
358,718	-12,59
358,973	-12,3
359,229	-11,48
359,484	-11,73
359,74	-9,03
359,996	-9,12
360,251	-6,7
360,507	-6,93
360,762	-7,17
361,018	-5,24
361,273	-4,16
361,529	-3,87
361,784	-3,03
362,04	-0,86
362,295	-2,27
362,55	-2,34
362,806	0,51
363,061	1,31
363,316	2,2
363,572	3,17
363,827	4,62
364,082	1,91
364,338	2,56
364,593	1,73
364,848	2,66
365,104	1,31
365,359	3,34
365,614	3,43
365,869	-0,08
366,124	1,26
366,38	0,45
366,635	1,6
366,89	2,39
367,145	1,13
367,4	4,06
367,655	3,87
367,91	5,04
368,165	3,95
368,42	1,82
368,675	1,53
368,93	1,66
369,185	-0,64
369,44	-0,25
369,695	-0,6
369,95	-1,9
370,205	-1,44
370,46	-1,88
370,715	-2,17
370,97	-2,35
371,225	-3,26
371,48	-2,68
371,734	-2,78
371,989	-0,67
372,244	-2,15
372,499	-0,38
372,754	-1,76
373,008	-2,56
373,263	-4,97
373,518	-3,88
373,773	-3,71
374,027	-6,41
374,282	-4,14
374,537	-2,58
374,791	-0,99
375,046	-1,46
375,301	-3,33
375,555	-4,72
375,81	-4,69
376,064	-4,08
376,319	-1,45
376,573	-2,02
376,828	-4,89
377,082	-1,16
377,337	-3,08
377,591	-3,2
377,846	-2,02
378,1	-0,56
378,355	-0,53
378,609	-2,15
378,863	-4,33
379,118	-2,32
379,372	-3,98
379,627	-6,83
379,881	-8,07
380,135	-6,83
380,389	-7,68
380,644	-7
380,898	-6,09
381,152	-7,57
381,407	-8,62
381,661	-6,96
381,915	-3,81
382,169	-3,55
382,423	-5,37
382,677	-9,08
382,932	-7,16
383,186	-6,48
383,44	-4,5
383,694	-1,83
383,948	-3,96
384,202	-4,29
384,456	-2,36
384,71	0,2
384,964	-1,29
385,218	1,01
385,472	1,79
385,726	1,65
385,98	2,21
386,234	1,97
386,488	0,25
386,742	1,02
386,996	-1,44
387,249	-0,19
387,503	1,97
387,757	2,67
388,011	4,01
388,265	4,46
388,518	4,72
388,772	5,95
389,026	8,52
389,28	7,71
389,533	5,62
389,787	6,55
390,041	4,2
390,295	4,69
390,548	6,53
390,802	7,29
391,055	6,81
391,309	4,87
391,563	1,4
391,816	1,74
392,07	0,63
392,323	0,58
392,577	-0,06
392,83	0,65
393,084	4,73
393,337	7,25
393,591	8
393,844	8,55
394,098	10,87
394,351	14,53
394,604	16,46
394,858	17,83
395,111	18,75
395,364	17,9
395,618	20,19
395,871	18,75
396,124	17,58
396,378	16,71
396,631	18,06
396,884	15,83
397,137	16,27
397,391	17,81
397,644	15,21
397,897	16,12
398,15	16,64
398,403	19,25
398,657	18
398,91	17,4
399,163	18,67
399,416	19,3
399,669	18,83
399,922	18,84
400,175	20,24
400,428	23,09
400,681	28,68
400,934	29,68
401,187	34,31
401,44	37,9
401,693	39,28
401,946	39,79
402,199	36,72
402,452	36,76
402,704	34,59
402,957	33,6
403,21	35,65
403,463	35,27
403,716	35,4
403,969	37,62
404,221	38,36
404,474	38,98
404,727	41,97
404,98	44,52
405,232	45,42
405,485	47,46
405,738	48,85
405,99	48,57
406,243	47,39
406,496	49,24
406,748	48,78
407,001	47,46
407,253	47,46
407,506	48,08
407,759	47,78
408,011	44,86
408,264	42,14
408,516	37,08
408,769	30,8
409,021	25,66
409,274	21,76
409,526	20,5
409,778	17,59
410,031	19,51
410,283	18,62
410,536	22,78
410,788	20,6
411,04	20,25
411,293	21,02
411,545	22,1
411,797	21,46
412,049	21,24
412,302	19,96
412,554	20,88
412,806	19,02
413,058	18,01
413,311	17,74
413,563	17,11
413,815	16,71
414,067	16
414,319	14,74
414,571	16,59
414,823	14,39
415,075	12,97
415,328	14,09
415,58	16,42
415,832	16,84
416,084	17
416,336	15,74
416,588	18,78
416,84	17,91
417,091	20,03
417,343	16,6
417,595	18
417,847	19,88
418,099	20,32
418,351	19,57
418,603	22,24
418,855	23,66
419,106	22,98
419,358	22,78
419,61	21,54
419,862	22,28
420,114	22,19
420,365	22,43
420,617	22,55
420,869	21,4
421,12	20,4
421,372	21,07
421,624	20,51
421,875	21,05
422,127	18,53
422,379	18,88
422,63	21,22
422,882	21,83
423,133	22,11
423,385	22,57
423,636	24,11
423,888	26,28
424,139	27,94
424,391	26,58
424,642	24,84
424,894	24,22
425,145	25,29
425,396	23,53
425,648	24,62
425,899	24,17
426,151	25,44
426,402	24,76
426,653	24,9
426,905	24,04
427,156	22,54
427,407	23,07
427,658	22,7
427,91	21,63
428,161	20,08
428,412	23,07
428,663	23,89
428,914	25,73
429,166	27,09
429,417	28,77
429,668	28,81
429,919	28,13
430,17	27,81
430,421	29,35
430,672	31,93
430,923	32,44
431,174	34,82
431,425	44,14
431,676	58,41
431,927	76,42
432,178	101,55
432,429	128,93
432,68	148,4
432,931	165,98
433,182	178,71
433,433	183,5
433,683	189,47
433,934	191,07
434,185	193,04
434,436	192,47
434,687	195,52
434,937	197,71
435,188	196,53
435,439	195,6
435,69	196,27
435,94	196,83
436,191	195,69
436,442	195,32
436,692	195,05
436,943	192,99
437,194	192,27
437,444	193,53
437,695	196,98
437,945	197,61
438,196	196,49
438,447	195,25
438,697	194,06
438,948	189,49
439,198	178,07
439,449	160,26
439,699	140,58
439,949	116,75
440,2	90,11
440,45	70,75
440,701	54,5
440,951	43,3
441,201	36,67
441,452	30,66
441,702	27,38
441,952	26,14
442,203	26,06
442,453	23,41
442,703	24,24
442,953	25,93
443,204	27,21
443,454	26,27
443,704	26,47
443,954	23,03
444,204	23,84
444,455	24,98
444,705	25,92
444,955	25,89
445,205	25,24
445,455	23,48
445,705	23,85
445,955	23,01
446,205	22,36
446,455	23,05
446,705	24,6
446,955	25,88
447,205	27,14
447,455	29,38
447,705	26,92
447,955	26,24
448,205	26,25
448,454	24,97
448,704	27
448,954	25,8
449,204	27,21
449,454	27,16
449,704	25,76
449,953	24,72
450,203	25,82
450,453	23,98
450,703	25,36
450,952	25,32
451,202	26,82
451,452	26,35
451,701	29,86
451,951	32,44
452,201	31,88
452,45	30,29
452,7	30,57
452,949	28,46
453,199	28,6
453,448	29,67
453,698	32,26
453,947	31,64
454,197	30,43
454,446	28,83
454,696	29,83
454,945	29,53
455,195	27,55
455,444	28,99
455,693	32,74
455,943	30,73
456,192	32,59
456,442	31
456,691	31,56
456,94	30,39
457,189	30,18
457,439	31,51
457,688	32,89
457,937	32,45
458,186	32,87
458,436	32,3
458,685	32,62
458,934	32,63
459,183	31,39
459,432	32,81
459,681	33,16
459,93	31,4
460,179	32,52
460,429	32,48
460,678	35,86
460,927	37,13
461,176	35,48
461,425	33,57
461,674	35,57
461,923	36,41
462,172	36,81
462,42	36,18
462,669	37,55
462,918	37,47
463,167	36,15
463,416	33,25
463,665	34,28
463,914	34,69
464,162	33,57
464,411	33,73
464,66	33,98
464,909	31,67
465,158	31,56
465,406	30,67
465,655	32,38
465,904	33,38
466,152	32,07
466,401	32
466,65	32,57
466,898	32,22
467,147	29,31
467,395	28,4
467,644	30,07
467,893	29,21
468,141	28,37
468,39	27,28
468,638	25,65
468,887	25,73
469,135	26,23
469,384	26,15
469,632	26,84
469,88	25,56
470,129	27,03
470,377	24,53
470,626	26,63
470,874	29,33
471,122	31,26
471,371	28,8
471,619	27,55
471,867	29,55
472,115	28,66
472,364	27,61
472,612	31,73
472,86	31,29
473,108	32,63
473,356	31,98
473,605	30,33
473,853	29,14
474,101	28,61
474,349	28,03
474,597	30,11
474,845	28,97
475,093	27,59
475,341	26,35
475,589	26,36
475,837	26,77
476,085	26,74
476,333	25,99
476,581	26,8
476,829	25,99
477,077	28,3
477,325	28,03
477,573	31,25
477,821	28,23
478,069	29,8
478,317	30,3
478,564	31,27
478,812	29,74
479,06	31,32
479,308	31,81
479,555	32,98
479,803	34,46
480,051	37,23
480,299	37,67
480,546	39,91
480,794	40,28
481,042	43,06
481,289	46,19
481,537	51,57
481,784	53,64
482,032	60
482,28	64,06
482,527	68,88
482,775	73,36
483,022	78,38
483,27	84,68
483,517	93,42
483,765	98,84
484,012	104,56
484,259	106,9
484,507	113,39
484,754	116,71
485,002	121,39
485,249	123,46
485,496	129,65
485,744	133,78
485,991	136,21
486,238	137,74
486,486	143,18
486,733	146,6
486,98	150,03
487,227	151,47
487,474	155,56
487,722	159,01
487,969	158,82
488,216	159,54
488,463	159,59
488,71	159,15
488,957	157,49
489,204	156,01
489,451	156,99
489,699	153,21
489,946	149,33
490,193	146,57
490,44	144,04
490,687	141,02
490,934	136,36
491,18	129,88
491,427	127,3
491,674	125,38
491,921	122,93
492,168	118,08
492,415	114
492,662	110,97
492,909	110,68
493,155	107,71
493,402	102,42
493,649	99,5
493,896	97,41
494,142	91,21
494,389	88,91
494,636	86,01
494,883	80,37
495,129	75,08
495,376	70,41
495,623	69,03
495,869	67,3
496,116	65,85
496,362	64,33
496,609	65,47
496,855	66,97
497,102	64,16
497,348	61,08
497,595	60,34
497,841	60,93
498,088	58,62
498,334	56,32
498,581	53,43
498,827	51,55
499,074	50,51
499,32	50,75
499,566	51,49
499,813	50,78
500,059	46,54
500,305	44,72
500,552	41,98
500,798	40
501,044	41,8
501,29	38,94
501,537	36,31
501,783	37,46
502,029	37,29
502,275	34,07
502,521	32,91
502,767	33,56
503,013	35,37
503,26	32,43
503,506	29,7
503,752	29,72
503,998	25,7
504,244	25,11
504,49	22,38
504,736	22,1
504,982	20,92
505,228	21,88
505,474	22,15
505,72	20,88
505,966	19,46
506,211	21,7
506,457	21,45
506,703	18,38
506,949	15,05
507,195	13,97
507,441	11,07
507,686	14,44
507,932	14,57
508,178	15,3
508,424	13,27
508,669	10,99
508,915	10,58
509,161	11,49
509,406	10,76
509,652	9,78
509,898	11,15
510,143	12,99
510,389	11
510,634	7,02
510,88	10,35
511,125	12,45
511,371	12,42
511,616	15,91
511,862	12,91
512,107	10,34
512,353	10,59
512,598	11,64
512,844	8,62
513,089	5,43
513,335	7,37
513,58	8,35
513,825	8,2
514,071	5,92
514,316	4,4
514,561	5,88
514,806	4,14
515,052	5,62
515,297	3,73
515,542	4,49
515,787	4,5
516,033	6,08
516,278	7,05
516,523	7,29
516,768	6,61
517,013	6,12
517,258	5,4
517,503	5,7
517,748	5,64
517,993	5,45
518,238	5,54
518,483	3,37
518,728	2,08
518,973	0,7
519,218	-0,19
519,463	0,63
519,708	0,69
519,953	-0,26
520,198	-1,25
520,443	0,36
520,688	3,24
520,933	1,64
521,177	0,35
521,422	-1,19
521,667	2,54
521,912	4,82
522,157	1,85
522,401	3,98
522,646	4,52
522,891	5,14
523,135	3,79
523,38	3,56
523,625	2,31
523,869	3,94
524,114	4,91
524,358	4,26
524,603	4,36
524,848	3,64
525,092	2,12
525,337	2,63
525,581	3,77
525,826	5,28
526,07	5,96
526,315	6,5
526,559	6,19
526,803	4,18
527,048	6,21
527,292	6,51
527,537	5,82
527,781	5,59
528,025	4,36
528,269	5,53
528,514	6,64
528,758	6,74
529,002	7,29
529,247	9,02
529,491	6,35
529,735	10,98
529,979	10,38
530,223	11,65
530,467	10,42
530,712	9,58
530,956	9,52
531,2	11,07
531,444	9,38
531,688	10,53
531,932	9,46
532,176	10,3
532,42	10,74
532,664	13,19
532,908	11,98
533,152	12,12
533,396	13,15
533,64	12,89
533,884	13,93
534,128	15,26
534,371	18,77
534,615	22
534,859	24,09
535,103	26,86
535,347	30,39
535,59	34,48
535,834	33,98
536,078	39,67
536,322	45,09
536,565	52,01
536,809	57,59
537,053	67,07
537,296	74,36
537,54	85,39
537,784	98,93
538,027	114,41
538,271	130,96
538,514	147,34
538,758	163,74
539,001	180,04
539,245	195,88
539,488	214,03
539,732	230,07
539,975	245,76
540,219	260,82
540,462	275,36
540,706	289,11
540,949	300,51
541,192	313,13
541,436	328,23
541,679	344,84
541,922	360,68
542,166	374,73
542,409	393,82
542,652	414,91
542,895	436,14
543,139	454,18
543,382	473,17
543,625	484,78
543,868	495,48
544,111	502,95
544,354	507,05
544,598	511
544,841	512,33
545,084	510,1
545,327	503,55
545,57	497,98
545,813	489,2
546,056	478,43
546,299	467,92
546,542	457,3
546,785	448,41
547,028	437,21
547,271	425,16
547,514	414,6
547,756	403,23
547,999	392,76
548,242	383,32
548,485	372,89
548,728	363,2
548,971	348,9
549,213	337,1
549,456	322,21
549,699	305,52
549,942	285,73
550,184	263,75
550,427	242,32
550,67	223,92
550,912	204,07
551,155	189,14
551,398	174,9
551,64	162,6
551,883	151,15
552,125	139,36
552,368	129,48
552,61	118,86
552,853	112,28
553,095	103,65
553,338	97,76
553,58	91,68
553,823	83,89
554,065	80,85
554,308	72,14
554,55	65,86
554,792	59,87
555,035	54,13
555,277	49,4
555,519	45,72
555,762	40,37
556,004	37,19
556,246	31,72
556,488	30,32
556,731	25,38
556,973	22,62
557,215	19,33
557,457	18,3
557,699	18,88
557,941	15,18
558,183	11,89
558,426	11,73
558,668	7,19
558,91	6,62
559,152	4,2
559,394	2,94
559,636	3,16
559,878	1,46
560,12	0,15
560,362	-0,95
560,604	-1,35
560,845	-2,74
561,087	-4,5
561,329	-1,96
561,571	-5,84
561,813	-6,02
562,055	-7,87
562,297	-7,85
562,538	-7,58
562,78	-6,38
563,022	-7,76
563,264	-6,88
563,505	-7,4
563,747	-7,85
563,989	-9,65
564,23	-10,39
564,472	-11,09
564,714	-9,22
564,955	-8,67
565,197	-11,04
565,438	-10,58
565,68	-7,75
565,921	-9,25
566,163	-7,36
566,404	-8,3
566,646	-6,99
566,887	-5,11
567,129	-3,76
567,37	-4,29
567,612	-2,74
567,853	-3,89
568,094	-3,46
568,336	-4,43
568,577	-3,21
568,818	-3,55
569,06	-4,23
569,301	-6,87
569,542	-5,91
569,783	-3,85
570,025	-3,53
570,266	-3,96
570,507	-2,76
570,748	-2,81
570,989	-1,8
571,23	0,16
571,472	0,2
571,713	-0,21
571,954	0,25
572,195	-1,93
572,436	-0,81
572,677	0,62
572,918	3,08
573,159	1,88
573,4	1,19
573,641	0,95
573,882	3,12
574,123	3,42
574,364	0,48
574,604	1,12
574,845	1,86
575,086	2,99
575,327	5,85
575,568	7,49
575,809	9,23
576,049	9,1
576,29	9,72
576,531	15,48
576,771	22,61
577,012	26,5
577,253	29,31
577,494	30,18
577,734	31,38
577,975	34,2
578,215	34,72
578,456	34,42
578,697	37,54
578,937	40,46
579,178	41,75
579,418	42,06
579,659	44,72
579,899	43,6
580,14	45,21
580,38	45,78
580,62	47,07
580,861	51,5
581,101	53,02
581,342	52,6
581,582	50,84
581,822	53,52
582,063	52,34
582,303	54,59
582,543	56,07
582,783	56,61
583,024	57,76
583,264	60,66
583,504	61,08
583,744	62,63
583,984	61,9
584,224	61,47
584,465	60,56
584,705	59,98
584,945	62,86
585,185	63,8
585,425	64,03
585,665	65,04
585,905	65,48
586,145	63,99
586,385	61,94
586,625	64,12
586,865	63,83
587,105	63,32
587,345	63,85
587,585	62,66
587,824	61,44
588,064	60
588,304	58,25
588,544	57,47
588,784	56,54
589,024	57,95
589,263	56,73
589,503	58,19
589,743	60,52
589,982	60,35
590,222	61,29
590,462	59,3
590,701	56,91
590,941	56,6
591,181	55,71
591,42	53,94
591,66	54,85
591,899	56,21
592,139	55,18
592,378	52,84
592,618	50,24
592,857	48,42
593,097	47,77
593,336	47,63
593,576	45,85
593,815	45,99
594,055	43,31
594,294	43,67
594,533	41,83
594,773	40,87
595,012	41,06
595,251	41,34
595,491	43,74
595,73	45,58
595,969	45,85
596,208	47,49
596,447	50,97
596,687	51,81
596,926	49,81
597,165	45,6
597,404	44,9
597,643	41,84
597,882	40,64
598,121	40,71
598,36	41,37
598,599	40,55
598,838	39,27
599,077	35,34
599,316	34,37
599,555	31,57
599,794	32,02
600,033	33,88
600,272	33,73
600,511	31,6
600,75	31,36
600,989	33,3
601,228	33,99
601,466	33,57
601,705	33,28
601,944	34,41
602,183	36,42
602,422	34,48
602,66	32,98
602,899	31,05
603,138	28,88
603,376	27,72
603,615	26,14
603,854	22,97
604,092	23,64
604,331	24,41
604,569	24,92
604,808	23,59
605,047	25,51
605,285	25,57
605,524	25,51
605,762	25,31
606	28,85
606,239	32,56
606,477	35,49
606,716	37,03
606,954	43,29
607,193	49,14
607,431	58,47
607,669	72,98
607,908	90,04
608,146	109,65
608,384	127,32
608,622	144,68
608,861	161,48
609,099	174,85
609,337	187,33
609,575	198,06
609,813	210,31
610,052	219,59
610,29	224,57
610,528	231,24
610,766	237,65
611,004	244,32
611,242	249,01
611,48	252,62
611,718	255,41
611,956	260,22
612,194	263,29
612,432	264,73
612,67	266,42
612,908	268,85
613,146	268,28
613,384	266,13
613,621	263,48
613,859	262,44
614,097	259,63
614,335	255,4
614,573	249,19
614,811	239,63
615,048	226,94
615,286	210,48
615,524	193,62
615,761	172,79
615,999	155,23
616,237	138,9
616,474	127,47
616,712	115,24
616,95	102,21
617,187	92
617,425	85,21
617,662	79,59
617,9	71,24
618,137	64,74
618,375	58,12
618,612	52
618,85	49,68
619,087	48,11
619,325	43,49
619,562	39,65
619,799	35,68
620,037	33,92
620,274	31,06
620,511	32,33
620,749	29,64
620,986	29,03
621,223	27,37
621,461	27,51
621,698	29,03
621,935	28,73
622,172	25,75
622,409	26,08
622,647	27,61
622,884	25,44
623,121	28,48
623,358	27,14
623,595	28,82
623,832	27,22
624,069	28,03
624,306	30,18
624,543	30,73
624,78	30,99
625,017	31,6
625,254	33,65
625,491	35,88
625,728	36,89
625,965	37,9
626,202	35,88
626,438	33,97
626,675	34,14
626,912	36,32
627,149	38,22
627,386	38,39
627,622	38,8
627,859	38,25
628,096	40,1
628,333	41,03
628,569	42,4
628,806	44,25
629,043	43,12
629,279	43,88
629,516	47,79
629,752	45,17
629,989	44,58
630,225	42,59
630,462	42,59
630,699	43,13
630,935	41,24
631,171	39,49
631,408	37,88
631,644	35,12
631,881	31,67
632,117	28,39
632,354	27,16
632,59	24,71
632,826	23,09
633,063	22,64
633,299	22,35
633,535	20,63
633,771	19,44
634,008	19,2
634,244	18,23
634,48	15,56
634,716	14,95
634,953	14,06
635,189	12,61
635,425	12,51
635,661	12,13
635,897	8,94
636,133	6,78
636,369	5,41
636,605	1,31
636,841	-1,32
637,077	-1,16
637,313	-1,93
637,549	-1,88
637,785	-4,47
638,021	-4,8
638,257	-5,71
638,493	-3
638,729	-5,5
638,965	-2,64
639,2	0,16
639,436	-0,5
639,672	-0,33
639,908	-0,54
640,144	2,2
640,379	3,93
640,615	2,55
640,851	4,15
641,086	5,91
641,322	4,85
641,558	4,01
641,793	6,16
642,029	4,57
642,264	2,41
642,5	1,94
642,736	-2,36
642,971	-1,09
643,207	-1,66
643,442	-3,04
643,678	-2,76
643,913	-1,31
644,148	-2,04
644,384	0,13
644,619	0,2
644,855	1,43
645,09	3,42
645,325	4,07
645,561	4,5
645,796	2,23
646,031	6,14
646,266	3,88
646,502	3,69
646,737	7,34
646,972	6,81
647,207	7,34
647,442	4,95
647,678	1,89
647,913	4,38
648,148	5,28
648,383	3,73
648,618	5,09
648,853	7,29
649,088	8,43
649,323	11,82
649,558	13,77
649,793	15,93
650,028	17,76
650,263	14,2
650,498	17,09
650,733	17,86
650,968	16,19
651,202	17,89
651,437	17,66
651,672	13,82
651,907	13,76
652,142	14,43
652,376	13,97
652,611	15
652,846	16,01
653,081	16,68
653,315	15,75
653,55	16,03
653,785	15,42
654,019	14,47
654,254	13,73
654,488	13,61
654,723	10,63
654,958	8,61
655,192	6,35
655,427	3,08
655,661	4,23
655,896	5,88
656,13	5,02
656,364	2
656,599	-1,39
656,833	4,16
657,068	4,47
657,302	4,69
657,536	3,92
657,771	2,87
658,005	2,11
658,239	3,54
658,474	1,9
658,708	2,54
658,942	3,2
659,176	2,12
659,41	1,79
659,645	1,88
659,879	1,38
660,113	-0,81
660,347	-1,99
660,581	-3,13
660,815	-3,9
661,049	-5,21
661,283	-7,33
661,517	-8,86
661,751	-10,08
661,985	-10,32
662,219	-8,89
662,453	-10,01
662,687	-8,12
662,921	-9,47
663,155	-11,56
663,389	-15,81
663,622	-17,17
663,856	-14,78
664,09	-20,86
664,324	-20,96
664,558	-20,3
664,791	-20,56
665,025	-20,06
665,259	-19,6
665,492	-21,07
665,726	-18,61
665,96	-18,91
666,193	-19,95
666,427	-18,66
666,661	-21,34
666,894	-23,13
667,128	-24,28
667,361	-22,62
667,595	-23,04
667,828	-23,56
668,062	-23,97
668,295	-23,79
668,529	-22,25
668,762	-20,69
668,995	-20,57
669,229	-16,98
669,462	-15,53
669,695	-14,26
669,929	-15,1
670,162	-15,79
670,395	-16,56
670,629	-13,68
670,862	-11,43
671,095	-14,18
671,328	-13,9
671,561	-16,38
671,795	-15,76
672,028	-15,04
672,261	-15,44
672,494	-13,68
672,727	-13,44
672,96	-13,6
673,193	-14,07
673,426	-10,33
673,659	-11,28
673,892	-10,48
674,125	-11,82
674,358	-12,06
674,591	-13,42
674,824	-12,69
675,057	-13,73
675,29	-15,62
675,523	-13,98
675,755	-15,52
675,988	-15,05
676,221	-12,34
676,454	-14,39
676,687	-14,44
676,919	-15,36
677,152	-15,86
677,385	-15,1
677,617	-14,05
677,85	-13,79
678,083	-15,15
678,315	-13,5
678,548	-14,18
678,78	-15,04
679,013	-16,54
679,246	-15,54
679,478	-14,67
679,711	-17,49
679,943	-16,55
680,175	-18,33
680,408	-15,44
680,64	-18,94
680,873	-18,19
681,105	-16,8
681,338	-12,18
681,57	-12,35
681,802	-11,9
682,034	-12,09
682,267	-8,85
682,499	-5,89
682,731	-8,08
682,964	-7,61
683,196	-9,44
683,428	-12,12
683,66	-12,2
683,892	-10,02
684,124	-7,91
684,356	-4,74
684,589	-4,23
684,821	-6,2
685,053	-7,16
685,285	-6,84
685,517	-5,46
685,749	-4,83
685,981	-3,3
686,213	-2,71
686,445	-1,8
686,676	-2,81
686,908	-1,8
687,14	-2,28
687,372	-1,45
687,604	-4,6
687,836	-2,93
688,068	-3,2
688,299	-3
688,531	-5,31
688,763	-2,5
688,995	-3,35
689,226	-1,33
689,458	-3,22
689,69	-4,09
689,921	-5,71
690,153	-6,13
690,384	-4,29
690,616	-3,38
690,848	-2,92
691,079	-5,6
691,311	-6,07
691,542	-9,64
691,774	-10,86
692,005	-7,39
692,237	-4,99
692,468	-5,52
692,699	-6,4
692,931	-7,07
693,162	-8,22
693,393	-8,12
693,625	-9,75
693,856	-10,11
694,087	-9,58
694,319	-8,79
694,55	-8,96
694,781	-9,59
695,012	-8,97
695,243	-10,94
695,475	-11,94
695,706	-11,25
695,937	-11,68
696,168	-11,58
696,399	-13,6
696,63	-14,12
696,861	-14,97
697,092	-10,02
697,323	-7,39
697,554	-7,72
697,785	-6,8
698,016	-5,93
698,247	-6,91
698,478	-6,58
698,709	-4,2
698,94	-2,02
699,171	-3,45
699,401	-6,5
699,632	-5,07
699,863	-7,07
700,094	-7,42
700,325	-4,97
700,555	-4,22
700,786	-2,73
701,017	-2,64
701,247	-2,7
701,478	-2,19
701,709	-2,65
701,939	-2,25
702,17	-1,52
702,401	1,42
702,631	2,77
702,862	1,53
703,092	-1,55
703,323	1,55
703,553	3,56
703,784	4,81
704,014	6,65
704,244	3,38
704,475	3,89
704,705	5,1
704,936	5,66
705,166	5,42
705,396	7,8
705,627	7,42
705,857	8,41
706,087	9,69
706,317	8,98
706,548	9,22
706,778	9,72
707,008	10,46
707,238	10,86
707,468	8,59
707,698	7,11
707,928	6,98
708,158	6,07
708,389	5,43
708,619	5,48
708,849	5,57
709,079	6,14
709,309	3,76
709,539	3,41
709,768	2,82
709,998	5,04
710,228	6,28
710,458	4,35
710,688	1,95
710,918	1,7
711,148	1,69
711,378	3,12
711,607	0,14
711,837	-0,53
712,067	-2,08
712,297	-2,82
712,526	-2,38
712,756	-1,36
712,986	-5,51
713,215	-8,77
713,445	-9,32
713,674	-9,42
713,904	-9,5
714,134	-7,03
714,363	-6,63
714,593	-6,93
714,822	-6,47
715,052	-7,23
715,281	-6,27
715,511	-7,77
715,74	-9,24
715,969	-11,26
716,199	-12,64
716,428	-11,9
716,657	-13,17
716,887	-10,63
717,116	-12,51
717,345	-11,96
717,575	-11,21
717,804	-10,5
718,033	-11,02
718,262	-11,91
718,492	-12,01
718,721	-11,43
718,95	-11,19
719,179	-13,23
719,408	-11,73
719,637	-14,36
719,866	-16,12
720,095	-14,22
720,324	-14,49
720,553	-16,42
720,782	-16,7
721,011	-18,23
721,24	-20,84
721,469	-21,15
721,698	-21,35
721,927	-21,55
722,156	-23,56
722,385	-23,45
722,613	-19,61
722,842	-19,48
723,071	-16,87
723,3	-14,62
723,529	-15,64
723,757	-15,12
723,986	-18,98
724,215	-20,08
724,443	-18,57
724,672	-18,22
724,901	-17,08
725,129	-14,32
725,358	-12,92
725,586	-15,88
725,815	-17,32
726,043	-19,41
726,272	-19,15
726,5	-19,67
726,729	-19,62
726,957	-21,69
727,186	-22,66
727,414	-21,25
727,642	-20,46
727,871	-19,64
728,099	-19,96
728,327	-19,29
728,556	-18,12
728,784	-16,51
729,012	-18,26
729,241	-15,15
729,469	-15,69
729,697	-18,83
729,925	-18,09
730,153	-19,47
730,381	-19,91
730,61	-19,6
730,838	-20,65
731,066	-18,55
731,294	-17,3
731,522	-19,53
731,75	-21,45
731,978	-23,26
732,206	-25,37
732,434	-26,54
732,662	-23,68
732,89	-23,34
733,118	-23,1
733,346	-23,02
733,573	-22,72
733,801	-22,66
734,029	-18,02
734,257	-18,14
734,485	-16,34
734,712	-15,05
734,94	-15,41
735,168	-13,08
735,396	-13,37
735,623	-14,47
735,851	-14,5
736,078	-12,06
736,306	-11,78
736,534	-11,03
736,761	-10,34
736,989	-11,64
737,216	-12,22
737,444	-13,51
737,671	-12,07
737,899	-8,54
738,126	-11,27
738,354	-11,45
738,581	-11,05
738,809	-9,33
739,036	-10,39
739,263	-10,65
739,491	-11,19
739,718	-12,23
739,945	-9,47
740,173	-8,21
740,4	-8,69
740,627	-9,88
740,854	-9,98
741,081	-12,38
741,309	-13,03
741,536	-15,67
741,763	-15,48
741,99	-15,64
742,217	-15,31
742,444	-13,92
742,671	-12,42
742,898	-11,17
743,125	-14,05
743,352	-16,64
743,579	-17,69
743,806	-17,71
744,033	-15,16
744,26	-14,78
744,487	-15,07
744,714	-15,42
744,941	-16,86
745,167	-12,52
745,394	-13,81
745,621	-13,78
745,848	-14,84
746,075	-12,94
746,301	-11,01
746,528	-8,22
746,755	-9,28
746,981	-9,3
747,208	-8,37
747,435	-6,61
747,661	-7,44
747,888	-5,77
748,114	-7,06
748,341	-5,31
748,567	-4,6
748,794	-5,92
749,02	-5,98
749,247	-8,46
749,473	-9,47
749,7	-10,03
749,926	-11,38
750,152	-7,77
750,379	-7,06
750,605	-6,36
750,831	-6,37
751,058	-8,61
751,284	-8,47
751,51	-5,76
751,737	-5,43
751,963	-6,12
752,189	-7,39
752,415	-7,35
752,641	-9,28
752,867	-9,46
753,094	-10,48
753,32	-10,94
753,546	-12,14
753,772	-9,94
753,998	-10,77
754,224	-11,62
754,45	-11,86
754,676	-11,54
754,902	-13,4
755,128	-12,49
755,354	-12,68
755,579	-11,04
755,805	-10,3
756,031	-11,66
756,257	-12,61
756,483	-14,35
756,709	-15,9
756,934	-16,7
757,16	-19,08
757,386	-18,06
757,612	-19,72
757,837	-20,58
758,063	-18,01
758,289	-15,94
758,514	-16,96
758,74	-19,11
758,965	-20,35
759,191	-20,03
759,416	-20,96
759,642	-18,22
759,868	-18,63
760,093	-16,59
760,318	-18,63
760,544	-18,98
760,769	-20,84
760,995	-21,75
761,22	-20,04
761,445	-18,19
761,671	-15,57
761,896	-13,47
762,121	-13,3
762,347	-13,47
762,572	-14,88
762,797	-14,99
763,022	-14,62
763,248	-9,68
763,473	-8,8
763,698	-9,85
763,923	-9,41
764,148	-9,45
764,373	-10,3
764,598	-8,59
764,823	-7,5
765,048	-10,1
765,273	-12,75
765,498	-14,33
765,723	-13,8
765,948	-13,43
766,173	-15,24
766,398	-12,97
766,623	-14,71
766,848	-13,94
767,073	-15,23
767,298	-14,47
767,522	-15,86
767,747	-14,27
767,972	-13,93
768,197	-13,84
768,421	-15,69
768,646	-18,23
768,871	-20,36
769,095	-20,6
769,32	-20,49
769,545	-21,85
769,769	-20,55
769,994	-18,79
770,218	-21,99
770,443	-21,86
770,667	-20,42
770,892	-19,39
771,116	-20,66
771,341	-19,91
771,565	-20,38
771,79	-19,58
772,014	-20,46
772,238	-19,95
772,463	-17,38
772,687	-16,03
772,911	-16,5
773,136	-17,68
773,36	-17,2
773,584	-15,27
773,808	-16,64
774,033	-16,07
774,257	-17,49
774,481	-16,39
774,705	-16,85
774,929	-17,22
775,153	-19,31
775,377	-18,71
775,602	-18,08
775,826	-16,52
776,05	-15,16
776,274	-13,77
776,498	-13,86
776,722	-15,17
776,945	-14,82
777,169	-14,28
777,393	-13,95
777,617	-14,81
777,841	-15,15
778,065	-13,63
778,289	-14,4
778,512	-14,87
778,736	-15,86
778,96	-16,59
779,184	-14,89
779,407	-15,54
779,631	-14,85
779,855	-14,64
780,078	-12,9
780,302	-13,29
780,526	-15,77
780,749	-15,78
780,973	-14,46
781,196	-12,75
781,42	-14,83
781,643	-14,74
781,867	-14,38
782,09	-15,19
782,314	-15
782,537	-16,62
782,76	-17,32
782,984	-16,72
783,207	-18,49
783,431	-18,14
783,654	-18,88
783,877	-20,83
784,1	-22,72
784,324	-24,23
784,547	-24,56
784,77	-27,27
784,993	-27,24
785,216	-28,06
785,44	-28,65
785,663	-29,09
785,886	-25,92
786,109	-26,21
786,332	-27,63
786,555	-28,36
786,778	-27,99
787,001	-26,68
787,224	-25,78
787,447	-24,28
787,67	-22,72
787,893	-23,1
788,116	-23,23
788,339	-21,84
788,561	-22,41
788,784	-25,17
789,007	-25,49
789,23	-26,55
789,453	-26,79
789,675	-28,17
789,898	-30,07
790,121	-30,97
790,344	-30,68
790,566	-30,08
790,789	-29,41
791,012	-27,84
791,234	-25,02
791,457	-21,52
791,679	-21,19
791,902	-21,75
792,124	-22,47
792,347	-22,02
792,569	-21,68
792,792	-24,16
793,014	-22,89
793,237	-21,22
793,459	-22,07
793,681	-21,47
793,904	-23,11
794,126	-24,05
794,348	-24,63
794,571	-24,97
794,793	-26,85
795,015	-26,42
795,237	-26,66
795,46	-25,6
795,682	-23,33
795,904	-22,75
796,126	-23,69
796,348	-22,57
796,57	-19,46
796,792	-17,86
797,014	-15,68
797,237	-14,04
797,459	-12,92
797,681	-12,28
797,903	-13,54
798,124	-13,62
798,346	-4,93
798,568	-2,36
798,79	0,85
799,012	2,5
799,234	3,43
799,456	4,59
799,678	6,62
799,899	3,19
800,121	1,55
800,343	2,11
800,565	2,07
800,786	3,14
801,008	3,14
801,23	2,43
801,451	3,56
801,673	2,68
801,895	3,29
802,116	4,24
802,338	4,18
802,559	3,93
802,781	3,78
803,002	6,38
803,224	7,3
803,445	4,48
803,667	4,54
803,888	3,34
804,109	2,97
804,331	3,14
804,552	2,94
804,773	3,95
804,995	1,26
805,216	-10,94
805,437	-13,5
805,658	-15,39
805,88	-16,26
806,101	-15,64
806,322	-16,45
806,543	-17,17
806,764	-17,76
806,985	-16,79
807,207	-16,43
807,428	-16,18
807,649	-19,36
807,87	-20,31
808,091	-18,6
808,312	-18,78
808,533	-15,38
808,754	-14,91
808,975	-15,95
809,195	-14,28
809,416	-14,49
809,637	-14,56
809,858	-16,5
810,079	-18,29
810,3	-16,7
810,52	-16,57
810,741	-17,63
810,962	-20,53
811,183	-21,38
811,403	-20,33
811,624	-21,38
811,845	-18,06
812,065	-16,97
812,286	-15,7
812,506	-16,01
812,727	-16,28
812,948	-17,54
813,168	-15,83
813,389	-16,54
813,609	-14,12
813,83	-15,12
814,05	-16,21
814,27	-15,42
814,491	-12,43
814,711	-13,15
814,931	-15,68
815,152	-15,22
815,372	-16,82
815,592	-17,86
815,813	-18,5
816,033	-20,08
816,253	-20,06
816,473	-20,08
816,694	-19,19
816,914	-17,95
817,134	-17,67
817,354	-20,6
817,574	-20,13
817,794	-18,94
818,014	-18,74
818,234	-18,81
818,454	-19,64
818,674	-23,48
818,894	-23,84
819,114	-22,05
819,334	-22,19
819,554	-19,52
819,774	-17,55
819,994	-20,07
820,214	-20,17
820,433	-20,67
820,653	-20,18
820,873	-18,51
821,093	-18,96
821,312	-20,27
821,532	-18,59
821,752	-17,11
821,972	-19,56
822,191	-18,84
822,411	-19,91
822,63	-17,97
822,85	-17,95
823,07	-19,01
823,289	-19,44
823,509	-20,99
823,728	-19,48
823,948	-20,74
824,167	-20,23
824,387	-19,98
824,606	-19,37
824,825	-21,19
825,045	-21,59
825,264	-20,46
825,483	-18,42
825,703	-17,55
825,922	-19,15
826,141	-19,08
826,361	-20,38
826,58	-22,49
826,799	-23,34
827,018	-22,36
827,237	-21,65
827,456	-20,87
827,676	-21,5
827,895	-20,18
828,114	-19,62
828,333	-19,39
828,552	-19,17
828,771	-17,93
828,99	-19,29
829,209	-18,92
829,428	-18,93
829,647	-18,34
829,866	-16,86
830,084	-15,34
830,303	-14,99
830,522	-14,13
830,741	-12,82
830,96	-11,81
831,179	-11,34
831,397	-12,68
831,616	-12,57
831,835	-13,38
832,053	-12,65
832,272	-11,63
832,491	-10,88
832,709	-11,7
832,928	-10,74
833,147	-10,75
833,365	-10,52
833,584	-8,09
833,802	-6,93
834,021	-7,08
834,239	-6,24
834,458	-7,92
834,676	-11,65
834,894	-12,03
835,113	-12,92
835,331	-13,16
835,55	-14,18
835,768	-13,32
835,986	-12,64
836,204	-14,21
836,423	-14,4
836,641	-15,85
836,859	-17,23
837,077	-16,82
837,296	-19,09
837,514	-21,59
837,732	-22,96
837,95	-24,17
838,168	-21,07
838,386	-20,34
838,604	-17,16
838,822	-15,5
839,04	-16,96
839,258	-17,34
839,476	-16,04
839,694	-17,5
839,912	-18,24
840,13	-18,23
840,348	-17,4
840,566	-19,99
840,783	-19,03
841,001	-20,17
841,219	-17,49
841,437	-17,54
841,655	-16,46
841,872	-16,9
842,09	-17,15
842,308	-14,7
842,525	-14,32
842,743	-13,75
842,961	-14,28
843,178	-16,78
843,396	-14,2
843,613	-13,33
843,831	-11,87
844,048	-10,39
844,266	-9,37
844,483	-8,44
844,701	-9,42
844,918	-9,7
845,136	-10,6
845,353	-13,16
845,57	-14,79
845,788	-12,66
846,005	-13,84
846,222	-15,39
846,439	-13,1
846,657	-12,54
846,874	-11,92
847,091	-13,73
847,308	-12,31
847,526	-12,5
847,743	-12,89
847,96	-15,08
848,177	-14,14
848,394	-14,84
848,611	-14,64
848,828	-14,92
849,045	-17,45
849,262	-17,59
849,479	-16,78
849,696	-17,82
849,913	-17,48
850,13	-20,16
850,347	-17,99
850,564	-19,37
850,78	-20,79
850,997	-22,14
851,214	-22,28
851,431	-21,28
851,647	-23,17
851,864	-22,15
852,081	-21,07
852,298	-23,25
852,514	-23,91
852,731	-22,46
852,948	-20,6
853,164	-20,81
853,381	-21,67
853,597	-23,77
853,814	-24,39
854,03	-26,37
854,247	-27,2
854,463	-26,42
854,68	-26,27
854,896	-24,83
855,113	-24,86
855,329	-26,03
855,545	-24,82
855,762	-24,18
855,978	-26,26
856,194	-29,31
856,411	-26,12
856,627	-24,81
856,843	-23,68
857,059	-23,09
857,275	-23,59
857,492	-23,63
857,708	-19,93
857,924	-18,89
858,14	-17,26
858,356	-19,93
858,572	-19,36
858,788	-21,77
859,004	-20,47
859,22	-22,14
859,436	-23
859,652	-23,77
859,868	-25,71
860,084	-24,99
860,3	-23,54
860,516	-23,76
860,731	-23,47
860,947	-25,29
861,163	-25,3
861,379	-23,31
861,595	-22,94
861,81	-21,97
862,026	-20,5
862,242	-21,13
862,457	-20,33
862,673	-19,11
862,889	-17,62
863,104	-17,76
863,32	-17,39
863,535	-16,77
863,751	-20,83
863,966	-18,58
864,182	-17,1
864,397	-18,65
864,613	-20,65
864,828	-21,54
865,044	-18,6
865,259	-18,24
865,474	-17,84
865,69	-15,82
865,905	-15,02
866,12	-16,63
866,336	-16,05
866,551	-14,57
866,766	-15,41
866,981	-16,11
867,196	-15,67
867,412	-14,88
867,627	-14,24
867,842	-14,7
868,057	-15,77
868,272	-16,67
868,487	-19,04
868,702	-20,08
868,917	-19,9
869,132	-19,54
869,347	-19,83
869,562	-21,64
869,777	-21,97
869,992	-22,68
870,207	-23,48
870,422	-22,22
870,636	-23,26
870,851	-24,72
871,066	-25,24
871,281	-25,59
871,495	-25,86
871,71	-23,91
871,925	-26,35
872,14	-26,69
872,354	-29
872,569	-29,48
872,783	-27,07
872,998	-27,31
873,213	-27,72
873,427	-24,83
873,642	-23,24
873,856	-22,61
874,071	-22,65
874,285	-21,32
874,5	-22,12
874,714	-23,69
874,928	-24,14
875,143	-23,04
875,357	-22,12
875,571	-23,35
875,786	-22,96
876	-19,64
876,214	-16,94
876,429	-18,55
876,643	-18
876,857	-16,3
877,071	-15,79
877,285	-17,14
877,499	-19,57
877,714	-19,22
877,928	-15,84
878,142	-17,17
878,356	-18,74
878,57	-17,17
878,784	-15,9
878,998	-17,31
879,212	-15,71
879,426	-18,15
879,639	-17,08
879,853	-17,66
880,067	-18,97
880,281	-20,75
880,495	-20,42
880,709	-20,08
880,922	-19,97
881,136	-18,93
881,35	-17,07
881,564	-17,51
881,777	-20,09
881,991	-19,98
882,205	-17,5
882,418	-18,16
882,632	-21,1
882,845	-21,99
883,059	-20,53
883,273	-21,11
883,486	-23,75
883,7	-22,31
883,913	-21,91
884,126	-21,12
884,34	-23,35
884,553	-26,2
884,767	-22,89
884,98	-23,15
885,193	-23,6
885,407	-23,99
885,62	-21,85
885,833	-22,33
886,046	-21,07
886,26	-22,5
886,473	-23,5
886,686	-23,5
886,899	-22,01
887,112	-23,23
887,326	-24,9
887,539	-25,92
887,752	-25,43
887,965	-27,01
888,178	-25,72
888,391	-24,38
888,604	-24,49
888,817	-26,16
889,03	-24,87
889,243	-26,01
889,455	-27,97
889,668	-27,67
889,881	-24,73
890,094	-24,36
890,307	-26,4
890,52	-26,11
890,732	-23,49
890,945	-22,08
891,158	-20,56
891,37	-24,54
891,583	-24,69
891,796	-23,13
892,008	-23,62
892,221	-23,4
892,434	-26,33
892,646	-26,45
892,859	-27,22
893,071	-25,81
893,284	-24,51
893,496	-24,95
893,709	-23,86
893,921	-22,02
894,133	-21,16
894,346	-20,86
894,558	-20,53
894,771	-20,72
894,983	-18,48
895,195	-17,49
895,407	-16,89
895,62	-19,83
895,832	-19,04
896,044	-17,41
896,256	-19,3
896,468	-20,94
896,681	-19,06
896,893	-17,67
897,105	-17,05
897,317	-18,58
897,529	-18,22
897,741	-19,73
897,953	-16,97
898,165	-17,98
898,377	-19,91
898,589	-18,26
898,801	-19,47
899,013	-15,92
899,224	-13,93
899,436	-11,91
899,648	-12,98
899,86	-16,03
900,072	-13,53
900,283	-13,89
900,495	-13,14
900,707	-14,48
900,919	-17,8
901,13	-16,65
901,342	-17,08
901,554	-18,67
901,765	-18,87
901,977	-20,15
902,188	-20,23
902,4	-22,34
902,611	-22,74
902,823	-23,18
903,034	-24,85
903,246	-26,61
903,457	-28,26
903,669	-29,56
903,88	-30,49
904,091	-29,89
904,303	-27,61
904,514	-28,31
904,725	-26,67
904,936	-25,69
905,148	-26,88
905,359	-25,14
905,57	-25,38
905,781	-26,06
905,992	-26,27
906,204	-24,25
906,415	-22,47
906,626	-25,31
906,837	-21,88
907,048	-22,1
907,259	-21,21
907,47	-20,69
907,681	-22,41
907,892	-21,02
908,103	-20,99
908,314	-22,23
908,525	-20,9
908,735	-20,73
908,946	-20,08
909,157	-20,6
909,368	-19,49
909,579	-18,66
909,789	-19,14
910	-21,17
910,211	-18,8
910,421	-18,59
910,632	-18,01
910,843	-20,86
911,053	-18,77
911,264	-16,94
911,475	-17,19
911,685	-16,91
911,896	-16,81
912,106	-16,21
912,317	-18,22
912,527	-17,53
912,737	-20,27
912,948	-19,66
913,158	-18,29
913,369	-21,08
913,579	-20,46
913,789	-19,82
914	-16,82
914,21	-15,43
914,42	-15,9
914,63	-15,97
914,841	-15,83
915,051	-14,24
915,261	-13,16
915,471	-11,61
915,681	-12,38
915,891	-10,96
916,101	-12,07
916,311	-11,68
916,521	-9,83
916,731	-10,25
916,941	-7,84
917,151	-9,11
917,361	-5,96
917,571	-8,6
917,781	-9,87
917,991	-11,8
918,201	-11,92
918,411	-13,11
918,621	-15,66
918,83	-14,01
919,04	-14,49
919,25	-11,35
919,46	-10,49
919,669	-13,33
919,879	-13,68
920,089	-15,04
920,298	-15,49
920,508	-15,36
920,717	-14,42
920,927	-14,8
921,136	-13,6
921,346	-14,58
921,555	-17,82
921,765	-18,03
921,974	-19,36
922,184	-20,81
922,393	-21,58
922,603	-22,85
922,812	-22,56
923,021	-22,48
923,23	-23,77
923,44	-25,55
923,649	-24,6
923,858	-25,81
924,067	-25,76
924,277	-27,46
924,486	-26,09
924,695	-25,52
924,904	-24,47
925,113	-24,43
925,322	-24,3
925,531	-25,72
925,74	-28,33
925,949	-29,69
926,158	-27,21
926,367	-28,19
926,576	-26,9
926,785	-28,38
926,994	-29,79
927,203	-30,13
927,412	-30,65
927,621	-32,58
927,83	-30,42
928,038	-30,14
928,247	-30,74
928,456	-29,85
928,665	-26,89
928,873	-26,03
929,082	-23,34
929,291	-22,37
929,499	-21,27
929,708	-21,33
929,916	-21,09
930,125	-23,31
930,333	-23,97
930,542	-21,65
930,75	-20
930,959	-19,53
931,167	-20,21
931,376	-21,21
931,584	-17,86
931,793	-16,96
932,001	-15,94
932,209	-16,89
932,418	-18,58
932,626	-19,79
932,834	-19,4
933,042	-20,92
933,251	-19,83
933,459	-19,89
933,667	-19,86
933,875	-19,6
934,083	-17,68
934,291	-18,12
934,499	-16,39
934,707	-17,06
934,915	-16,99
935,123	-15,97
935,331	-17,76
935,539	-19,58
935,747	-21,81
935,955	-21,67
936,163	-22,07
936,371	-21,89
936,579	-19,35
936,787	-19,55
936,995	-21,19
937,202	-22,9
937,41	-22,31
937,618	-22,14
937,826	-22,38
938,033	-27,07
938,241	-29,01
938,449	-27,69
938,656	-25,24
938,864	-24,81
939,071	-26,1
939,279	-25,24
939,486	-25,39
939,694	-26,44
939,901	-27,09
940,109	-28,61
940,316	-29,24
940,524	-29,93
940,731	-29,98
940,939	-29,41
941,146	-29,2
941,353	-30,26
941,561	-30,8
941,768	-30,64
941,975	-29,03
942,182	-28,24
942,39	-28,81
942,597	-26,73
942,804	-27,48
943,011	-29,5
943,218	-28,9
943,425	-29,41
943,632	-28,53
943,839	-29,28
944,046	-30,45
944,253	-29,44
944,46	-28,61
944,667	-25,74
944,874	-26,69
945,081	-26,33
945,288	-25,85
945,495	-22,73
945,702	-21,72
945,909	-22,48
946,115	-21,1
946,322	-22,55
946,529	-23,3
946,736	-23,28
946,942	-22,42
947,149	-23,45
947,356	-25,74
947,562	-25,85
947,769	-24,54
947,976	-26
948,182	-24,72
948,389	-26,45
948,595	-25,52
948,802	-25,84
949,008	-26,67
949,215	-25,12
949,421	-25,17
949,628	-26,9
949,834	-27,43
950,04	-28,13
950,247	-25,33
950,453	-24,69
950,659	-26,34
950,865	-24,63
951,072	-28,4
951,278	-26,46
951,484	-27,35
951,69	-29,44
951,896	-29,2
952,103	-29,63
952,309	-28,62
952,515	-29,31
952,721	-26,72
952,927	-25,2
953,133	-25,14
953,339	-25,94
953,545	-25,47
953,751	-24,17
953,957	-22,21
954,163	-23,2
954,369	-22,51
954,574	-23,77
954,78	-23,52
954,986	-22,38
955,192	-20,91
955,398	-22,56
955,603	-25,71
955,809	-23,79
956,015	-22,65
956,22	-20,55
956,426	-20,34
956,632	-24,32
956,837	-23,74
957,043	-22,06
957,248	-21,96
957,454	-21,55
957,66	-23,27
957,865	-23,34
958,07	-21,81
958,276	-25,14
958,481	-27,29
958,687	-28,44
958,892	-28,4
959,097	-28,13
959,303	-27,54
959,508	-28,53
959,713	-28,52
959,919	-28,98
960,124	-29,44
960,329	-29
960,534	-27,15
960,739	-26
960,945	-23,93
961,15	-24,08
961,355	-26,54
961,56	-29,17
961,765	-28,12
961,97	-26,94
962,175	-26,49
962,38	-28,49
962,585	-28,48
962,79	-28,61
962,995	-27,98
963,2	-28,92
963,404	-29,94
963,609	-31,43
963,814	-30,48
964,019	-33,65
964,224	-34,47
964,428	-32,91
964,633	-30,8
964,838	-29,03
965,042	-27,66
965,247	-27,83
965,452	-29,35
965,656	-28,08
965,861	-27,27
966,066	-28,64
966,27	-26,28
966,475	-23,84
966,679	-28,05
966,884	-26,98
967,088	-28,87
967,292	-29,55
967,497	-28,55
967,701	-27,44
967,906	-25,65
968,11	-24,49
968,314	-21,13
968,518	-22,06
968,723	-19,29
968,927	-19,15
969,131	-17,65
969,335	-15,69
969,539	-15,95
969,744	-14,48
969,948	-13,1
970,152	-13,11
970,356	-10,7
970,56	-11,28
970,764	-13,02
970,968	-11,08
971,172	-10,52
971,376	-10,97
971,58	-10,56
971,784	-9,2
971,988	-11,06
972,192	-10,03
972,395	-10,15
972,599	-13,28
972,803	-14,61
973,007	-11,05
973,21	-12,24
973,414	-11,82
973,618	-12,74
973,822	-12,51
974,025	-12,77
974,229	-13,4
974,432	-15,42
974,636	-17,62
974,84	-17,11
975,043	-16,91
975,247	-18,17
975,45	-20,96
975,654	-21,1
975,857	-18,81
976,06	-19,17
976,264	-20,53
976,467	-20,57
976,671	-21,43
976,874	-19,87
977,077	-20,16
977,28	-21,41
977,484	-24,37
977,687	-23,89
977,89	-22,56
978,093	-23,54
978,297	-23,4
978,5	-25,28
978,703	-23,4
978,906	-21,15
979,109	-20,89
979,312	-20,36
979,515	-21,32
979,718	-22,39
979,921	-22,68
980,124	-24,48
980,327	-24,52
980,53	-22,71
980,733	-22,13
980,936	-21,21
981,138	-22,65
981,341	-22,77
981,544	-22,38
981,747	-21,02
981,949	-22,33
982,152	-22,06
982,355	-21,95
982,558	-18,88
982,76	-20,7
982,963	-20,52
983,165	-20,76
983,368	-18,93
983,571	-19,14
983,773	-15,79
983,976	-16,3
984,178	-16,35
984,381	-15,35
984,583	-16,72
984,785	-16,11
984,988	-14,12
985,19	-13,62
985,392	-15,27
985,595	-18,2
985,797	-17,12
985,999	-14,85
986,202	-12,76
986,404	-12,32
986,606	-11,18
986,808	-13,28
987,01	-11,96
987,212	-11,77
987,415	-12,26
987,617	-12,99
987,819	-13,77
988,021	-14,39
988,223	-15,06
988,425	-15,73
988,627	-16,33
988,829	-19,86
989,031	-16,98
989,232	-17,66
989,434	-16,12
989,636	-18,01
989,838	-17,99
990,04	-17,03
990,242	-17,5
990,443	-19,11
990,645	-17,73
990,847	-16,5
991,048	-14,97
991,25	-17,08
991,452	-18,37
991,653	-19,21
991,855	-18,42
992,057	-20,72
992,258	-19,97
992,46	-20,55
992,661	-19,47
992,863	-19,97
993,064	-18,52
993,265	-20,3
993,467	-21,6
993,668	-18,53
993,87	-18,58
994,071	-18,72
994,272	-17,53
994,473	-15,84
994,675	-16,17
994,876	-16,96
995,077	-16,31
995,278	-17,07
995,48	-16,43
995,681	-18,34
995,882	-16,61
996,083	-18,05
996,284	-21,36
996,485	-20,83
996,686	-21,46
996,887	-22,76
997,088	-24,05
997,289	-26,61
997,49	-27,87
997,691	-28,79
997,892	-28,04
998,092	-26,4
998,293	-24,91
998,494	-25,84
998,695	-25,88
998,896	-24,53
999,096	-25,3
999,297	-25,91
999,498	-25,66
999,698	-27,45
999,899	-30,51
1000,1	-30,79
1000,3	-29,63
1000,501	-30,81
1000,701	-31,12
1000,902	-31,24
1001,102	-30,34
1001,303	-28,94
1001,503	-30,54
1001,704	-29,7
1001,904	-29,95
1002,105	-30,58
1002,305	-30,07
1002,505	-30,53
1002,706	-30,99
1002,906	-31,27
1003,106	-31,95
1003,306	-31,97
1003,507	-29,37
1003,707	-29,5
1003,907	-26,47
1004,107	-25,55
1004,307	-25,13
1004,507	-23,61
1004,707	-23,48
1004,907	-25,75
1005,107	-26,75
1005,308	-25,95
1005,507	-27,46
1005,707	-26,67
1005,907	-26,38
1006,107	-24,7
1006,307	-23
1006,507	-24,85
1006,707	-23,16
1006,907	-23,95
1007,106	-23,92
1007,306	-24,12
1007,506	-24,96
1007,706	-24,34
1007,905	-26,95
1008,105	-26,51
1008,305	-27,09
1008,504	-26,45
1008,704	-22,72
1008,903	-22,3
1009,103	-20,65
1009,303	-21,53
1009,502	-20,53
1009,702	-21,73
1009,901	-20,65
1010,1	-23,52
1010,3	-21,86
1010,499	-23,44
1010,699	-24,82
1010,898	-26,29
1011,097	-25,68
1011,296	-26,07
1011,496	-27,06
1011,695	-26,37
1011,894	-27,41
1012,093	-25,38
1012,293	-25,89
1012,492	-27,35
1012,691	-26,35
1012,89	-26,25
1013,089	-27,87
1013,288	-27,91
1013,487	-27,75
1013,686	-26,87
1013,885	-26,75
1014,084	-24,37
1014,283	-24,75
1014,482	-24,73
1014,681	-24,29
1014,88	-27,03
1015,078	-25,02
1015,277	-26,52
1015,476	-27,11
1015,675	-27,13
1015,873	-26,36
1016,072	-28,32
1016,271	-25,99
1016,47	-28,95
1016,668	-27,23
1016,867	-28,33
1017,065	-29,57
1017,264	-29,51
1017,463	-28,62
1017,661	-27,4
1017,86	-27,12
1018,058	-25,25
1018,256	-26,26
1018,455	-26,78
1018,653	-25,88
1018,852	-25,05
1019,05	-27,14
1019,248	-27,39
1019,447	-27,78
1019,645	-29,27
1019,843	-30,38
1020,041	-29,97
1020,24	-30,86
1020,438	-27,69
1020,636	-28,05
1020,834	-30,4
1021,032	-29,53
1021,23	-31,49
1021,428	-30,67
1021,626	-28,95
1021,824	-28,76
1022,022	-28,42
1022,22	-26,62
1022,418	-25,73
1022,616	-25,6
1022,814	-27,06
1023,012	-26,87
1023,21	-24,4
1023,408	-24,44
1023,606	-25,77
1023,803	-22,91
1024,001	-21,75
1024,199	-26,11
1024,397	-25,03
1024,594	-23,84
1024,792	-25,43
1024,99	-25,16
1025,187	-24,18
1025,385	-20,17
1025,582	-20,86
1025,78	-19,96
1025,977	-19,4
1026,175	-20,1
1026,372	-20,49
1026,57	-22,38
1026,767	-19,35
1026,965	-18,07
1027,162	-17,5
1027,359	-16,82
1027,557	-17,02
1027,754	-19,23
1027,951	-20,38
1028,148	-20,09
1028,346	-21,11
1028,543	-22,9
1028,74	-24,59
1028,937	-26,06
1029,134	-25,95
1029,331	-26,63
1029,528	-26,84
1029,725	-26,98
1029,923	-30,8
1030,12	-30,06
1030,317	-27,4
1030,513	-25,78
1030,71	-25,63
1030,907	-23,36
1031,104	-24,36
1031,301	-26,04
1031,498	-26,62
1031,695	-27,14
1031,892	-26,71
1032,088	-28,16
1032,285	-28,96
1032,482	-29,98
1032,678	-32,06
1032,875	-35,06
1033,072	-35,18
1033,268	-35,13
1033,465	-35,16
1033,662	-36,71
1033,858	-35,51
1034,055	-34,81
1034,251	-33,47
1034,448	-33,43
1034,644	-34,27
1034,84	-31,22
1035,037	-29,8
1035,233	-29,65
1035,43	-29,17
1035,626	-29,09
1035,822	-29,03
1036,019	-28,19
1036,215	-30,54
1036,411	-30,62
1036,607	-32,73
1036,803	-35,56
1037	-35,47
1037,196	-36,33
1037,392	-35,99
1037,588	-38,03
1037,784	-36,9
1037,98	-38,17
1038,176	-36,66
1038,372	-37,57
1038,568	-34,56
1038,764	-32,74
1038,96	-30,71
1039,156	-31,17
1039,352	-32,94
1039,547	-32,77
1039,743	-30,06
1039,939	-28,88
1040,135	-29,16
1040,331	-31,43
1040,526	-29,46
1040,722	-29,17
1040,918	-29,52
1041,113	-32,11
1041,309	-31,62
1041,505	-33,2
1041,7	-32,9
1041,896	-32,81
1042,091	-33,89
1042,287	-33,81
1042,482	-33,15
1042,678	-33,49
1042,873	-31,91
1043,069	-33,75
1043,264	-32,85
1043,459	-31,62
1043,655	-30,5
1043,85	-30,49
1044,045	-29
1044,24	-29,53
1044,436	-26,17
1044,631	-28,33
1044,826	-29,55
1045,021	-31,9
1045,216	-31,43
