Data from FLMT021711__18__16-32-13-197.txt Node

Date: Tue Nov 05 16:32:13 CET 2024
User: Etudiants TP
Spectrometer: FLMT02171
Trigger mode: 0
Integration Time (sec): 1,000000E-1
Scans to average: 5
Electric dark correction enabled: true
Nonlinearity correction enabled: false
Boxcar width: 15
XAxis mode: Wavelengths
Number of Pixels in Spectrum: 3648
>>>>>Begin Spectral Data<<<<<
194,658	-53,03
194,923	-51,64
195,188	-44,96
195,453	-44,68
195,717	-39,16
195,982	-37,26
196,247	-36,64
196,512	-37,93
196,777	-37,16
197,042	-35,97
197,307	-37,23
197,572	-34,29
197,837	-33,31
198,101	-31,88
198,366	-29,21
198,631	-27,71
198,896	-23,06
199,161	-16,73
199,425	-10,3
199,69	-1,47
199,955	-2,44
200,22	-4,94
200,484	-5,85
200,749	-5,92
201,014	-2,82
201,278	-2,7
201,543	-2,82
201,807	-2,48
202,072	-0,86
202,337	-2,2
202,601	-2,74
202,866	-4,36
203,13	-3,39
203,395	-5,65
203,659	-6,47
203,924	-9,09
204,189	-8,82
204,453	-8,12
204,717	-6,96
204,982	-4,77
205,246	-4,28
205,511	-1,36
205,775	-1,11
206,04	3,04
206,304	3,64
206,568	4,17
206,833	4,34
207,097	5,63
207,361	6,34
207,626	8,79
207,89	8,13
208,154	8,85
208,419	9,48
208,683	9,03
208,947	11,38
209,211	10,25
209,476	11,83
209,74	13,56
210,004	12,86
210,268	12,65
210,532	15,78
210,796	16,3
211,061	17,15
211,325	17,96
211,589	17,06
211,853	19,57
212,117	19,45
212,381	18,44
212,645	18,96
212,909	19,45
213,173	16,41
213,437	17,72
213,701	17,85
213,965	17,1
214,229	12,99
214,493	12,74
214,757	12,11
215,021	11,59
215,285	15,37
215,549	16,74
215,813	15,16
216,077	14,9
216,34	16,46
216,604	15,19
216,868	15,83
217,132	14,28
217,396	14,14
217,659	13,59
217,923	10,11
218,187	10,58
218,451	9,22
218,714	5,6
218,978	7,01
219,242	9,51
219,505	9,59
219,769	10,59
220,033	9,13
220,296	10,64
220,56	12,22
220,824	10,63
221,087	10
221,351	10,75
221,614	9,3
221,878	9,2
222,142	8,32
222,405	7,19
222,669	9,78
222,932	5,88
223,196	4,61
223,459	0,42
223,722	0,03
223,986	-1,5
224,249	-1,91
224,513	-1,29
224,776	-0
225,04	-0,78
225,303	-0,09
225,566	-0,53
225,83	0,42
226,093	1,72
226,356	-0,4
226,62	-1,45
226,883	0,63
227,146	-1,12
227,409	-3
227,673	-5,98
227,936	-6,8
228,199	-7,16
228,462	-8,27
228,725	-9,07
228,989	-9,09
229,252	-6,83
229,515	-2,83
229,778	-2,53
230,041	-1,8
230,304	-2,76
230,567	-1,69
230,83	-4,61
231,093	-1,58
231,356	-1,72
231,619	3,95
231,882	4,1
232,145	5,67
232,408	4,59
232,671	2,79
232,934	2,57
233,197	0,81
233,46	-0,38
233,723	1,23
233,986	-0,06
234,249	-0,84
234,512	0,35
234,775	4,13
235,037	2,23
235,3	2,06
235,563	2,9
235,826	5,33
236,089	6,59
236,351	8,2
236,614	9,97
236,877	10,5
237,14	12,74
237,402	11,3
237,665	5,53
237,928	3,93
238,19	1,76
238,453	4,67
238,716	4,08
238,978	2,97
239,241	1,71
239,503	4,22
239,766	0,25
240,029	-1,54
240,291	0,17
240,554	-0,65
240,816	-0,89
241,079	-1,07
241,341	0,37
241,604	0,44
241,866	-2,33
242,129	-1,39
242,391	-1,15
242,653	-1,09
242,916	-2,63
243,178	-2,23
243,441	-1,45
243,703	-2,28
243,965	-2,88
244,228	-2,25
244,49	-3,76
244,752	-3,37
245,015	-3,63
245,277	-3,16
245,539	-4,01
245,801	-2,22
246,064	-1,03
246,326	-0,66
246,588	-2,44
246,85	-0,16
247,112	1,57
247,374	2,92
247,637	4,31
247,899	4,31
248,161	5,3
248,423	2,72
248,685	4,16
248,947	4,58
249,209	4,81
249,471	4,82
249,733	6,2
249,995	5,34
250,257	3,55
250,519	3,76
250,781	5,48
251,043	3,55
251,305	6,21
251,567	7,44
251,829	8,45
252,091	7,41
252,353	2,92
252,615	3,93
252,876	1,85
253,138	0,7
253,4	-1,61
253,662	0,03
253,924	0,83
254,185	0,94
254,447	0,65
254,709	0,42
254,971	0,3
255,232	1,43
255,494	-0,23
255,756	-3,37
256,017	-3,73
256,279	-4,17
256,541	-4,42
256,802	-4,86
257,064	-4,02
257,326	-5,57
257,587	-4,73
257,849	-4,99
258,11	-3,57
258,372	-1,13
258,633	-1,43
258,895	-2,84
259,156	-2,93
259,418	-4,39
259,679	-6,96
259,941	-9,53
260,202	-7,61
260,464	-3,69
260,725	-4,27
260,987	-4,21
261,248	-5,12
261,509	-4,14
261,771	-4,65
262,032	-2,75
262,293	-2,84
262,555	-3,16
262,816	-4,39
263,077	-5,97
263,338	-7,67
263,6	-7,48
263,861	-6,5
264,122	-6,83
264,383	-4,96
264,645	-3,75
264,906	-3,71
265,167	-4,13
265,428	-3,7
265,689	-3,44
265,95	-5,42
266,211	-4,71
266,473	-5,14
266,734	-6,6
266,995	-8,09
267,256	-7,56
267,517	-6,57
267,778	-3,99
268,039	-2,49
268,3	-4,02
268,561	-8,08
268,822	-5,26
269,083	-8,06
269,344	-8,38
269,604	-9,87
269,865	-11,07
270,126	-14,64
270,387	-13,56
270,648	-13,4
270,909	-13,67
271,17	-14,79
271,43	-17,42
271,691	-18
271,952	-18,97
272,213	-16,65
272,473	-18,8
272,734	-18,26
272,995	-17,21
273,256	-17,02
273,516	-14,26
273,777	-15,27
274,038	-14,35
274,298	-16,04
274,559	-16,25
274,82	-12,9
275,08	-11,17
275,341	-9,73
275,601	-10,29
275,862	-11,51
276,122	-10,56
276,383	-10,02
276,643	-6,4
276,904	-9,53
277,164	-5,55
277,425	-4,51
277,685	-1,68
277,946	-1,24
278,206	-0,04
278,467	-0,08
278,727	0,73
278,987	0,29
279,248	1,8
279,508	4,49
279,768	5,08
280,029	5,27
280,289	2,53
280,549	1,5
280,81	1
281,07	0,3
281,33	1,88
281,59	-0,76
281,851	0,59
282,111	0,8
282,371	0,62
282,631	1,04
282,891	0,61
283,151	-0,18
283,412	-2,25
283,672	-3,06
283,932	-3,35
284,192	-3,1
284,452	-4,86
284,712	-7,61
284,972	-6,51
285,232	-8,95
285,492	-7,52
285,752	-8,4
286,012	-2,72
286,272	-2,3
286,532	-3,62
286,792	-4,46
287,052	-2,04
287,312	-3,43
287,571	-4,32
287,831	-3,87
288,091	-4,79
288,351	-4,99
288,611	-1,54
288,871	-1,54
289,13	-2,47
289,39	-5,49
289,65	-3,34
289,91	-5,14
290,17	-3,15
290,429	-0,49
290,689	-3,71
290,949	-6,98
291,208	-5,38
291,468	-1,45
291,728	-0,46
291,987	1,49
292,247	0,01
292,506	2,27
292,766	4,86
293,026	3,57
293,285	4,87
293,545	6,84
293,804	5,98
294,064	1,76
294,323	0,55
294,583	0,31
294,842	0,4
295,102	0,68
295,361	1,4
295,621	0,98
295,88	1,51
296,139	1,12
296,399	2,11
296,658	-2,04
296,917	-1,71
297,177	-3,27
297,436	-2,24
297,695	-5,73
297,955	-4,98
298,214	-5,09
298,473	-4,16
298,732	-0,66
298,992	1,46
299,251	0,38
299,51	-2,94
299,769	-2,08
300,028	-3,11
300,287	-2,72
300,547	-2,5
300,806	-4,42
301,065	-1,58
301,324	-0,89
301,583	-4,02
301,842	-7,13
302,101	-7,62
302,36	-5,99
302,619	-5,42
302,878	-4,31
303,137	-5,85
303,396	-5,25
303,655	-3,26
303,914	-4,63
304,173	-4,71
304,432	-4,83
304,691	-1,04
304,95	-3,04
305,208	0,57
305,467	1,69
305,726	2,55
305,985	4,33
306,244	4,09
306,503	3,26
306,761	1,11
307,02	0,04
307,279	0,45
307,537	1,72
307,796	-1,9
308,055	-3,48
308,314	-2,63
308,572	-4,13
308,831	-2,23
309,09	-3,08
309,348	-3,04
309,607	-4,11
309,865	-0,35
310,124	-0,86
310,382	-0,64
310,641	-0,56
310,9	-1,26
311,158	-0,87
311,417	-1,82
311,675	-1,62
311,933	-0,47
312,192	1,19
312,45	-0,14
312,709	-1,78
312,967	-2,59
313,226	-3,11
313,484	-4,83
313,742	-6,41
314,001	-8,84
314,259	-9,94
314,517	-9,74
314,776	-7,55
315,034	-6,02
315,292	-5,94
315,55	-8,42
315,809	-8,48
316,067	-8,49
316,325	-10,38
316,583	-9,89
316,841	-11,61
317,1	-12,71
317,358	-14,22
317,616	-14,16
317,874	-14,5
318,132	-16,25
318,39	-17,12
318,648	-17,14
318,906	-18,49
319,164	-18,86
319,422	-18,56
319,68	-19,66
319,938	-20,35
320,196	-19,98
320,454	-18,21
320,712	-18,12
320,97	-16,9
321,228	-18,45
321,486	-16,23
321,744	-14,17
322,002	-11,43
322,26	-12,54
322,517	-12,05
322,775	-14,16
323,033	-15,93
323,291	-16,5
323,549	-14,63
323,806	-12,7
324,064	-11,96
324,322	-10,45
324,58	-10,69
324,837	-9,31
325,095	-11,27
325,353	-10,8
325,61	-10,1
325,868	-10,42
326,126	-7,26
326,383	-8,19
326,641	-9,14
326,898	-8,42
327,156	-8,1
327,413	-7,31
327,671	-6,87
327,928	-4,77
328,186	-5,66
328,443	-6,02
328,701	-2,66
328,958	-1,99
329,216	-1,53
329,473	-3,43
329,731	-3,08
329,988	-3,77
330,245	-0,61
330,503	0,3
330,76	-0,07
331,017	2,58
331,275	1,38
331,532	0,07
331,789	-2,47
332,047	-2,87
332,304	-5,25
332,561	-4,85
332,818	-6,1
333,076	-3,88
333,333	-2,45
333,59	-0,59
333,847	-0,4
334,104	-0,73
334,361	-0,94
334,618	-0,69
334,876	-2,13
335,133	-2,28
335,39	-3,07
335,647	-2,19
335,904	-5,09
336,161	-7,09
336,418	-7,2
336,675	-10,88
336,932	-9,28
337,189	-9,45
337,446	-8,5
337,703	-10,34
337,96	-14,02
338,216	-16,01
338,473	-18,91
338,73	-17,63
338,987	-18,73
339,244	-14,58
339,501	-15,76
339,757	-13,77
340,014	-12,86
340,271	-10,63
340,528	-10,11
340,785	-6,03
341,041	-6,03
341,298	-9,26
341,555	-9,8
341,811	-9,73
342,068	-12,67
342,325	-12,67
342,581	-11,62
342,838	-9,87
343,094	-9,59
343,351	-10,79
343,608	-12,78
343,864	-10,13
344,121	-7,99
344,377	-8,24
344,634	-8,48
344,89	-10,48
345,147	-11,45
345,403	-12,6
345,66	-10,67
345,916	-8,7
346,172	-9,81
346,429	-9,98
346,685	-11,87
346,942	-9,91
347,198	-15,14
347,454	-13,67
347,711	-13,14
347,967	-15,29
348,223	-15,32
348,48	-16,13
348,736	-14,26
348,992	-14,18
349,248	-10,86
349,504	-11,12
349,761	-11,18
350,017	-9,21
350,273	-9,16
350,529	-9,27
350,785	-8,61
351,041	-8,43
351,297	-6,7
351,554	-7,52
351,81	-9,04
352,066	-10,23
352,322	-9,95
352,578	-9,01
352,834	-9,84
353,09	-8,71
353,346	-7,92
353,602	-10,39
353,858	-10,76
354,114	-10,6
354,369	-10,19
354,625	-7,74
354,881	-11,16
355,137	-7,67
355,393	-7,65
355,649	-8,21
355,905	-7,91
356,16	-7,09
356,416	-7,74
356,672	-12,66
356,928	-13,35
357,183	-14,26
357,439	-14,97
357,695	-15,97
357,951	-13,53
358,206	-11,97
358,462	-13,2
358,718	-15,78
358,973	-16,15
359,229	-15,8
359,484	-15,05
359,74	-13,63
359,996	-12,1
360,251	-9,67
360,507	-10,73
360,762	-10,49
361,018	-7,69
361,273	-9,44
361,529	-7,63
361,784	-7,89
362,04	-7,06
362,295	-7,03
362,55	-7,73
362,806	-4,61
363,061	-5,15
363,316	-3,94
363,572	-2,57
363,827	-1,16
364,082	-4,87
364,338	-3,52
364,593	-2,54
364,848	-1,91
365,104	-3,59
365,359	-0,61
365,614	-0,34
365,869	-1,87
366,124	-2,66
366,38	-1,85
366,635	-0,21
366,89	0,3
367,145	0,11
367,4	1,05
367,655	0,57
367,91	0,04
368,165	-1,17
368,42	-2,92
368,675	-1,35
368,93	-2,42
369,185	-3,79
369,44	-2,92
369,695	-0,04
369,95	-1,15
370,205	-0,99
370,46	-0,36
370,715	-2,44
370,97	-1,19
371,225	-1,84
371,48	-0,44
371,734	0,16
371,989	1,97
372,244	2,01
372,499	2,38
372,754	2,03
373,008	2,74
373,263	-1,62
373,518	-0,1
373,773	-2,3
374,027	-3,1
374,282	-2,42
374,537	-1,18
374,791	-0,43
375,046	-2,42
375,301	-1,18
375,555	-3,2
375,81	-1,99
376,064	-2,33
376,319	0,89
376,573	0,44
376,828	-1,85
377,082	1,39
377,337	-0,91
377,591	-3,93
377,846	-2,65
378,1	-2,42
378,355	-2,5
378,609	-1,98
378,863	-4,88
379,118	-3,83
379,372	-5,55
379,627	-7,04
379,881	-8,76
380,135	-9,37
380,389	-9,61
380,644	-9,5
380,898	-10,42
381,152	-9,64
381,407	-10,22
381,661	-8,27
381,915	-6,3
382,169	-6,41
382,423	-7,83
382,677	-10,22
382,932	-9,62
383,186	-9,93
383,44	-8,65
383,694	-7,98
383,948	-8,95
384,202	-10,64
384,456	-10,73
384,71	-9,37
384,964	-9,03
385,218	-7,18
385,472	-7,01
385,726	-6,89
385,98	-4,94
386,234	-5,37
386,488	-6,75
386,742	-6,66
386,996	-9,47
387,249	-9,72
387,503	-7,49
387,757	-5,95
388,011	-5,91
388,265	-5,72
388,518	-4,45
388,772	-2,54
389,026	-1,79
389,28	-3,31
389,533	-4,38
389,787	-4,56
390,041	-5,64
390,295	-3,69
390,548	-3,07
390,802	1,14
391,055	0,02
391,309	-0
391,563	-1,69
391,816	-1,36
392,07	-1,72
392,323	-0,31
392,577	-1,25
392,83	-1,27
393,084	2,34
393,337	5,13
393,591	5,04
393,844	3,57
394,098	5,59
394,351	7,72
394,604	10,88
394,858	13,55
395,111	13,46
395,364	11,36
395,618	12,82
395,871	10,75
396,124	10,15
396,378	8,98
396,631	9,63
396,884	9,25
397,137	9,56
397,391	9,56
397,644	7,2
397,897	7,2
398,15	5,55
398,403	7,79
398,657	5,73
398,91	5,26
399,163	6,05
399,416	6,49
399,669	5,85
399,922	5,65
400,175	4,08
400,428	5,42
400,681	7,37
400,934	5,71
401,187	6,33
401,44	8,25
401,693	9,21
401,946	7,15
402,199	3,84
402,452	2,69
402,704	0,29
402,957	-0,15
403,21	1,35
403,463	0,94
403,716	2,93
403,969	3,31
404,221	3,45
404,474	4,83
404,727	6,5
404,98	8,71
405,232	9,6
405,485	12,67
405,738	13,53
405,99	13,86
406,243	14,49
406,496	15,78
406,748	15,54
407,001	13,69
407,253	13,08
407,506	12,41
407,759	13,3
408,011	12,52
408,264	10,3
408,516	8,42
408,769	6,34
409,021	5,63
409,274	3,24
409,526	2,31
409,778	1,43
410,031	3,38
410,283	3,24
410,536	7,42
410,788	7,16
411,04	6,06
411,293	6,8
411,545	7,27
411,797	6,56
412,049	5,52
412,302	3,98
412,554	4,41
412,806	2,62
413,058	0,95
413,311	1,14
413,563	1,31
413,815	1,41
414,067	-1,62
414,319	-1,64
414,571	-1,07
414,823	-1,88
415,075	-3,13
415,328	-1,25
415,58	1,43
415,832	2,17
416,084	4,09
416,336	2,59
416,588	4,09
416,84	2,76
417,091	4,62
417,343	2,09
417,595	5,2
417,847	7,08
418,099	7,61
418,351	6,5
418,603	8,38
418,855	10,29
419,106	10,4
419,358	9,95
419,61	10,42
419,862	12,4
420,114	11,27
420,365	10,68
420,617	11,2
420,869	10,98
421,12	10,16
421,372	10,44
421,624	11,62
421,875	12,75
422,127	9,35
422,379	9,81
422,63	11,3
422,882	11,97
423,133	11,93
423,385	10,93
423,636	11,05
423,888	12,08
424,139	13,8
424,391	12,65
424,642	12,5
424,894	12,19
425,145	12,87
425,396	10,32
425,648	11,71
425,899	10,32
426,151	10,44
426,402	9,05
426,653	8,54
426,905	7,15
427,156	6,84
427,407	7,15
427,658	5,62
427,91	5,55
428,161	5,33
428,412	7,08
428,663	7,84
428,914	8,23
429,166	8,82
429,417	8,51
429,668	8,31
429,919	7,37
430,17	5,9
430,421	7
430,672	9,08
430,923	8,3
431,174	6,81
431,425	10,12
431,676	13,26
431,927	17,2
432,178	24,98
432,429	31,18
432,68	36,63
432,931	43,78
433,182	49,4
433,433	48,68
433,683	51,34
433,934	52
434,185	52,21
434,436	51,52
434,687	52,39
434,937	53,45
435,188	52,13
435,439	51,04
435,69	51,56
435,94	51,38
436,191	50,87
436,442	50,18
436,692	49,01
436,943	47,35
437,194	46,24
437,444	46,71
437,695	49,51
437,945	50,63
438,196	50,04
438,447	49,18
438,697	49,77
438,948	49,1
439,198	45,06
439,449	37,23
439,699	32,05
439,949	24,85
440,2	18,17
440,45	12,94
440,701	8,13
440,951	2,77
441,201	1,94
441,452	-0,12
441,702	-1,54
441,952	-2,1
442,203	-1,81
442,453	-3,1
442,703	-2,96
442,953	-2,51
443,204	-0,18
443,454	-1,35
443,704	-0,63
443,954	-1,65
444,204	-0,63
444,455	-0,23
444,705	1,32
444,955	0,85
445,205	1,42
445,455	0,44
445,705	0,97
445,955	0,83
446,205	-0,38
446,455	-0,55
446,705	1,32
446,955	1,85
447,205	3,32
447,455	4,21
447,705	2,43
447,955	0,69
448,205	0,37
448,454	-0,51
448,704	1,91
448,954	-0,9
449,204	-1,16
449,454	-2,21
449,704	-3,3
449,953	-4,82
450,203	-3,24
450,453	-3,93
450,703	-2,73
450,952	-3,54
451,202	-2,42
451,452	-3,95
451,701	-1,58
451,951	1,8
452,201	2,83
452,45	1,92
452,7	4,4
452,949	4,12
453,199	4,21
453,448	5,07
453,698	4,73
453,947	4,33
454,197	4,13
454,446	1,95
454,696	3,64
454,945	4,33
455,195	3,52
455,444	4,74
455,693	8,32
455,943	6,3
456,192	7,13
456,442	5,38
456,691	5,97
456,94	5,94
457,189	6,77
457,439	8,98
457,688	10,59
457,937	9,98
458,186	10,12
458,436	10,01
458,685	10,69
458,934	9,05
459,183	8,27
459,432	7,67
459,681	6,76
459,93	4,86
460,179	5,11
460,429	1,64
460,678	3,24
460,927	4,39
461,176	3,6
461,425	3,52
461,674	5,34
461,923	4,42
462,172	5,45
462,42	3,05
462,669	4,98
462,918	3,43
463,167	2,71
463,416	1,38
463,665	3,57
463,914	3,46
464,162	2,83
464,411	4,93
464,66	5,35
464,909	3,39
465,158	3,13
465,406	2,6
465,655	3,52
465,904	4,41
466,152	4,18
466,401	5,46
466,65	7,13
466,898	7,59
467,147	5,48
467,395	5,7
467,644	7,65
467,893	6,25
468,141	8,23
468,39	5,29
468,638	3,22
468,887	2,41
469,135	2,26
469,384	3,38
469,632	3,88
469,88	3,54
470,129	7,6
470,377	5,98
470,626	10
470,874	11,97
471,122	12,74
471,371	10,93
471,619	10,4
471,867	12,66
472,115	11,87
472,364	10,5
472,612	13,56
472,86	11,84
473,108	12,74
473,356	13,45
473,605	13,97
473,853	13,04
474,101	11,12
474,349	10,27
474,597	12,21
474,845	11,19
475,093	10,17
475,341	7,8
475,589	8,32
475,837	8,58
476,085	10,77
476,333	10,1
476,581	11,04
476,829	10,08
477,077	11,02
477,325	11,9
477,573	13,57
477,821	9,59
478,069	10,19
478,317	9,44
478,564	11,37
478,812	9,42
479,06	9,04
479,308	8,19
479,555	8,31
479,803	7,87
480,051	10,94
480,299	11,14
480,546	13,8
480,794	13,78
481,042	17,13
481,289	18,2
481,537	21,03
481,784	23,67
482,032	29,84
482,28	32,29
482,527	36,29
482,775	38,77
483,022	44,15
483,27	47,73
483,517	53,42
483,765	56,05
484,012	60,85
484,259	62,08
484,507	69,52
484,754	73,36
485,002	77,38
485,249	79,67
485,496	85,35
485,744	88,87
485,991	91,52
486,238	93,48
486,486	98,27
486,733	102,17
486,98	107,98
487,227	108,4
487,474	112,87
487,722	116,49
487,969	116,55
488,216	118,39
488,463	119,67
488,71	117,06
488,957	116,04
489,204	117
489,451	117,21
489,699	115,83
489,946	113,86
490,193	112,22
490,44	110,93
490,687	109,77
490,934	108,02
491,18	103,94
491,427	103,73
491,674	104,39
491,921	104,36
492,168	101,67
492,415	98,1
492,662	96,92
492,909	96,9
493,155	94,98
493,402	91,61
493,649	88,74
493,896	86,96
494,142	83,57
494,389	82,81
494,636	79,46
494,883	77,53
495,129	75,16
495,376	70,98
495,623	70,46
495,869	70,15
496,116	69,46
496,362	69,84
496,609	70,54
496,855	72,1
497,102	70,13
497,348	67,52
497,595	67,49
497,841	67,8
498,088	65,68
498,334	63,18
498,581	60,54
498,827	59,22
499,074	58,39
499,32	57,25
499,566	58,04
499,813	57,17
500,059	54,17
500,305	51,05
500,552	48,75
500,798	47,16
501,044	49,03
501,29	47,11
501,537	43,4
501,783	43,4
502,029	43,51
502,275	39,22
502,521	37,71
502,767	37,67
503,013	38,79
503,26	36,26
503,506	33,17
503,752	33,33
503,998	29,97
504,244	30,41
504,49	26,86
504,736	28,49
504,982	26,94
505,228	27,89
505,474	27,93
505,72	28,16
505,966	27,66
506,211	31,46
506,457	30,76
506,703	28,12
506,949	25,53
507,195	23,99
507,441	20,33
507,686	23,1
507,932	23,94
508,178	25,42
508,424	22,98
508,669	20,74
508,915	21,08
509,161	22,58
509,406	22,57
509,652	21,94
509,898	24,97
510,143	26,29
510,389	24,32
510,634	21,2
510,88	23,49
511,125	25,15
511,371	24,95
511,616	25,24
511,862	21,3
512,107	19,98
512,353	19,06
512,598	20,13
512,844	17,51
513,089	16,09
513,335	16,65
513,58	16,39
513,825	15,27
514,071	14,5
514,316	14,11
514,561	15,2
514,806	14,67
515,052	16,89
515,297	15,86
515,542	16,13
515,787	15,79
516,033	18,44
516,278	18,43
516,523	17,33
516,768	15,97
517,013	15,32
517,258	14,51
517,503	15,25
517,748	14,88
517,993	15,06
518,238	15,19
518,483	14,03
518,728	12,65
518,973	11,95
519,218	12,82
519,463	14,88
519,708	13,59
519,953	13,47
520,198	12,49
520,443	13,27
520,688	15,17
520,933	14,59
521,177	15,48
521,422	13,83
521,667	16,88
521,912	17,05
522,157	14,11
522,401	16,04
522,646	15,75
522,891	15,4
523,135	15,63
523,38	14,63
523,625	13,73
523,869	15,63
524,114	17,01
524,358	16,45
524,603	17,04
524,848	14,52
525,092	13,3
525,337	13,22
525,581	13,91
525,826	15,35
526,07	16,57
526,315	16,84
526,559	16,45
526,803	14,94
527,048	17,14
527,292	19,3
527,537	17,61
527,781	17,77
528,025	15,88
528,269	16,75
528,514	17,52
528,758	16,29
529,002	16,63
529,247	18,43
529,491	19,5
529,735	24,45
529,979	24,95
530,223	26,85
530,467	25,19
530,712	24,64
530,956	25,74
531,2	27,47
531,444	26,55
531,688	29,01
531,932	30,39
532,176	32,66
532,42	36,19
532,664	39,11
532,908	39,84
533,152	40,88
533,396	43,64
533,64	45,67
533,884	48,37
534,128	52,17
534,371	59,44
534,615	67,19
534,859	71,61
535,103	78,72
535,347	86,07
535,59	96,15
535,834	102,27
536,078	114,34
536,322	128,36
536,565	145
536,809	161,54
537,053	183,92
537,296	207,97
537,54	239,04
537,784	274,1
538,027	317,66
538,271	361,5
538,514	406,85
538,758	453,1
539,001	497,89
539,245	540,95
539,488	585,16
539,732	625,61
539,975	665,41
540,219	704,17
540,462	741,03
540,706	778,37
540,949	812,73
541,192	847,67
541,436	885,98
541,679	927,25
541,922	969,55
542,166	1013,98
542,409	1068,25
542,652	1123,76
542,895	1180,97
543,139	1230,22
543,382	1276,23
543,625	1313,36
543,868	1344,05
544,111	1368,63
544,354	1386,88
544,598	1395,34
544,841	1398,98
545,084	1391,64
545,327	1378,28
545,57	1360,95
545,813	1339,57
546,056	1311,93
546,299	1285,38
546,542	1256,77
546,785	1230,07
547,028	1201,62
547,271	1173,19
547,514	1145,12
547,756	1115,13
547,999	1088,47
548,242	1060,42
548,485	1031,98
548,728	1002,3
548,971	969,21
549,213	934,29
549,456	893,73
549,699	845,53
549,942	791,93
550,184	735,93
550,427	676,82
550,67	624,02
550,912	573,31
551,155	529,09
551,398	488,11
551,64	450,69
551,883	416,15
552,125	385,93
552,368	358,59
552,61	332,48
552,853	311,65
553,095	287,26
553,338	266,08
553,58	248,29
553,823	227,3
554,065	213,87
554,308	196,29
554,55	180,43
554,792	166,51
555,035	153,4
555,277	141,48
555,519	132,17
555,762	121,81
556,004	113,14
556,246	102,96
556,488	96,21
556,731	87,47
556,973	80,89
557,215	75,48
557,457	70,4
557,699	66,99
557,941	60,8
558,183	55,57
558,426	53,49
558,668	47,18
558,91	44,75
559,152	41,5
559,394	38,07
559,636	37,05
559,878	34,64
560,12	33,27
560,362	32,61
560,604	31,8
560,845	30,32
561,087	28,29
561,329	29,35
561,571	26,21
561,813	25,78
562,055	25,66
562,297	24,52
562,538	23,85
562,78	25,75
563,022	22,08
563,264	22,56
563,505	21,87
563,747	21,54
563,989	19,31
564,23	17,53
564,472	16,14
564,714	16,81
564,955	16,6
565,197	13,7
565,438	14,99
565,68	18,3
565,921	16,11
566,163	17,04
566,404	16,31
566,646	17,65
566,887	18,53
567,129	18,97
567,37	17,32
567,612	16,82
567,853	13,12
568,094	13,16
568,336	11,97
568,577	11,91
568,818	11,18
569,06	8,79
569,301	6,31
569,542	4,88
569,783	7,1
570,025	8,42
570,266	7,4
570,507	10,03
570,748	8,87
570,989	8,89
571,23	10,93
571,472	11,11
571,713	10,58
571,954	11,48
572,195	9,72
572,436	10,99
572,677	12,62
572,918	16,49
573,159	17,6
573,4	20,94
573,641	25,05
573,882	30,64
574,123	33,22
574,364	33,51
574,604	37,63
574,845	41,35
575,086	47,74
575,327	54,88
575,568	59,21
575,809	64,01
576,049	68,39
576,29	70,84
576,531	79,76
576,771	87,83
577,012	95,04
577,253	100,81
577,494	103,39
577,734	108
577,975	111,08
578,215	115,72
578,456	118,33
578,697	123,66
578,937	129,97
579,178	135,51
579,418	140,48
579,659	145,85
579,899	149,65
580,14	153,67
580,38	155,54
580,62	158,92
580,861	163,43
581,101	165,45
581,342	166,53
581,582	165,54
581,822	169,57
582,063	170,63
582,303	173,51
582,543	174,52
582,783	174,85
583,024	178,32
583,264	181,72
583,504	182,46
583,744	186,34
583,984	188,14
584,224	191,57
584,465	192,65
584,705	193,71
584,945	197,24
585,185	197,99
585,425	200,27
585,665	200,34
585,905	200,58
586,145	199,29
586,385	196,02
586,625	195,62
586,865	192,78
587,105	189,75
587,345	186,7
587,585	184,44
587,824	180,99
588,064	177,9
588,304	172,99
588,544	168,3
588,784	164,98
589,024	165,66
589,263	164,81
589,503	162,97
589,743	164,96
589,982	163,84
590,222	166,09
590,462	162,3
590,701	159,43
590,941	160,24
591,181	157,81
591,42	152,33
591,66	147
591,899	143,38
592,139	138,33
592,378	134,17
592,618	131,06
592,857	128,35
593,097	126,05
593,336	123,71
593,576	121,16
593,815	119,74
594,055	117,29
594,294	116,12
594,533	114,46
594,773	113,08
595,012	113,9
595,251	113,06
595,491	113,08
595,73	114,75
595,969	116,8
596,208	116,81
596,447	118,82
596,687	117,21
596,926	116,55
597,165	111,44
597,404	109,62
597,643	102,15
597,882	99,84
598,121	98,15
598,36	95,66
598,599	92,45
598,838	89,13
599,077	85,86
599,316	83,97
599,555	80,61
599,794	79,32
600,033	78,51
600,272	77,6
600,511	74,91
600,75	74,39
600,989	74,29
601,228	75,05
601,466	74,72
601,705	74,98
601,944	76,8
602,183	77,59
602,422	75,38
602,66	75,35
602,899	72,96
603,138	70,38
603,376	68,78
603,615	66,99
603,854	64,15
604,092	62,86
604,331	62,35
604,569	62,02
604,808	61,37
605,047	63,91
605,285	64,83
605,524	66,11
605,762	66,56
606	71,88
606,239	78,75
606,477	86,4
606,716	94,18
606,954	109,47
607,193	127,06
607,431	150,92
607,669	183,32
607,908	220,89
608,146	263,94
608,384	306,2
608,622	344,95
608,861	380,87
609,099	412,95
609,337	441,64
609,575	468,79
609,813	494,92
610,052	514,81
610,29	530,13
610,528	545,41
610,766	558,23
611,004	572,33
611,242	582,35
611,48	594,11
611,718	602,27
611,956	611,81
612,194	618,27
612,432	623,42
612,67	628,03
612,908	632,88
613,146	633,62
613,384	633,99
613,621	632,21
613,859	627,97
614,097	621,11
614,335	608,64
614,573	592,93
614,811	570,77
615,048	538,36
615,286	503,55
615,524	463,29
615,761	419,57
615,999	382,45
616,237	347,59
616,474	317,55
616,712	290,34
616,95	263,25
617,187	238,79
617,425	221,71
617,662	205,94
617,9	191,47
618,137	177,5
618,375	164,07
618,612	151,12
618,85	141,2
619,087	134,17
619,325	124,83
619,562	117,58
619,799	110,36
620,037	104,84
620,274	99,48
620,511	98,59
620,749	94,62
620,986	92,01
621,223	90,52
621,461	90,34
621,698	91,55
621,935	89,7
622,172	88,46
622,409	89,97
622,647	90,6
622,884	90,4
623,121	93,9
623,358	92,49
623,595	93,86
623,832	94,6
624,069	93,22
624,306	94,55
624,543	96,84
624,78	96,04
625,017	96,98
625,254	98,02
625,491	100,58
625,728	102,29
625,965	103,41
626,202	102,66
626,438	101,03
626,675	100,23
626,912	102
627,149	105,49
627,386	106,52
627,622	106,77
627,859	107,72
628,096	108,14
628,333	110,67
628,569	111,56
628,806	113,31
629,043	113,06
629,279	113,74
629,516	114,77
629,752	111,32
629,989	108,15
630,225	105,36
630,462	102,57
630,699	100,54
630,935	96,89
631,171	91,61
631,408	89,03
631,644	84,81
631,881	79,18
632,117	74,56
632,354	72,19
632,59	68,96
632,826	65,47
633,063	61,32
633,299	61,23
633,535	58,65
633,771	55,89
634,008	55,8
634,244	52,74
634,48	46,77
634,716	44,42
634,953	40,38
635,189	36,01
635,425	34,16
635,661	30,25
635,897	25,16
636,133	21,44
636,369	17,72
636,605	12,53
636,841	9,54
637,077	8,82
637,313	9,55
637,549	7,51
637,785	6,47
638,021	5,95
638,257	4,34
638,493	6,31
638,729	3,32
638,965	6,53
639,2	6,03
639,436	4,65
639,672	4,22
639,908	2,5
640,144	6,81
640,379	9,07
640,615	6,06
640,851	6,24
641,086	7,53
641,322	7,66
641,558	7,34
641,793	8,2
642,029	7,02
642,264	5,53
642,5	4,96
642,736	2,67
642,971	3,43
643,207	1,89
643,442	1,12
643,678	2,54
643,913	3,81
644,148	3,26
644,384	4,75
644,619	3,21
644,855	5,03
645,09	6,5
645,325	6,22
645,561	7,42
645,796	5,54
646,031	9,31
646,266	6,93
646,502	8,44
646,737	12,65
646,972	14,48
647,207	16,39
647,442	13,79
647,678	11,35
647,913	14,5
648,148	16,69
648,383	15,87
648,618	13,87
648,853	15,35
649,088	17,32
649,323	19,25
649,558	21,45
649,793	23,6
650,028	23,3
650,263	20,63
650,498	24,33
650,733	23,26
650,968	21,31
651,202	24,37
651,437	22,81
651,672	20,06
651,907	19,68
652,142	20,25
652,376	18,89
652,611	20,7
652,846	21,92
653,081	21,54
653,315	21,57
653,55	20,96
653,785	19,51
654,019	19,27
654,254	16,75
654,488	16,5
654,723	13,51
654,958	12,92
655,192	10,78
655,427	7,34
655,661	8,01
655,896	10,42
656,13	10,67
656,364	8,23
656,599	5,62
656,833	6,83
657,068	7,45
657,302	7,11
657,536	5,95
657,771	5,15
658,005	6,59
658,239	7,45
658,474	5,36
658,708	5,95
658,942	7,56
659,176	8,31
659,41	7,34
659,645	8,34
659,879	8,48
660,113	4,46
660,347	5,17
660,581	3,3
660,815	3,88
661,049	3,38
661,283	0,66
661,517	-0,74
661,751	-1,17
661,985	-2,31
662,219	-0,59
662,453	-1,17
662,687	-0,65
662,921	-3,43
663,155	-4,52
663,389	-9,48
663,622	-10,03
663,856	-7,63
664,09	-11,43
664,324	-13,08
664,558	-12,13
664,791	-12,43
665,025	-11,59
665,259	-12,02
665,492	-12,91
665,726	-11,51
665,96	-12
666,193	-14,93
666,427	-14,98
666,661	-16,22
666,894	-16,92
667,128	-20,12
667,361	-17,2
667,595	-17,85
667,828	-17,4
668,062	-17,97
668,295	-18,32
668,529	-17,43
668,762	-16,27
668,995	-16,25
669,229	-12,78
669,462	-12,94
669,695	-13,12
669,929	-14,54
670,162	-13,07
670,395	-14,25
670,629	-11,79
670,862	-9,98
671,095	-12,87
671,328	-10,99
671,561	-14,03
671,795	-13,65
672,028	-12,64
672,261	-11,94
672,494	-11,66
672,727	-13,12
672,96	-11,42
673,193	-11,01
673,426	-6,85
673,659	-6,87
673,892	-6,73
674,125	-7,29
674,358	-6,25
674,591	-7,7
674,824	-8,1
675,057	-8,95
675,29	-9,79
675,523	-7,8
675,755	-7,92
675,988	-7,9
676,221	-7,73
676,454	-10,37
676,687	-9,95
676,919	-10,12
677,152	-9,04
677,385	-8,87
677,617	-7,5
677,85	-7,28
678,083	-7,93
678,315	-5,64
678,548	-7,21
678,78	-6,33
679,013	-5,97
679,246	-5,48
679,478	-6,41
679,711	-7,2
679,943	-5,4
680,175	-8,06
680,408	-4,75
680,64	-7,97
680,873	-7,72
681,105	-7,06
681,338	-4,9
681,57	-5,17
681,802	-3,22
682,034	-2,51
682,267	0,38
682,499	2,19
682,731	-0,09
682,964	-0,94
683,196	-0,89
683,428	-1,59
683,66	-1,08
683,892	1,28
684,124	3,98
684,356	6,2
684,589	6,7
684,821	6,79
685,053	7,53
685,285	7,84
685,517	8,38
685,749	10,47
685,981	11,75
686,213	10,69
686,445	11,33
686,676	9,41
686,908	10,89
687,14	10,5
687,372	9,86
687,604	7,09
687,836	8,49
688,068	8,57
688,299	9,54
688,531	7,27
688,763	9,24
688,995	6,94
689,226	8,83
689,458	5,95
689,69	3,98
689,921	2,93
690,153	3,63
690,384	4,84
690,616	4,34
690,848	5,01
691,079	2,43
691,311	0,1
691,542	-2,71
691,774	-4,55
692,005	-3,14
692,237	-0,76
692,468	-1,73
692,699	-2,07
692,931	-3,19
693,162	-5,06
693,393	-5,54
693,625	-6,49
693,856	-5,86
694,087	-7,83
694,319	-7,41
694,55	-7,67
694,781	-7,73
695,012	-7,57
695,243	-9,91
695,475	-11,78
695,706	-11
695,937	-10,38
696,168	-11,16
696,399	-12,79
696,63	-12,23
696,861	-12,2
697,092	-7,89
697,323	-7,01
697,554	-7,9
697,785	-8
698,016	-6,84
698,247	-9,11
698,478	-7,5
698,709	-6,77
698,94	-5,03
699,171	-7,15
699,401	-11,17
699,632	-9,86
699,863	-12,38
700,094	-11,8
700,325	-9,2
700,555	-8
700,786	-7,47
701,017	-6,36
701,247	-5,23
701,478	-5,58
701,709	-4,54
701,939	-6,12
702,17	-4,26
702,401	-1,35
702,631	-0,08
702,862	-1,37
703,092	-2,7
703,323	0,59
703,553	2,79
703,784	4,17
704,014	6,63
704,244	3,64
704,475	3,91
704,705	6,65
704,936	9,13
705,166	9,72
705,396	13,72
705,627	14,05
705,857	16,54
706,087	18,39
706,317	18,82
706,548	19,57
706,778	19,41
707,008	21,49
707,238	22,72
707,468	21,19
707,698	20,51
707,928	21,45
708,158	21,72
708,389	22,9
708,619	22,09
708,849	21,99
709,079	24,13
709,309	22,94
709,539	21,77
709,768	23,68
709,998	27,04
710,228	27,29
710,458	26,63
710,688	24,16
710,918	22,87
711,148	21,63
711,378	21,89
711,607	20,99
711,837	20,28
712,067	18,75
712,297	16,21
712,526	14,25
712,756	14,8
712,986	11,35
713,215	8,01
713,445	6,56
713,674	7,13
713,904	5,87
714,134	5,9
714,363	3,07
714,593	1,98
714,822	1,93
715,052	1,12
715,281	0,14
715,511	-2,27
715,74	-2,59
715,969	-3,86
716,199	-5,85
716,428	-7,63
716,657	-8,28
716,887	-9,12
717,116	-14
717,345	-14,63
717,575	-14,78
717,804	-15,1
718,033	-16,13
718,262	-18,16
718,492	-17,12
718,721	-16,68
718,95	-18,4
719,179	-19,97
719,408	-19,09
719,637	-22,87
719,866	-24,92
720,095	-22,11
720,324	-22,71
720,553	-24,69
720,782	-25,97
721,011	-26,13
721,24	-27,72
721,469	-27,38
721,698	-26,91
721,927	-28,42
722,156	-29,13
722,385	-29,67
722,613	-27,76
722,842	-26,95
723,071	-24,68
723,3	-22,93
723,529	-22,36
723,757	-21,88
723,986	-23,22
724,215	-23,1
724,443	-20,87
724,672	-19,6
724,901	-19,06
725,129	-17,38
725,358	-13,95
725,586	-16,69
725,815	-17,65
726,043	-19,52
726,272	-21,38
726,5	-21,98
726,729	-19,53
726,957	-22,42
727,186	-25,72
727,414	-23,53
727,642	-22,52
727,871	-21,78
728,099	-21,52
728,327	-20,69
728,556	-18,55
728,784	-17,92
729,012	-18,32
729,241	-16,61
729,469	-16,96
729,697	-19,7
729,925	-18,38
730,153	-18,5
730,381	-18,11
730,61	-18,65
730,838	-19,18
731,066	-19,18
731,294	-17,6
731,522	-20,61
731,75	-22,81
731,978	-23,59
732,206	-24,15
732,434	-26,23
732,662	-24,85
732,89	-25,63
733,118	-25,17
733,346	-23,91
733,573	-23,21
733,801	-22,8
734,029	-16,68
734,257	-15,73
734,485	-13,13
734,712	-10,99
734,94	-11,76
735,168	-9,97
735,396	-9,87
735,623	-11,69
735,851	-10,4
736,078	-9,03
736,306	-9,01
736,534	-9,27
736,761	-7,65
736,989	-10,47
737,216	-12,63
737,444	-13,91
737,671	-13,04
737,899	-10,07
738,126	-11,03
738,354	-12,43
738,581	-11,33
738,809	-11,18
739,036	-13,1
739,263	-12,97
739,491	-13,17
739,718	-12,18
739,945	-7,88
740,173	-5,57
740,4	-4,48
740,627	-5,49
740,854	-6,69
741,081	-10,08
741,309	-10,86
741,536	-15,2
741,763	-16,44
741,99	-15,98
742,217	-16,68
742,444	-16,59
742,671	-15,5
742,898	-17,3
743,125	-18,28
743,352	-20,49
743,579	-20,5
743,806	-19,76
744,033	-16,76
744,26	-15,03
744,487	-15,27
744,714	-14,72
744,941	-15,27
745,167	-13,3
745,394	-14,16
745,621	-13,72
745,848	-12,56
746,075	-9,78
746,301	-7,54
746,528	-5,45
746,755	-7,78
746,981	-9,7
747,208	-10,05
747,435	-9,39
747,661	-9,25
747,888	-8,24
748,114	-8,83
748,341	-6,79
748,567	-5,46
748,794	-6,5
749,02	-8,75
749,247	-10,13
749,473	-11,25
749,7	-10,83
749,926	-10,32
750,152	-7,3
750,379	-6,71
750,605	-5,8
750,831	-8,04
751,058	-9,39
751,284	-10,94
751,51	-9,08
751,737	-8,19
751,963	-10,64
752,189	-9,94
752,415	-7,52
752,641	-9,02
752,867	-10,4
753,094	-12,01
753,32	-13,04
753,546	-13,37
753,772	-11,98
753,998	-13,22
754,224	-13,26
754,45	-12,57
754,676	-12,82
754,902	-13,17
755,128	-13,01
755,354	-13,39
755,579	-11,94
755,805	-11,57
756,031	-11,27
756,257	-11,2
756,483	-12,44
756,709	-13,39
756,934	-13,74
757,16	-16,74
757,386	-16,99
757,612	-18,78
757,837	-19,17
758,063	-17,59
758,289	-14,67
758,514	-17,23
758,74	-20,09
758,965	-20,61
759,191	-20,8
759,416	-21,47
759,642	-20,64
759,868	-19,84
760,093	-18,04
760,318	-19,84
760,544	-20,66
760,769	-20,15
760,995	-19,8
761,22	-20,28
761,445	-20,19
761,671	-17,88
761,896	-15,4
762,121	-15,42
762,347	-16,1
762,572	-19,5
762,797	-19,37
763,022	-19,53
763,248	-17,39
763,473	-16,59
763,698	-18,15
763,923	-17,74
764,148	-16,84
764,373	-15,76
764,598	-14,82
764,823	-13,08
765,048	-15,46
765,273	-19,12
765,498	-19,96
765,723	-20,3
765,948	-19,21
766,173	-20,4
766,398	-20,62
766,623	-21,69
766,848	-22,04
767,073	-23,99
767,298	-24,46
767,522	-25,31
767,747	-24,69
767,972	-25,8
768,197	-24,61
768,421	-25,15
768,646	-27,73
768,871	-30,42
769,095	-30,45
769,32	-29,19
769,545	-27,89
769,769	-26,85
769,994	-24,35
770,218	-27,01
770,443	-25,63
770,667	-23,93
770,892	-22,71
771,116	-22,18
771,341	-22,42
771,565	-22,27
771,79	-21,12
772,014	-21,56
772,238	-20,69
772,463	-17,56
772,687	-16,15
772,911	-17,3
773,136	-19,18
773,36	-16,73
773,584	-16,86
773,808	-18,94
774,033	-17,21
774,257	-17,2
774,481	-17,38
774,705	-18,93
774,929	-18,19
775,153	-18,68
775,377	-18,5
775,602	-19,28
775,826	-17,05
776,05	-14,89
776,274	-15,72
776,498	-15,35
776,722	-16,24
776,945	-16,13
777,169	-14,32
777,393	-15,74
777,617	-16,8
777,841	-15,93
778,065	-16,66
778,289	-16,52
778,512	-17,43
778,736	-18,06
778,96	-17,18
779,184	-16,31
779,407	-17,69
779,631	-18,19
779,855	-19,17
780,078	-17,13
780,302	-19,59
780,526	-19,51
780,749	-19
780,973	-18,47
781,196	-17,61
781,42	-18,54
781,643	-17,77
781,867	-17,35
782,09	-20,32
782,314	-20,88
782,537	-20,79
782,76	-22,5
782,984	-21,98
783,207	-22,45
783,431	-22,67
783,654	-23,34
783,877	-25,49
784,1	-27,41
784,324	-25,35
784,547	-25,44
784,77	-28,85
784,993	-28,47
785,216	-30,27
785,44	-29,09
785,663	-30,98
785,886	-27,84
786,109	-28,89
786,332	-27,81
786,555	-26,04
786,778	-23,31
787,001	-22,51
787,224	-20,55
787,447	-20,06
787,67	-17,82
787,893	-18,6
788,116	-17,79
788,339	-16,45
788,561	-16,97
788,784	-18,92
789,007	-18,38
789,23	-19,49
789,453	-19,19
789,675	-20,18
789,898	-22,35
790,121	-24,15
790,344	-25,96
790,566	-24,29
790,789	-24,58
791,012	-23,23
791,234	-22,78
791,457	-20,23
791,679	-18,58
791,902	-19,26
792,124	-18,02
792,347	-19,76
792,569	-19,63
792,792	-23,64
793,014	-20,89
793,237	-20,48
793,459	-20,61
793,681	-20,7
793,904	-21,78
794,126	-23,25
794,348	-23,25
794,571	-23,67
794,793	-23,24
795,015	-24
795,237	-24,24
795,46	-22,89
795,682	-22,3
795,904	-19,94
796,126	-19,75
796,348	-19,45
796,57	-17,61
796,792	-17,77
797,014	-13,66
797,237	-11,69
797,459	-10,23
797,681	-7,99
797,903	-10,38
798,124	-10,62
798,346	-2,32
798,568	-2,33
798,79	0,52
799,012	1,23
799,234	3,63
799,456	4,93
799,678	6,83
799,899	4,26
800,121	2,11
800,343	0,88
800,565	-0,15
800,786	-0,08
801,008	0,42
801,23	0,37
801,451	1,28
801,673	-1,72
801,895	-0,24
802,116	1,13
802,338	1,5
802,559	1,17
802,781	-0,9
803,002	1,25
803,224	2,06
803,445	0,92
803,667	2,66
803,888	0,19
804,109	0,88
804,331	-0,24
804,552	-0,68
804,773	1,12
804,995	-1,22
805,216	-11,83
805,437	-13,5
805,658	-15,83
805,88	-17,49
806,101	-17,82
806,322	-17,01
806,543	-18,17
806,764	-19,11
806,985	-17,86
807,207	-17,2
807,428	-15,48
807,649	-17,43
807,87	-18,75
808,091	-17,66
808,312	-17,86
808,533	-13,34
808,754	-13,01
808,975	-14,41
809,195	-13,5
809,416	-13,15
809,637	-12,52
809,858	-14,01
810,079	-14,6
810,3	-13,03
810,52	-14,58
810,741	-15,14
810,962	-15,42
811,183	-15,67
811,403	-14,81
811,624	-14,84
811,845	-13,96
812,065	-12,62
812,286	-11,27
812,506	-10,81
812,727	-10,03
812,948	-9,76
813,168	-8,41
813,389	-7,91
813,609	-6,59
813,83	-6,52
814,05	-6,46
814,27	-6,8
814,491	-4,08
814,711	-5,28
814,931	-7,8
815,152	-8,28
815,372	-9,27
815,592	-10,69
815,813	-11,85
816,033	-13,35
816,253	-11,75
816,473	-13,57
816,694	-13,01
816,914	-12,51
817,134	-13,38
817,354	-13,76
817,574	-13,56
817,794	-14,59
818,014	-16,24
818,234	-17,61
818,454	-18,52
818,674	-19,49
818,894	-21,42
819,114	-19,28
819,334	-20,58
819,554	-20,03
819,774	-18,32
819,994	-21,01
820,214	-22,09
820,433	-21,96
820,653	-21,84
820,873	-20,91
821,093	-21,3
821,312	-22,85
821,532	-20,18
821,752	-18,22
821,972	-18,85
822,191	-18,3
822,411	-18,54
822,63	-17,13
822,85	-17,18
823,07	-20,04
823,289	-18,57
823,509	-20,57
823,728	-19,08
823,948	-20,19
824,167	-20,5
824,387	-20,78
824,606	-19,35
824,825	-19,29
825,045	-19,7
825,264	-20,86
825,483	-19,49
825,703	-17,39
825,922	-20,78
826,141	-19,85
826,361	-20,39
826,58	-23,71
826,799	-24,28
827,018	-23,5
827,237	-24
827,456	-22,91
827,676	-23,11
827,895	-22,86
828,114	-21,18
828,333	-21,74
828,552	-22,29
828,771	-21,68
828,99	-24,2
829,209	-24,07
829,428	-23,46
829,647	-22,52
829,866	-21
830,084	-21,7
830,303	-20,89
830,522	-22,44
830,741	-21,61
830,96	-21,06
831,179	-21,14
831,397	-22,72
831,616	-22,69
831,835	-21,16
832,053	-19,11
832,272	-19,19
832,491	-18,38
832,709	-18,45
832,928	-18,85
833,147	-18,31
833,365	-17,42
833,584	-14,86
833,802	-12,87
834,021	-12,18
834,239	-12,63
834,458	-14,21
834,676	-16,73
834,894	-18,51
835,113	-18,93
835,331	-18,94
835,55	-20,47
835,768	-19,06
835,986	-17,88
836,204	-17,73
836,423	-18,23
836,641	-19,57
836,859	-20,8
837,077	-20,78
837,296	-20,52
837,514	-21,45
837,732	-22,05
837,95	-22,21
838,168	-20,07
838,386	-20,39
838,604	-18,88
838,822	-19,33
839,04	-21,68
839,258	-21,98
839,476	-19,5
839,694	-19,07
839,912	-20,55
840,13	-20,83
840,348	-19,28
840,566	-22,61
840,783	-21,13
841,001	-22,57
841,219	-21,36
841,437	-20,23
841,655	-19,19
841,872	-18,69
842,09	-18,28
842,308	-16,4
842,525	-16,95
842,743	-17,03
842,961	-18,39
843,178	-19,67
843,396	-15,87
843,613	-13,8
843,831	-12,66
844,048	-12,05
844,266	-11,97
844,483	-12,97
844,701	-13,48
844,918	-13,95
845,136	-14,44
845,353	-16,99
845,57	-15,81
845,788	-12,67
846,005	-14,75
846,222	-16,75
846,439	-15,78
846,657	-14,34
846,874	-14,53
847,091	-16,52
847,308	-14,79
847,526	-15,49
847,743	-15,24
847,96	-16,17
848,177	-16,77
848,394	-17,76
848,611	-17,36
848,828	-18,54
849,045	-19,53
849,262	-19,12
849,479	-19,41
849,696	-20,89
849,913	-22,55
850,13	-26,33
850,347	-24,02
850,564	-24,91
850,78	-26,94
850,997	-28,74
851,214	-26,87
851,431	-26,81
851,647	-28,78
851,864	-27,69
852,081	-26,4
852,298	-28,85
852,514	-29,24
852,731	-28,41
852,948	-26,55
853,164	-26,65
853,381	-26,48
853,597	-25,72
853,814	-27,81
854,03	-30,29
854,247	-29,85
854,463	-29,54
854,68	-29,56
854,896	-28,62
855,113	-27,59
855,329	-27,98
855,545	-25,25
855,762	-25,39
855,978	-26,83
856,194	-28,01
856,411	-24,53
856,627	-21,99
856,843	-22,1
857,059	-21,39
857,275	-21,48
857,492	-19,61
857,708	-16,13
857,924	-15,62
858,14	-12,99
858,356	-12,9
858,572	-12,56
858,788	-13,33
859,004	-11,5
859,22	-13,9
859,436	-13,22
859,652	-14,08
859,868	-15,39
860,084	-16,32
860,3	-16,87
860,516	-17,03
860,731	-16,1
860,947	-18,64
861,163	-17,82
861,379	-17,33
861,595	-15,47
861,81	-14,38
862,026	-13,15
862,242	-14,5
862,457	-13,81
862,673	-14,34
862,889	-15,25
863,104	-15,98
863,32	-15,4
863,535	-13,59
863,751	-16,9
863,966	-15,56
864,182	-15,92
864,397	-16,33
864,613	-17,73
864,828	-19,18
865,044	-17,54
865,259	-16,07
865,474	-17,92
865,69	-17,55
865,905	-16,01
866,12	-18,37
866,336	-18,59
866,551	-17,71
866,766	-18,08
866,981	-18,34
867,196	-17,63
867,412	-17,2
867,627	-16,45
867,842	-17,05
868,057	-17,85
868,272	-18,78
868,487	-21,59
868,702	-24,39
868,917	-25,04
869,132	-24,77
869,347	-23,05
869,562	-23,59
869,777	-24,85
869,992	-25,14
870,207	-26,7
870,422	-26,77
870,636	-27,63
870,851	-28,24
871,066	-30,18
871,281	-30,43
871,495	-31,59
871,71	-30,95
871,925	-33,27
872,14	-31,85
872,354	-33,24
872,569	-34,33
872,783	-31,71
872,998	-30,61
873,213	-30,85
873,427	-27,49
873,642	-27,72
873,856	-28,13
874,071	-28,01
874,285	-28,35
874,5	-29,15
874,714	-29,96
874,928	-31,41
875,143	-30,13
875,357	-29,75
875,571	-30,88
875,786	-31,55
876	-29,78
876,214	-27,76
876,429	-28,68
876,643	-29,85
876,857	-28,72
877,071	-28,76
877,285	-29,84
877,499	-31,68
877,714	-29,53
877,928	-27,12
878,142	-27,27
878,356	-28,94
878,57	-28,91
878,784	-28,41
878,998	-28,97
879,212	-25,65
879,426	-27,61
879,639	-27,18
879,853	-28,4
880,067	-30,85
880,281	-30,82
880,495	-28,47
880,709	-27,25
880,922	-27,37
881,136	-26,09
881,35	-23,64
881,564	-22,74
881,777	-26,05
881,991	-26,07
882,205	-23,32
882,418	-22,71
882,632	-24,75
882,845	-25,43
883,059	-24,29
883,273	-24,02
883,486	-24,28
883,7	-21,49
883,913	-21,81
884,126	-20,96
884,34	-23,93
884,553	-26,09
884,767	-23,8
884,98	-24,07
885,193	-25,06
885,407	-26,35
885,62	-24,33
885,833	-25,52
886,046	-23,17
886,26	-25,39
886,473	-24,97
886,686	-25,08
886,899	-23,38
887,112	-25,46
887,326	-27,61
887,539	-26,42
887,752	-26,04
887,965	-28,14
888,178	-27
888,391	-24,61
888,604	-23,46
888,817	-25,13
889,03	-23,75
889,243	-24,67
889,455	-25,69
889,668	-25,15
889,881	-23,56
890,094	-23,62
890,307	-25,98
890,52	-25,06
890,732	-23,79
890,945	-23,89
891,158	-23,46
891,37	-24,59
891,583	-23,66
891,796	-20,87
892,008	-20,95
892,221	-22,59
892,434	-25,19
892,646	-26,3
892,859	-25,87
893,071	-24,41
893,284	-22,69
893,496	-23,51
893,709	-22,94
893,921	-21,07
894,133	-20,98
894,346	-21,76
894,558	-21,76
894,771	-22,36
894,983	-20,12
895,195	-19,67
895,407	-18,74
895,62	-20,93
895,832	-20,29
896,044	-18,45
896,256	-19,52
896,468	-20,23
896,681	-18,8
896,893	-18,17
897,105	-17,46
897,317	-18,11
897,529	-15,4
897,741	-15,57
897,953	-14,51
898,165	-16,4
898,377	-18,75
898,589	-17,59
898,801	-17,8
899,013	-15,83
899,224	-14,46
899,436	-13,39
899,648	-14,42
899,86	-16,25
900,072	-15,63
900,283	-13,32
900,495	-12,97
900,707	-12,37
900,919	-14,8
901,13	-13,22
901,342	-14,98
901,554	-15,59
901,765	-14,44
901,977	-17,04
902,188	-18,35
902,4	-19,51
902,611	-20,81
902,823	-22,15
903,034	-24,92
903,246	-26,24
903,457	-26,83
903,669	-27,58
903,88	-28,32
904,091	-29,45
904,303	-28,29
904,514	-28,96
904,725	-27,1
904,936	-24,94
905,148	-24,52
905,359	-23,03
905,57	-23,04
905,781	-25,11
905,992	-26,23
906,204	-26,04
906,415	-25,83
906,626	-27,53
906,837	-27,89
907,048	-28,41
907,259	-30,37
907,47	-29,8
907,681	-31,2
907,892	-28,14
908,103	-28,53
908,314	-31,05
908,525	-28,57
908,735	-27,37
908,946	-27,25
909,157	-28,35
909,368	-25,95
909,579	-23,55
909,789	-25,79
910	-26,78
910,211	-26,47
910,421	-25,74
910,632	-25,46
910,843	-26,93
911,053	-25,06
911,264	-22,86
911,475	-24,79
911,685	-25,7
911,896	-25,17
912,106	-24,33
912,317	-25,99
912,527	-24,67
912,737	-25,82
912,948	-25,01
913,158	-24,61
913,369	-26,92
913,579	-26,08
913,789	-25,79
914	-22,39
914,21	-22,81
914,42	-24,39
914,63	-25,99
914,841	-25,31
915,051	-24,79
915,261	-24,35
915,471	-21,59
915,681	-18,89
915,891	-18,91
916,101	-20,39
916,311	-18,61
916,521	-18
916,731	-17,22
916,941	-15,97
917,151	-16,56
917,361	-15,18
917,571	-18,58
917,781	-21,88
917,991	-23,54
918,201	-23,2
918,411	-25,4
918,621	-26,65
918,83	-24,28
919,04	-25,13
919,25	-22,55
919,46	-22,2
919,669	-23,14
919,879	-23,24
920,089	-24,46
920,298	-24,66
920,508	-25,62
920,717	-25,36
920,927	-26,26
921,136	-24,84
921,346	-25,88
921,555	-27,92
921,765	-28,23
921,974	-30,37
922,184	-32,57
922,393	-33,45
922,603	-31,89
922,812	-30,72
923,021	-31,77
923,23	-31,86
923,44	-34
923,649	-34,03
923,858	-35,16
924,067	-34,77
924,277	-34,77
924,486	-31,39
924,695	-31,99
924,904	-30,27
925,113	-29,88
925,322	-29,71
925,531	-28,5
925,74	-29,96
925,949	-30,83
926,158	-29,18
926,367	-28,73
926,576	-27,95
926,785	-27,54
926,994	-28,88
927,203	-27,26
927,412	-27,52
927,621	-27,58
927,83	-25,65
928,038	-26,01
928,247	-25,41
928,456	-25,57
928,665	-25,7
928,873	-25,15
929,082	-25,17
929,291	-25,15
929,499	-23,39
929,708	-24,92
929,916	-24,78
930,125	-25,54
930,333	-24,85
930,542	-23,17
930,75	-21,24
930,959	-21,82
931,167	-21,16
931,376	-21,95
931,584	-21
931,793	-20,98
932,001	-23,07
932,209	-24,03
932,418	-25,31
932,626	-26,64
932,834	-27,29
933,042	-29,01
933,251	-30,29
933,459	-30,46
933,667	-30,7
933,875	-29,88
934,083	-29,5
934,291	-29,66
934,499	-29,04
934,707	-30,34
934,915	-30,31
935,123	-28,19
935,331	-28,12
935,539	-29,64
935,747	-31,42
935,955	-31,41
936,163	-30,81
936,371	-29,41
936,579	-26,68
936,787	-27,15
936,995	-28,56
937,202	-31,23
937,41	-31,08
937,618	-31,5
937,826	-31,68
938,033	-34,52
938,241	-36,62
938,449	-34,14
938,656	-32,95
938,864	-32,24
939,071	-31,23
939,279	-28,98
939,486	-28,1
939,694	-27,27
939,901	-28,48
940,109	-28,93
940,316	-29,07
940,524	-29,33
940,731	-29,41
940,939	-26,74
941,146	-27,12
941,353	-27,12
941,561	-27,95
941,768	-28,75
941,975	-27,49
942,182	-26,99
942,39	-27,17
942,597	-25,72
942,804	-26,54
943,011	-27,61
943,218	-26,61
943,425	-26,48
943,632	-24,46
943,839	-25,91
944,046	-27,76
944,253	-27,3
944,46	-26,81
944,667	-22,96
944,874	-23,56
945,081	-21,95
945,288	-21,13
945,495	-20,4
945,702	-21
945,909	-21,92
946,115	-22,04
946,322	-22,08
946,529	-23,53
946,736	-23,2
946,942	-23,05
947,149	-24
947,356	-26,9
947,562	-26,52
947,769	-26,75
947,976	-27,68
948,182	-26,76
948,389	-27,89
948,595	-27,72
948,802	-27,23
949,008	-27,75
949,215	-26,99
949,421	-28,36
949,628	-29,44
949,834	-28,91
950,04	-29,9
950,247	-27,71
950,453	-25,61
950,659	-27,34
950,865	-25,84
951,072	-29,7
951,278	-28,64
951,484	-30,81
951,69	-33,62
951,896	-34,94
952,103	-35,24
952,309	-33,81
952,515	-33,81
952,721	-32,27
952,927	-30,17
953,133	-30,09
953,339	-30,57
953,545	-30,76
953,751	-28,65
953,957	-27,24
954,163	-28,44
954,369	-28,14
954,574	-29,68
954,78	-28,63
954,986	-27,96
955,192	-26,08
955,398	-27,66
955,603	-29,39
955,809	-27,56
956,015	-27,7
956,22	-27,46
956,426	-26,64
956,632	-27,95
956,837	-27,88
957,043	-25,45
957,248	-25,15
957,454	-24,95
957,66	-27,2
957,865	-26,96
958,07	-25,79
958,276	-25,51
958,481	-26,27
958,687	-27,41
958,892	-25,87
959,097	-26,06
959,303	-26,12
959,508	-27,17
959,713	-27,71
959,919	-27,06
960,124	-29,27
960,329	-28,99
960,534	-27,42
960,739	-26,11
960,945	-23,41
961,15	-24,2
961,355	-25,03
961,56	-28,13
961,765	-27,61
961,97	-27,61
962,175	-25,53
962,38	-27,46
962,585	-26,42
962,79	-26,72
962,995	-27,9
963,2	-28,52
963,404	-30,09
963,609	-32,09
963,814	-31,33
964,019	-32,97
964,224	-35,11
964,428	-32,7
964,633	-31,45
964,838	-30,21
965,042	-30
965,247	-31,85
965,452	-31,57
965,656	-32,03
965,861	-32,25
966,066	-31,95
966,27	-31,21
966,475	-27,87
966,679	-30,61
966,884	-28,81
967,088	-30,51
967,292	-31,75
967,497	-30,51
967,701	-30,51
967,906	-29,32
968,11	-27,37
968,314	-23,04
968,518	-25,82
968,723	-24,17
968,927	-24,55
969,131	-24,1
969,335	-22,31
969,539	-22,25
969,744	-21,15
969,948	-18,39
970,152	-17,76
970,356	-15,46
970,56	-13,84
970,764	-15,48
970,968	-14,08
971,172	-13,76
971,376	-13,77
971,58	-13,04
971,784	-12,52
971,988	-12,96
972,192	-11,22
972,395	-11,66
972,599	-13,33
972,803	-13,86
973,007	-12,99
973,21	-13,92
973,414	-14,07
973,618	-13,77
973,822	-14,95
974,025	-15,33
974,229	-16,18
974,432	-19,33
974,636	-21,82
974,84	-19,87
975,043	-20,7
975,247	-22,04
975,45	-23,28
975,654	-22,13
975,857	-21,27
976,06	-22,37
976,264	-24,43
976,467	-22,53
976,671	-24,42
976,874	-22,67
977,077	-23,92
977,28	-25,06
977,484	-27,51
977,687	-26,35
977,89	-24,34
978,093	-24,33
978,297	-22,93
978,5	-23,8
978,703	-22,61
978,906	-22,27
979,109	-23,04
979,312	-20,95
979,515	-21,48
979,718	-21,04
979,921	-21,16
980,124	-22,2
980,327	-21,53
980,53	-21,67
980,733	-19,67
980,936	-18,35
981,138	-20,8
981,341	-19,11
981,544	-19,08
981,747	-20,32
981,949	-22,82
982,152	-22,45
982,355	-22,17
982,558	-20,01
982,76	-24,13
982,963	-23,86
983,165	-25,95
983,368	-23,8
983,571	-25,17
983,773	-22,43
983,976	-22,53
984,178	-22,43
984,381	-23,7
984,583	-26,2
984,785	-25,72
984,988	-23,42
985,19	-22,01
985,392	-23,42
985,595	-26,23
985,797	-24,58
985,999	-23,39
986,202	-21,08
986,404	-21,44
986,606	-19,02
986,808	-19,58
987,01	-19,92
987,212	-20,72
987,415	-21,58
987,617	-21,32
987,819	-20,07
988,021	-19,8
988,223	-21,18
988,425	-22,53
988,627	-22,46
988,829	-25,15
989,031	-22,78
989,232	-22,95
989,434	-21,29
989,636	-22,48
989,838	-22,5
990,04	-22,48
990,242	-23,24
990,443	-25,19
990,645	-23,38
990,847	-20,91
991,048	-20,67
991,25	-23,67
991,452	-24,49
991,653	-24,36
991,855	-23,47
992,057	-24,57
992,258	-23,76
992,46	-26,12
992,661	-24,32
992,863	-25,08
993,064	-23,33
993,265	-23,38
993,467	-25,29
993,668	-23,04
993,87	-23,34
994,071	-24,72
994,272	-22,69
994,473	-20,38
994,675	-19,35
994,876	-19,14
995,077	-18,35
995,278	-17,76
995,48	-17,04
995,681	-17,71
995,882	-16,99
996,083	-16,94
996,284	-20,18
996,485	-20,19
996,686	-21,36
996,887	-22,73
997,088	-25,92
997,289	-27,64
997,49	-27,03
997,691	-26,12
997,892	-26,93
998,092	-25,11
998,293	-25,53
998,494	-26,06
998,695	-25,41
998,896	-24,61
999,096	-25,39
999,297	-25,92
999,498	-26,66
999,698	-27,41
999,899	-28,65
1000,1	-30,37
1000,3	-30,09
1000,501	-31,23
1000,701	-31,49
1000,902	-31,57
1001,102	-30,42
1001,303	-29,18
1001,503	-30,57
1001,704	-30,28
1001,904	-30,77
1002,105	-30,71
1002,305	-29,4
1002,505	-29,73
1002,706	-30,5
1002,906	-31,05
1003,106	-31,19
1003,306	-29,44
1003,507	-27,68
1003,707	-27,72
1003,907	-27,36
1004,107	-25,34
1004,307	-26,32
1004,507	-25,77
1004,707	-26,21
1004,907	-27,82
1005,107	-27,95
1005,308	-28,02
1005,507	-29,57
1005,707	-27,08
1005,907	-27,46
1006,107	-25,31
1006,307	-24,11
1006,507	-24,75
1006,707	-23,62
1006,907	-23,03
1007,106	-24,28
1007,306	-24,88
1007,506	-25,28
1007,706	-25,3
1007,905	-26,49
1008,105	-26,58
1008,305	-27,46
1008,504	-27,25
1008,704	-23,43
1008,903	-22,79
1009,103	-19,87
1009,303	-21,02
1009,502	-21,93
1009,702	-22,15
1009,901	-21,92
1010,1	-22,5
1010,3	-21,21
1010,499	-21,44
1010,699	-22,53
1010,898	-24,68
1011,097	-24,63
1011,296	-24,77
1011,496	-25,44
1011,695	-24,61
1011,894	-26,59
1012,093	-22,51
1012,293	-23,91
1012,492	-24,46
1012,691	-23,67
1012,89	-24,33
1013,089	-26,51
1013,288	-24,35
1013,487	-23,98
1013,686	-24,49
1013,885	-24,59
1014,084	-22,86
1014,283	-22,68
1014,482	-22,96
1014,681	-23,74
1014,88	-27,03
1015,078	-26,46
1015,277	-28,52
1015,476	-29,48
1015,675	-28,87
1015,873	-28,58
1016,072	-30,47
1016,271	-29,26
1016,47	-32,93
1016,668	-32,64
1016,867	-32,98
1017,065	-32,63
1017,264	-31,77
1017,463	-32,27
1017,661	-32,46
1017,86	-31,98
1018,058	-30,39
1018,256	-32,68
1018,455	-33
1018,653	-31,67
1018,852	-31,06
1019,05	-33,71
1019,248	-33,13
1019,447	-35,37
1019,645	-36,13
1019,843	-36,22
1020,041	-36,71
1020,24	-38,46
1020,438	-36,06
1020,636	-35,39
1020,834	-38,55
1021,032	-36,06
1021,23	-36,48
1021,428	-35,45
1021,626	-31,32
1021,824	-30,51
1022,022	-31,41
1022,22	-28,78
1022,418	-27,71
1022,616	-28,18
1022,814	-27,69
1023,012	-27,66
1023,21	-26,32
1023,408	-28,04
1023,606	-29,06
1023,803	-24,49
1024,001	-25,56
1024,199	-28,13
1024,397	-27,12
1024,594	-27,92
1024,792	-29,05
1024,99	-27,96
1025,187	-25,99
1025,385	-22,35
1025,582	-20,65
1025,78	-20,61
1025,977	-19,58
1026,175	-19,41
1026,372	-18,6
1026,57	-19,12
1026,767	-18,02
1026,965	-14,97
1027,162	-14,25
1027,359	-13,63
1027,557	-12,32
1027,754	-14,94
1027,951	-17,26
1028,148	-15,7
1028,346	-17,79
1028,543	-20,56
1028,74	-19,03
1028,937	-21,01
1029,134	-21,25
1029,331	-22,08
1029,528	-19,88
1029,725	-19,52
1029,923	-23,1
1030,12	-20,04
1030,317	-19,49
1030,513	-19,34
1030,71	-17,92
1030,907	-17,08
1031,104	-18,58
1031,301	-19,85
1031,498	-20,78
1031,695	-20,97
1031,892	-21,42
1032,088	-22,86
1032,285	-23,45
1032,482	-24,52
1032,678	-27,87
1032,875	-29,25
1033,072	-28,67
1033,268	-29,71
1033,465	-30,98
1033,662	-33,11
1033,858	-32,85
1034,055	-31,16
1034,251	-29,88
1034,448	-29,91
1034,644	-30,21
1034,84	-29,43
1035,037	-27,84
1035,233	-27,84
1035,43	-26,93
1035,626	-29,3
1035,822	-29,28
1036,019	-29,53
1036,215	-33,09
1036,411	-33,71
1036,607	-34,6
1036,803	-35,72
1037	-34,96
1037,196	-35,51
1037,392	-35,03
1037,588	-37,45
1037,784	-38,15
1037,98	-38,85
1038,176	-38,47
1038,372	-37,96
1038,568	-35,62
1038,764	-34,25
1038,96	-32,19
1039,156	-34,75
1039,352	-36,34
1039,547	-34,89
1039,743	-34,38
1039,939	-32,9
1040,135	-33,55
1040,331	-35,68
1040,526	-34,35
1040,722	-34,38
1040,918	-35,72
1041,113	-38,95
1041,309	-38,68
1041,505	-39,77
1041,7	-38,52
1041,896	-38,62
1042,091	-39,83
1042,287	-38,87
1042,482	-37,89
1042,678	-38,25
1042,873	-38,13
1043,069	-39,74
1043,264	-39,83
1043,459	-38,86
1043,655	-38,06
1043,85	-38,11
1044,045	-36,63
1044,24	-36,92
1044,436	-36,3
1044,631	-38,29
1044,826	-38,42
1045,021	-42,08
1045,216	-40,53
