Data from FLMT021711__9__16-30-20-232.txt Node

Date: Tue Nov 05 16:30:20 CET 2024
User: Etudiants TP
Spectrometer: FLMT02171
Trigger mode: 0
Integration Time (sec): 1,000000E-1
Scans to average: 5
Electric dark correction enabled: true
Nonlinearity correction enabled: false
Boxcar width: 15
XAxis mode: Wavelengths
Number of Pixels in Spectrum: 3648
>>>>>Begin Spectral Data<<<<<
194,658	-55,32
194,923	-53,47
195,188	-47,64
195,453	-47,43
195,717	-44,05
195,982	-44,14
196,247	-43
196,512	-45,03
196,777	-43,89
197,042	-42,09
197,307	-42,67
197,572	-39,1
197,837	-39,06
198,101	-37,43
198,366	-34,68
198,631	-33,1
198,896	-27,77
199,161	-21,48
199,425	-14,94
199,69	-8,35
199,955	-9,09
200,22	-11,83
200,484	-12,11
200,749	-12,17
201,014	-12,31
201,278	-11,53
201,543	-11,97
201,807	-14,34
202,072	-12,54
202,337	-14,32
202,601	-13,77
202,866	-14,79
203,13	-13,52
203,395	-15,78
203,659	-14,6
203,924	-14,77
204,189	-13,03
204,453	-12,98
204,717	-10,96
204,982	-10,03
205,246	-9,34
205,511	-7,31
205,775	-8,06
206,04	-3,83
206,304	-1,98
206,568	-1,67
206,833	-1,66
207,097	-0,82
207,361	0,45
207,626	3,01
207,89	3,44
208,154	4,43
208,419	5,8
208,683	5,52
208,947	6,25
209,211	6,24
209,476	5,02
209,74	5,42
210,004	6,45
210,268	6,38
210,532	8,75
210,796	8,64
211,061	8,97
211,325	9,13
211,589	8,83
211,853	6,65
212,117	5,92
212,381	5,81
212,645	6,23
212,909	6,11
213,173	5,09
213,437	5,39
213,701	5,21
213,965	5,37
214,229	0,9
214,493	-0,78
214,757	-1,52
215,021	-2,72
215,285	0,57
215,549	1,75
215,813	0,62
216,077	0,01
216,34	2,08
216,604	1,46
216,868	3,1
217,132	3,96
217,396	3,73
217,659	4,54
217,923	1,81
218,187	2,24
218,451	2,37
218,714	1,03
218,978	1,7
219,242	3,31
219,505	3,3
219,769	4,25
220,033	6,35
220,296	7,43
220,56	8,19
220,824	6,48
221,087	7,14
221,351	6,83
221,614	4,7
221,878	7,34
222,142	6,08
222,405	6,23
222,669	8,3
222,932	6,09
223,196	6,56
223,459	3,9
223,722	4,42
223,986	4,31
224,249	3,92
224,513	2,67
224,776	4,23
225,04	5,16
225,303	4,36
225,566	3,48
225,83	4,86
226,093	6,6
226,356	5,39
226,62	3,46
226,883	4,96
227,146	5,26
227,409	4,43
227,673	2,99
227,936	2,07
228,199	2,6
228,462	1,08
228,725	0,11
228,989	-0,84
229,252	-0,12
229,515	3,27
229,778	4,09
230,041	1,77
230,304	0,45
230,567	2,44
230,83	-1,11
231,093	-0,38
231,356	-1,21
231,619	2,72
231,882	2,66
232,145	3,23
232,408	2,25
232,671	1,56
232,934	-0,15
233,197	-1,78
233,46	-2,73
233,723	-1,35
233,986	-2,35
234,249	-3,71
234,512	-2,24
234,775	-0,02
235,037	-0,6
235,3	-2,06
235,563	-2,46
235,826	-3,1
236,089	-1,95
236,351	-2,73
236,614	-1,38
236,877	-1,11
237,14	1,08
237,402	1,63
237,665	-3,02
237,928	-2,65
238,19	-4,99
238,453	-2,99
238,716	-3,85
238,978	-3,09
239,241	-3,06
239,503	-2,69
239,766	-4,68
240,029	-7,2
240,291	-6,2
240,554	-5,02
240,816	-3,69
241,079	-3,09
241,341	-3,59
241,604	-3,44
241,866	-6,19
242,129	-5,33
242,391	-3,57
242,653	-4,16
242,916	-4,08
243,178	-4,79
243,441	-3,85
243,703	-4,34
243,965	-4,08
244,228	-2,97
244,49	-3,18
244,752	-1,98
245,015	-1,06
245,277	0,7
245,539	-0,74
245,801	0,44
246,064	-0,57
246,326	0,41
246,588	0,73
246,85	2,12
247,112	2,88
247,374	4,44
247,637	7,2
247,899	6,14
248,161	6,76
248,423	4,28
248,685	3,8
248,947	2,16
249,209	2,15
249,471	1,69
249,733	2,12
249,995	2,32
250,257	1,89
250,519	0,22
250,781	2,94
251,043	-0,32
251,305	0,89
251,567	2,72
251,829	3,47
252,091	3,2
252,353	-0,24
252,615	0,98
252,876	-1,42
253,138	-4,13
253,4	-5,96
253,662	-4,99
253,924	-3,76
254,185	-2,75
254,447	-2,92
254,709	-2,74
254,971	-3,15
255,232	-0,35
255,494	-2,24
255,756	-3,99
256,017	-4,17
256,279	-3,27
256,541	-4,08
256,802	-4,26
257,064	-3,94
257,326	-3,96
257,587	-3,49
257,849	-2,78
258,11	-0,47
258,372	-0,24
258,633	1,27
258,895	-0,49
259,156	0,81
259,418	0,28
259,679	-3,47
259,941	-5,37
260,202	-3,35
260,464	-1,17
260,725	-2,22
260,987	-2,72
261,248	-3,41
261,509	-3,34
261,771	-5,82
262,032	-3,71
262,293	-3,61
262,555	-3,27
262,816	-5,07
263,077	-6,06
263,338	-9,59
263,6	-8,51
263,861	-7,92
264,122	-7,88
264,383	-7,89
264,645	-6,46
264,906	-7,04
265,167	-6,8
265,428	-6,93
265,689	-5,88
265,95	-7,83
266,211	-7
266,473	-7,41
266,734	-9,29
266,995	-10,79
267,256	-9,42
267,517	-9,27
267,778	-7,49
268,039	-5,88
268,3	-7,02
268,561	-9,25
268,822	-7,39
269,083	-8,43
269,344	-9,38
269,604	-9,37
269,865	-7,95
270,126	-12,13
270,387	-11,32
270,648	-10,36
270,909	-10,4
271,17	-10,8
271,43	-12,81
271,691	-15,12
271,952	-15,92
272,213	-15,2
272,473	-15,84
272,734	-14,6
272,995	-14,1
273,256	-12,33
273,516	-11,45
273,777	-13,24
274,038	-10,5
274,298	-12,97
274,559	-12,85
274,82	-8,87
275,08	-8,05
275,341	-7,09
275,601	-7,02
275,862	-8,94
276,122	-9,5
276,383	-9,46
276,643	-7,02
276,904	-8,12
277,164	-4,73
277,425	-2,52
277,685	1,06
277,946	1,38
278,206	3,36
278,467	3,23
278,727	2,15
278,987	1,08
279,248	1,39
279,508	4,13
279,768	5,47
280,029	5,42
280,289	2,85
280,549	2,23
280,81	1,56
281,07	0,47
281,33	0,46
281,59	0,15
281,851	2,94
282,111	2,29
282,371	2,47
282,631	2,77
282,891	0,21
283,151	-0,85
283,412	-3,49
283,672	-3,68
283,932	-2,13
284,192	-1,24
284,452	-1,85
284,712	-3,81
284,972	-5,25
285,232	-7,79
285,492	-6,37
285,752	-10,22
286,012	-5,14
286,272	-3,24
286,532	-4,17
286,792	-2,87
287,052	-1,44
287,312	-1,53
287,571	-2,96
287,831	-2,07
288,091	-3,1
288,351	-1,41
288,611	2,07
288,871	1,32
289,13	2,53
289,39	-0,99
289,65	-1,32
289,91	-4,64
290,17	-2,48
290,429	-1,12
290,689	-2,74
290,949	-3,74
291,208	-2,61
291,468	0,22
291,728	2,09
291,987	3,71
292,247	2,28
292,506	3,62
292,766	4,88
293,026	4,73
293,285	7
293,545	9,24
293,804	10,11
294,064	6,49
294,323	3,72
294,583	4,18
294,842	3,31
295,102	5,08
295,361	5,04
295,621	4,4
295,88	4,74
296,139	4,3
296,399	4,19
296,658	-0,23
296,917	-0,21
297,177	-2,98
297,436	-1,02
297,695	-1,53
297,955	1,32
298,214	-1,77
298,473	-1,01
298,732	1,64
298,992	3,44
299,251	3,68
299,51	-0,54
299,769	-0,93
300,028	-0,87
300,287	-0,83
300,547	-0,82
300,806	-1,94
301,065	-0,42
301,324	0,03
301,583	-3,21
301,842	-5,36
302,101	-7,51
302,36	-7,06
302,619	-8,57
302,878	-6,94
303,137	-9,09
303,396	-8,49
303,655	-5,9
303,914	-8,21
304,173	-7,41
304,432	-8,05
304,691	-5,81
304,95	-6,66
305,208	-2,75
305,467	-2,46
305,726	-2,13
305,985	-2,46
306,244	-1,03
306,503	-1,64
306,761	-3,75
307,02	-6,61
307,279	-5,76
307,537	-4,02
307,796	-5,99
308,055	-7,81
308,314	-6,42
308,572	-8,14
308,831	-6,32
309,09	-5,25
309,348	-5,08
309,607	-5,13
309,865	-3,28
310,124	-2,59
310,382	-2,12
310,641	-0,86
310,9	-3,7
311,158	-3,07
311,417	-2,57
311,675	-2,91
311,933	-2,37
312,192	-1,97
312,45	-1,64
312,709	-1,45
312,967	-2,35
313,226	-3,34
313,484	-4,17
313,742	-5,32
314,001	-5,54
314,259	-6,42
314,517	-5,88
314,776	-4,46
315,034	-1,85
315,292	-3,99
315,55	-4,81
315,809	-6,49
316,067	-6,35
316,325	-8,55
316,583	-7,41
316,841	-9,36
317,1	-11,43
317,358	-14,41
317,616	-14,34
317,874	-14,26
318,132	-14,27
318,39	-14,83
318,648	-14,51
318,906	-13,43
319,164	-13,59
319,422	-14,24
319,68	-15,58
319,938	-15,59
320,196	-15,12
320,454	-14,83
320,712	-14,66
320,97	-13,58
321,228	-14,01
321,486	-12,35
321,744	-12,49
322,002	-11,56
322,26	-12,33
322,517	-12,66
322,775	-14,74
323,033	-16,1
323,291	-13,91
323,549	-11,8
323,806	-10,2
324,064	-9,28
324,322	-8,12
324,58	-8,98
324,837	-6,91
325,095	-7,78
325,353	-6,67
325,61	-4,8
325,868	-5,47
326,126	-4,44
326,383	-4,53
326,641	-5,97
326,898	-5,26
327,156	-5,56
327,413	-4,95
327,671	-3,99
327,928	-1,78
328,186	-2,74
328,443	-2,99
328,701	-1,12
328,958	-0,56
329,216	-1
329,473	-3,23
329,731	-2,18
329,988	-3,5
330,245	-0,9
330,503	0,37
330,76	0,14
331,017	1,5
331,275	-1,24
331,532	-3
331,789	-4,08
332,047	-4,43
332,304	-5,4
332,561	-5,86
332,818	-7,29
333,076	-5,56
333,333	-4,39
333,59	-5,85
333,847	-4,33
334,104	-5,36
334,361	-6,6
334,618	-6,79
334,876	-8,14
335,133	-7,53
335,39	-8,9
335,647	-8,38
335,904	-10,83
336,161	-11,57
336,418	-10,99
336,675	-13,37
336,932	-12,26
337,189	-11,35
337,446	-10,21
337,703	-9,45
337,96	-11,35
338,216	-12,71
338,473	-15,87
338,73	-13,89
338,987	-13,8
339,244	-11,02
339,501	-12,09
339,757	-10,91
340,014	-10,18
340,271	-8,8
340,528	-7,03
340,785	-4,2
341,041	-5,31
341,298	-6,88
341,555	-6,92
341,811	-6,74
342,068	-8,47
342,325	-7,66
342,581	-6,5
342,838	-4,63
343,094	-5,66
343,351	-5,67
343,608	-7,21
343,864	-6,11
344,121	-6,45
344,377	-7,3
344,634	-8,43
344,89	-9,84
345,147	-10,12
345,403	-10,87
345,66	-12,2
345,916	-9,55
346,172	-10,82
346,429	-10,4
346,685	-12,08
346,942	-11,75
347,198	-14,9
347,454	-12,03
347,711	-12,39
347,967	-16,06
348,223	-16,7
348,48	-17,81
348,736	-15,39
348,992	-14,49
349,248	-13,07
349,504	-13,25
349,761	-13,94
350,017	-12,46
350,273	-13,22
350,529	-13,78
350,785	-15,03
351,041	-15,75
351,297	-15,01
351,554	-15,65
351,81	-17,28
352,066	-17,04
352,322	-16,93
352,578	-16,83
352,834	-17,1
353,09	-18,12
353,346	-17,68
353,602	-18,37
353,858	-19,92
354,114	-19,55
354,369	-18,47
354,625	-17,17
354,881	-18,63
355,137	-16,05
355,393	-16,92
355,649	-15,31
355,905	-13,69
356,16	-12,51
356,416	-11,48
356,672	-16,51
356,928	-16,04
357,183	-15,82
357,439	-15,75
357,695	-17,28
357,951	-14,8
358,206	-14,07
358,462	-13,56
358,718	-15,03
358,973	-13,4
359,229	-13,34
359,484	-12,45
359,74	-8,77
359,996	-7,86
360,251	-5,3
360,507	-5,56
360,762	-4,99
361,018	-1,78
361,273	-2,52
361,529	-0,83
361,784	0,17
362,04	1,4
362,295	0,58
362,55	0,35
362,806	1,98
363,061	2,21
363,316	2,59
363,572	1,07
363,827	3,01
364,082	1,15
364,338	0,8
364,593	-0,12
364,848	0,77
365,104	-1,21
365,359	1,6
365,614	2,01
365,869	-0,35
366,124	0,71
366,38	-0,55
366,635	1,29
366,89	2,35
367,145	2,72
367,4	4,92
367,655	5,03
367,91	5,56
368,165	2,88
368,42	1,63
368,675	1,66
368,93	0,91
369,185	-0,92
369,44	-1,03
369,695	-0,61
369,95	-2,07
370,205	-1,46
370,46	-2,59
370,715	-3
370,97	-1,87
371,225	-1,92
371,48	-0,78
371,734	-0,8
371,989	0,17
372,244	-0,48
372,499	1,69
372,754	-0,3
373,008	-2,09
373,263	-6,63
373,518	-4,73
373,773	-5,65
374,027	-7,2
374,282	-5,59
374,537	-4,63
374,791	-4,78
375,046	-6,15
375,301	-7,54
375,555	-9,99
375,81	-9,32
376,064	-7,67
376,319	-4,47
376,573	-5,26
376,828	-7,94
377,082	-5,04
377,337	-6,09
377,591	-7,82
377,846	-6,91
378,1	-4,86
378,355	-2,97
378,609	-4,25
378,863	-6,49
379,118	-6,44
379,372	-7,27
379,627	-9,02
379,881	-9,99
380,135	-9,59
380,389	-10,02
380,644	-8,51
380,898	-6,66
381,152	-5,43
381,407	-6,69
381,661	-4,29
381,915	-2,35
382,169	-1,67
382,423	-2,54
382,677	-3,91
382,932	-2,72
383,186	-2,82
383,44	-1,84
383,694	-0,52
383,948	-2,76
384,202	-3,9
384,456	-1,98
384,71	0,13
384,964	-0,5
385,218	-0,02
385,472	-0,69
385,726	-0,59
385,98	-1,15
386,234	-2,18
386,488	-3,08
386,742	-3,69
386,996	-5,39
387,249	-4,46
387,503	-2,33
387,757	-2,62
388,011	-0,3
388,265	0,55
388,518	0,36
388,772	1,49
389,026	3,03
389,28	3,27
389,533	1,44
389,787	2,93
390,041	0,31
390,295	-0,04
390,548	0,17
390,802	1,98
391,055	1,74
391,309	0,87
391,563	-0,56
391,816	1,08
392,07	0,14
392,323	0,88
392,577	0,05
392,83	1,32
393,084	4,71
393,337	7,42
393,591	6,62
393,844	6,9
394,098	9,41
394,351	12,63
394,604	14,68
394,858	16,38
395,111	16,32
395,364	14,03
395,618	14,5
395,871	11,65
396,124	10,62
396,378	9,84
396,631	9,21
396,884	6,68
397,137	5,55
397,391	5,87
397,644	2,41
397,897	2,98
398,15	4,5
398,403	6,48
398,657	5,04
398,91	3,84
399,163	3,81
399,416	3,5
399,669	2,09
399,922	2,23
400,175	2,27
400,428	6,37
400,681	12,34
400,934	16,35
401,187	22,5
401,44	28,73
401,693	29,53
401,946	29,92
402,199	27,23
402,452	27,41
402,704	25,48
402,957	25,73
403,21	27,61
403,463	28,33
403,716	29,19
403,969	29,9
404,221	29,11
404,474	32,14
404,727	34,83
404,98	36,94
405,232	37,67
405,485	40,15
405,738	41,38
405,99	40,67
406,243	40,76
406,496	41,67
406,748	42,1
407,001	42,45
407,253	42,13
407,506	42,35
407,759	42,72
408,011	39,42
408,264	36,25
408,516	30,57
408,769	22,14
409,021	16,12
409,274	11,23
409,526	10,24
409,778	6,81
410,031	7,96
410,283	6,84
410,536	10,39
410,788	9,14
411,04	8,27
411,293	9,77
411,545	10,22
411,797	10,08
412,049	11,4
412,302	11,19
412,554	12,37
412,806	12,19
413,058	11,8
413,311	10,3
413,563	10,76
413,815	10,59
414,067	9,08
414,319	9,05
414,571	11,02
414,823	9,46
415,075	9,81
415,328	10,93
415,58	12,71
415,832	13,77
416,084	13,73
416,336	11,59
416,588	14,54
416,84	13,3
417,091	14,58
417,343	11,66
417,595	13,63
417,847	15,32
418,099	16,56
418,351	15,62
418,603	18,18
418,855	19,73
419,106	19,73
419,358	20,95
419,61	21,05
419,862	21,99
420,114	20,06
420,365	19,37
420,617	19,64
420,869	18,99
421,12	20,17
421,372	19,26
421,624	20,06
421,875	21
422,127	19,65
422,379	18,68
422,63	20,76
422,882	19,15
423,133	20,45
423,385	21,72
423,636	22,08
423,888	23,81
424,139	26,9
424,391	25,96
424,642	26,25
424,894	26,02
425,145	27,11
425,396	25,67
425,648	26,92
425,899	25,97
426,151	26,8
426,402	25,67
426,653	25,41
426,905	25,18
427,156	23,29
427,407	23,26
427,658	23,2
427,91	21,6
428,161	20,79
428,412	21,39
428,663	21,43
428,914	20,95
429,166	24,41
429,417	24,3
429,668	22,91
429,919	20,81
430,17	21,2
430,421	21,17
430,672	25,45
430,923	24,39
431,174	26,26
431,425	35,65
431,676	49,68
431,927	66,84
432,178	89,98
432,429	113,07
432,68	131,1
432,931	147,86
433,182	160,39
433,433	163,86
433,683	169,68
433,934	171,06
434,185	171,11
434,436	172,01
434,687	172,83
434,937	174,5
435,188	173,88
435,439	172,96
435,69	174,63
435,94	174,77
436,191	175,67
436,442	176,08
436,692	177,26
436,943	174,24
437,194	172,9
437,444	174,83
437,695	178,14
437,945	179,74
438,196	179,08
438,447	177,35
438,697	176,42
438,948	172,98
439,198	162,44
439,449	144,53
439,699	125,61
439,949	104,24
440,2	81,6
440,45	63,81
440,701	48,22
440,951	38,04
441,201	33,81
441,452	29,46
441,702	27,5
441,952	27,25
442,203	26,28
442,453	25,07
442,703	24,8
442,953	26,02
443,204	26
443,454	24,33
443,704	25,01
443,954	21,44
444,204	21,34
444,455	21,18
444,705	22,25
444,955	22,44
445,205	21,54
445,455	20,33
445,705	19,51
445,955	19,08
446,205	18,01
446,455	19,83
446,705	19,75
446,955	20,78
447,205	22,04
447,455	23,09
447,705	19,62
447,955	17,35
448,205	16,88
448,454	15,95
448,704	16,62
448,954	13,89
449,204	11,81
449,454	11,04
449,704	9,03
449,953	7,46
450,203	8,81
450,453	7,38
450,703	7,72
450,952	6,84
451,202	8,21
451,452	7,21
451,701	9,7
451,951	12,75
452,201	12,85
452,45	10,9
452,7	12,8
452,949	12,17
453,199	10,99
453,448	12,2
453,698	14,23
453,947	13,86
454,197	12,92
454,446	12,2
454,696	13,47
454,945	14,48
455,195	13,29
455,444	15,83
455,693	19,93
455,943	18,76
456,192	20,27
456,442	20,03
456,691	21,31
456,94	21,65
457,189	21,43
457,439	23,24
457,688	25,6
457,937	24,65
458,186	26,13
458,436	25,37
458,685	26,39
458,934	26,34
459,183	26,96
459,432	29,23
459,681	29,44
459,93	28,73
460,179	28,84
460,429	26,08
460,678	29,58
460,927	31,69
461,176	30,94
461,425	29,07
461,674	31,7
461,923	30,66
462,172	29,67
462,42	29,06
462,669	29,64
462,918	29,2
463,167	27,47
463,416	24,64
463,665	25,35
463,914	24,58
464,162	22,61
464,411	22,68
464,66	24,24
464,909	22,38
465,158	22,91
465,406	21,43
465,655	22,22
465,904	23,08
466,152	24,1
466,401	23,77
466,65	24,31
466,898	22,24
467,147	18,55
467,395	17,94
467,644	19,68
467,893	20,61
468,141	22,03
468,39	18,22
468,638	17,85
468,887	16,23
469,135	16,75
469,384	15,63
469,632	17,24
469,88	17,79
470,129	18,31
470,377	15,95
470,626	19,4
470,874	20,93
471,122	22,36
471,371	21,74
471,619	21,14
471,867	23,33
472,115	22,53
472,364	21,64
472,612	24,03
472,86	22,94
473,108	23,47
473,356	22,86
473,605	20,36
473,853	19,05
474,101	19,63
474,349	18,47
474,597	20,8
474,845	20,21
475,093	18,8
475,341	15,78
475,589	15,5
475,837	16,78
476,085	18,07
476,333	16,22
476,581	16,27
476,829	15,88
477,077	16,49
477,325	15,7
477,573	16,59
477,821	16,46
478,069	17,79
478,317	16,64
478,564	18,77
478,812	17,06
479,06	16,25
479,308	16,15
479,555	16,87
479,803	17,87
480,051	19,14
480,299	20,49
480,546	22,01
480,794	21,23
481,042	24,32
481,289	26,16
481,537	27,82
481,784	29,27
482,032	34,44
482,28	36,68
482,527	39,47
482,775	42,78
483,022	46,97
483,27	52,18
483,517	56,23
483,765	58,71
484,012	62,42
484,259	64,47
484,507	69,21
484,754	73,45
485,002	76,41
485,249	78,86
485,496	83,19
485,744	84,12
485,991	85,77
486,238	86,03
486,486	90,6
486,733	93,31
486,98	97,76
487,227	96,73
487,474	98,53
487,722	100,58
487,969	99,17
488,216	99,29
488,463	101,38
488,71	99,56
488,957	99,7
489,204	100,13
489,451	100,08
489,699	97,67
489,946	93,87
490,193	92,55
490,44	90,52
490,687	89,15
490,934	83,54
491,18	78,36
491,427	78,5
491,674	78,93
491,921	77,48
492,168	73,73
492,415	69,38
492,662	68,05
492,909	66,92
493,155	63,18
493,402	61,25
493,649	57,77
493,896	56,59
494,142	51,39
494,389	50,13
494,636	47,13
494,883	45,58
495,129	43,58
495,376	40,16
495,623	41,37
495,869	41,4
496,116	40,18
496,362	38,5
496,609	39,85
496,855	41,46
497,102	39,74
497,348	37,03
497,595	37,45
497,841	38,36
498,088	35,36
498,334	34,2
498,581	32,59
498,827	31,81
499,074	30,88
499,32	28,88
499,566	28,95
499,813	28,64
500,059	26,35
500,305	25,07
500,552	22,81
500,798	22,59
501,044	24,06
501,29	23,71
501,537	21,1
501,783	22,7
502,029	22,65
502,275	18,05
502,521	16,37
502,767	15,93
503,013	17,78
503,26	13,97
503,506	11,83
503,752	12,28
503,998	11,37
504,244	8,7
504,49	5,27
504,736	5,91
504,982	5,31
505,228	6,86
505,474	6,59
505,72	7,69
505,966	6,8
506,211	8,67
506,457	8,73
506,703	5,08
506,949	3,09
507,195	3,94
507,441	1,09
507,686	2,85
507,932	2,29
508,178	3,54
508,424	1,55
508,669	1,12
508,915	-0,24
509,161	2,09
509,406	2,84
509,652	2,15
509,898	6,8
510,143	6,48
510,389	4,88
510,634	2,01
510,88	5,6
511,125	6,09
511,371	5,64
511,616	6,82
511,862	6,39
512,107	5,26
512,353	6,09
512,598	6,78
512,844	4,37
513,089	1,9
513,335	1,75
513,58	0,94
513,825	1,85
514,071	1,09
514,316	1,37
514,561	1,52
514,806	0,37
515,052	2,62
515,297	0,84
515,542	2,2
515,787	2,79
516,033	3,93
516,278	2,43
516,523	2,12
516,768	-0,05
517,013	-3
517,258	-3,12
517,503	-3,43
517,748	-2,96
517,993	-3,19
518,238	-3,59
518,483	-5,39
518,728	-6,27
518,973	-7,64
519,218	-9,09
519,463	-9,36
519,708	-10,85
519,953	-13,31
520,198	-14,52
520,443	-12,34
520,688	-9,56
520,933	-9,59
521,177	-9,85
521,422	-10,78
521,667	-8,89
521,912	-8,63
522,157	-10,94
522,401	-10,04
522,646	-10,28
522,891	-9,3
523,135	-10,79
523,38	-10,93
523,625	-12,69
523,869	-10,1
524,114	-8,55
524,358	-9
524,603	-8,96
524,848	-9,71
525,092	-12,05
525,337	-9,53
525,581	-8,05
525,826	-6,54
526,07	-6,63
526,315	-4,7
526,559	-5,47
526,803	-6,66
527,048	-3,32
527,292	-2,8
527,537	-2,2
527,781	-0,83
528,025	-3,55
528,269	-3,15
528,514	-3,02
528,758	-3,02
529,002	-2,95
529,247	-0,55
529,491	-0,55
529,735	4,17
529,979	4,24
530,223	6,13
530,467	5,12
530,712	5,51
530,956	4,93
531,2	6,78
531,444	5,51
531,688	5,71
531,932	5,79
532,176	7,9
532,42	8,76
532,664	10,55
532,908	8,29
533,152	7,48
533,396	7,48
533,64	8,22
533,884	6,28
534,128	7,86
534,371	9,6
534,615	10,18
534,859	11,74
535,103	12,94
535,347	13,98
535,59	16,35
535,834	15,24
536,078	18
536,322	21,35
536,565	25,34
536,809	26,42
537,053	31,52
537,296	33,48
537,54	38,48
537,784	43,7
538,027	51,88
538,271	58,82
538,514	65,97
538,758	74,5
539,001	81,06
539,245	90,75
539,488	99,66
539,732	107,61
539,975	114
540,219	121,29
540,462	129,32
540,706	137,73
540,949	143,96
541,192	148,94
541,436	160,03
541,679	170,11
541,922	179,94
542,166	185,54
542,409	196,12
542,652	207,21
542,895	218,6
543,139	228,18
543,382	240,25
543,625	246,46
543,868	252,11
544,111	256,4
544,354	258,38
544,598	259,45
544,841	261,12
545,084	259,58
545,327	256,85
545,57	253,91
545,813	251,85
546,056	247,71
546,299	243,06
546,542	239,44
546,785	233,34
547,028	228,64
547,271	222,81
547,514	218,63
547,756	212,8
547,999	207,02
548,242	202,58
548,485	195,88
548,728	192,15
548,971	182,67
549,213	176,39
549,456	167,23
549,699	159,4
549,942	148,09
550,184	136,95
550,427	126,39
550,67	116,78
550,912	104,2
551,155	95,67
551,398	88,21
551,64	79,72
551,883	73,97
552,125	66,74
552,368	62,68
552,61	56,6
552,853	53,75
553,095	48,91
553,338	44,9
553,58	40,75
553,823	36,32
554,065	34,95
554,308	30,15
554,55	24,64
554,792	20,26
555,035	16,93
555,277	15,16
555,519	13,05
555,762	8,22
556,004	7,51
556,246	2,97
556,488	2,82
556,731	-1,79
556,973	-1,19
557,215	-2,82
557,457	-1,44
557,699	-1,98
557,941	-5,07
558,183	-7,35
558,426	-5,73
558,668	-6,87
558,91	-5,89
559,152	-4,8
559,394	-6,08
559,636	-5,37
559,878	-5,6
560,12	-6,78
560,362	-5,63
560,604	-6,37
560,845	-7,04
561,087	-6,94
561,329	-5,85
561,571	-7,38
561,813	-6,43
562,055	-5,63
562,297	-5,13
562,538	-5,34
562,78	-5,03
563,022	-6,92
563,264	-5,46
563,505	-5,26
563,747	-4,42
563,989	-6,09
564,23	-6,59
564,472	-8,46
564,714	-6,65
564,955	-6,53
565,197	-7,65
565,438	-5,42
565,68	-1,97
565,921	-5,2
566,163	-5,05
566,404	-6,89
566,646	-6,89
566,887	-5,22
567,129	-3,71
567,37	-5,22
567,612	-3,17
567,853	-5,88
568,094	-4,39
568,336	-5,11
568,577	-4,95
568,818	-5,19
569,06	-7,47
569,301	-8,55
569,542	-8,1
569,783	-6,84
570,025	-5,77
570,266	-5,07
570,507	-3,49
570,748	-3,75
570,989	-4,08
571,23	-2,13
571,472	-2,4
571,713	-2,45
571,954	-2,01
572,195	-3,42
572,436	-2,45
572,677	-0,56
572,918	0,63
573,159	-1,59
573,4	-0,59
573,641	0,9
573,882	1,37
574,123	1,39
574,364	-1,9
574,604	-1,01
574,845	-0,49
575,086	1,5
575,327	3,73
575,568	4,31
575,809	6,21
576,049	6,85
576,29	6,34
576,531	11,66
576,771	14,82
577,012	16,66
577,253	20,18
577,494	20,33
577,734	20,89
577,975	22,77
578,215	24,63
578,456	24,94
578,697	24,93
578,937	28,11
579,178	29,87
579,418	30,86
579,659	32,19
579,899	29,63
580,14	30,35
580,38	31,22
580,62	32,49
580,861	35,9
581,101	38,11
581,342	40,22
581,582	38,07
581,822	43,02
582,063	43,18
582,303	43,88
582,543	43,06
582,783	43,83
583,024	46,89
583,264	49,6
583,504	49,84
583,744	53,89
583,984	54,21
584,224	57,1
584,465	57,9
584,705	57,87
584,945	61,17
585,185	63,18
585,425	64,65
585,665	64,47
585,905	65,85
586,145	68,17
586,385	67,5
586,625	68,49
586,865	67,96
587,105	67,37
587,345	69,64
587,585	68,39
587,824	66,68
588,064	67,38
588,304	64,43
588,544	63,16
588,784	60,84
589,024	64,07
589,263	63,73
589,503	63,71
589,743	67,68
589,982	69,22
590,222	71,02
590,462	69,41
590,701	68,7
590,941	70,89
591,181	69,09
591,42	68,31
591,66	68,23
591,899	69,77
592,139	68,03
592,378	66,43
592,618	62,86
592,857	61,54
593,097	60,71
593,336	58,88
593,576	56,74
593,815	56,79
594,055	56,33
594,294	57,26
594,533	57,48
594,773	55,89
595,012	57,81
595,251	57,61
595,491	59,16
595,73	62,9
595,969	64,18
596,208	66,03
596,447	68,3
596,687	69,59
596,926	70,17
597,165	66,99
597,404	67,86
597,643	64,65
597,882	63,88
598,121	62,71
598,36	62,08
598,599	62,17
598,838	59,16
599,077	55,22
599,316	53,76
599,555	52,42
599,794	51,91
600,033	53,47
600,272	54,49
600,511	53,51
600,75	55,48
600,989	57,19
601,228	56,75
601,466	57,41
601,705	57,68
601,944	58,34
602,183	60,79
602,422	59,14
602,66	58,63
602,899	55,92
603,138	54,49
603,376	52,83
603,615	52,86
603,854	51,34
604,092	49,9
604,331	50,83
604,569	51,63
604,808	51,71
605,047	55,37
605,285	56,49
605,524	59,4
605,762	61,54
606	67,37
606,239	73,97
606,477	83,08
606,716	92,97
606,954	110,08
607,193	131,54
607,431	160,21
607,669	198,29
607,908	244,36
608,146	292,23
608,384	338,95
608,622	385,56
608,861	427,63
609,099	464,73
609,337	498,42
609,575	527,9
609,813	558,26
610,052	584,17
610,29	604,7
610,528	623,19
610,766	640,64
611,004	656,14
611,242	669,68
611,48	682,87
611,718	693,76
611,956	706,09
612,194	715,8
612,432	722,49
612,67	729,37
612,908	735,12
613,146	737,14
613,384	737,13
613,621	737,98
613,859	734,62
614,097	727,74
614,335	715,4
614,573	697,28
614,811	671,9
615,048	636,1
615,286	593,48
615,524	549,25
615,761	502,4
615,999	458,07
616,237	416,35
616,474	382,94
616,712	352,78
616,95	324,08
617,187	297,73
617,425	277,75
617,662	259,3
617,9	242,58
618,137	226,2
618,375	212,34
618,612	199,66
618,85	190,56
619,087	182,81
619,325	172,14
619,562	162,95
619,799	155,81
620,037	150,25
620,274	145,02
620,511	144,2
620,749	140,49
620,986	137,22
621,223	135,69
621,461	134,54
621,698	136,53
621,935	135,89
622,172	136,27
622,409	138,8
622,647	140,48
622,884	140,26
623,121	144,1
623,358	145,33
623,595	148,81
623,832	149,8
624,069	149,67
624,306	151,01
624,543	152,43
624,78	151,74
625,017	153,49
625,254	154,87
625,491	157,75
625,728	159,7
625,965	159,6
626,202	158,86
626,438	157,39
626,675	158,93
626,912	161,47
627,149	163,39
627,386	165,91
627,622	168,11
627,859	170,37
628,096	174,19
628,333	176,31
628,569	177,86
628,806	180,06
629,043	178,57
629,279	178,07
629,516	176,9
629,752	172,34
629,989	170,64
630,225	166,5
630,462	163,74
630,699	160,5
630,935	155
631,171	148,84
631,408	144,4
631,644	139,85
631,881	133,66
632,117	128,39
632,354	124,92
632,59	120,74
632,826	116,27
633,063	110,7
633,299	107,38
633,535	102,64
633,771	97,22
634,008	93,41
634,244	87,33
634,48	80,85
634,716	76,06
634,953	68,31
635,189	60,69
635,425	54,31
635,661	49,86
635,897	43,09
636,133	37,28
636,369	31,02
636,605	25,75
636,841	21,43
637,077	19,73
637,313	16,9
637,549	16,12
637,785	13,43
638,021	12,51
638,257	11,83
638,493	13,82
638,729	13,21
638,965	15,7
639,2	17,47
639,436	16,24
639,672	16,61
639,908	15,09
640,144	17,19
640,379	20,28
640,615	20,29
640,851	20,52
641,086	22,15
641,322	20,91
641,558	21,15
641,793	22,13
642,029	18,55
642,264	16,73
642,5	17,14
642,736	13,96
642,971	14,21
643,207	13,74
643,442	12,87
643,678	14,52
643,913	15,8
644,148	16,25
644,384	17,5
644,619	17,7
644,855	18,36
645,09	18,52
645,325	18,97
645,561	19,98
645,796	17,57
646,031	19,56
646,266	18,35
646,502	18,11
646,737	20,74
646,972	21,35
647,207	23,75
647,442	23,17
647,678	22,31
647,913	24,97
648,148	27,42
648,383	28,02
648,618	29,38
648,853	31,01
649,088	32,84
649,323	36,11
649,558	39,82
649,793	41,26
650,028	42,66
650,263	40,76
650,498	42,66
650,733	43,76
650,968	42,53
651,202	45,04
651,437	44,38
651,672	42,48
651,907	42,23
652,142	43,19
652,376	43,16
652,611	43,74
652,846	44,76
653,081	46,01
653,315	45,47
653,55	45,28
653,785	43,64
654,019	44,39
654,254	42,12
654,488	40,37
654,723	36,32
654,958	34,86
655,192	32,65
655,427	28,85
655,661	28,52
655,896	29,19
656,13	29,65
656,364	27,68
656,599	25,48
656,833	30,69
657,068	30,56
657,302	30,21
657,536	27,5
657,771	28,19
658,005	27,86
658,239	28,54
658,474	25,43
658,708	26,32
658,942	25,51
659,176	25,07
659,41	24,48
659,645	25,43
659,879	26,14
660,113	24,13
660,347	23,61
660,581	21,46
660,815	21,48
661,049	21,3
661,283	18,71
661,517	18,07
661,751	18,36
661,985	17,16
662,219	17,05
662,453	15,42
662,687	16,96
662,921	14,95
663,155	13,6
663,389	8,31
663,622	6,73
663,856	7,81
664,09	0,69
664,324	0,35
664,558	0,99
664,791	1,4
665,025	-0,43
665,259	-1,81
665,492	-3,17
665,726	-0,65
665,96	-0,76
666,193	-0,49
666,427	-0,66
666,661	-2,14
666,894	-3,91
667,128	-6,2
667,361	-5,24
667,595	-5,85
667,828	-5,4
668,062	-6,57
668,295	-6,57
668,529	-5,29
668,762	-5,82
668,995	-7,15
669,229	-2,64
669,462	-3,5
669,695	-2,61
669,929	-3,71
670,162	-4,73
670,395	-5,69
670,629	-2,8
670,862	-0,71
671,095	-2,31
671,328	-2,31
671,561	-4,44
671,795	-4,11
672,028	-2,39
672,261	-1,92
672,494	-0,6
672,727	-0,92
672,96	-0,8
673,193	-1,88
673,426	0,86
673,659	1,12
673,892	0,19
674,125	-1,92
674,358	-1,51
674,591	-1,34
674,824	-1,12
675,057	-2,49
675,29	-4,01
675,523	-2,85
675,755	-4,62
675,988	-3,16
676,221	-1,57
676,454	-3,62
676,687	-2,32
676,919	-2,9
677,152	-1,86
677,385	-0,66
677,617	0,37
677,85	-0,69
678,083	-1,36
678,315	0,72
678,548	0,7
678,78	1,13
679,013	-0,39
679,246	-0,05
679,478	0,57
679,711	-0,59
679,943	2,02
680,175	-0,43
680,408	2,75
680,64	-1,29
680,873	-0,08
681,105	1,17
681,338	5,19
681,57	4,28
681,802	4,78
682,034	4,24
682,267	6,77
682,499	8,89
682,731	6,29
682,964	5,74
683,196	3,2
683,428	2,19
683,66	2,39
683,892	4,76
684,124	6,8
684,356	8
684,589	9,23
684,821	7,88
685,053	9,5
685,285	9,46
685,517	10,84
685,749	10,54
685,981	11,24
686,213	13,53
686,445	13,55
686,676	11,55
686,908	13,8
687,14	12,41
687,372	14,24
687,604	10,7
687,836	11,85
688,068	10,93
688,299	10,45
688,531	8,47
688,763	13,06
688,995	11,8
689,226	13,78
689,458	11,45
689,69	10,84
689,921	11,03
690,153	11,08
690,384	14,22
690,616	14,3
690,848	16,16
691,079	13,09
691,311	11,34
691,542	7,45
691,774	5,02
692,005	7,43
692,237	8,55
692,468	6,57
692,699	3,9
692,931	3,57
693,162	1,11
693,393	0,28
693,625	-0,77
693,856	0,99
694,087	0,88
694,319	1,13
694,55	0,02
694,781	0,06
695,012	0,11
695,243	-2,05
695,475	-2,43
695,706	-1,61
695,937	-4,3
696,168	-5,06
696,399	-6,29
696,63	-4,97
696,861	-6,07
697,092	-1,73
697,323	0,04
697,554	-0,07
697,785	-1,26
698,016	-3,23
698,247	-5,71
698,478	-4,65
698,709	-1,15
698,94	0,23
699,171	-1,38
699,401	-4,2
699,632	-2,53
699,863	-3,55
700,094	-3,59
700,325	-1,36
700,555	-0,92
700,786	0,01
701,017	0,45
701,247	-0,46
701,478	-0,69
701,709	-0,5
701,939	-0,3
702,17	2,49
702,401	5,27
702,631	7,41
702,862	7,48
703,092	7,51
703,323	10,28
703,553	12,75
703,784	15,58
704,014	18,19
704,244	16,47
704,475	18,59
704,705	20,42
704,936	24,01
705,166	26,32
705,396	32,33
705,627	34,09
705,857	36,39
706,087	39,99
706,317	41,52
706,548	42,84
706,778	44,97
707,008	47,6
707,238	49,49
707,468	49,16
707,698	49,46
707,928	50,28
708,158	50,2
708,389	50,42
708,619	51,65
708,849	52,97
709,079	55,69
709,309	54,85
709,539	55,88
709,768	56,14
709,998	58,21
710,228	58,86
710,458	59,35
710,688	56,3
710,918	54,23
711,148	53,22
711,378	51,57
711,607	49
711,837	47,21
712,067	45,05
712,297	43,53
712,526	40,17
712,756	38,76
712,986	32,82
713,215	29,24
713,445	26,58
713,674	25,2
713,904	22,38
714,134	21,45
714,363	19,59
714,593	17,26
714,822	14,67
715,052	12,74
715,281	11,55
715,511	9,47
715,74	5,88
715,969	2,72
716,199	-0,56
716,428	-2,39
716,657	-4,77
716,887	-4,24
717,116	-8,03
717,345	-9,26
717,575	-11,8
717,804	-13,03
718,033	-15,46
718,262	-17,67
718,492	-17,57
718,721	-17,41
718,95	-18,2
719,179	-20,83
719,408	-21,74
719,637	-23,37
719,866	-24,9
720,095	-22,33
720,324	-24,06
720,553	-25,29
720,782	-26,29
721,011	-26,92
721,24	-27,4
721,469	-27,84
721,698	-25,95
721,927	-25,78
722,156	-26,54
722,385	-26,16
722,613	-23,85
722,842	-21,87
723,071	-19,02
723,3	-17,55
723,529	-17,35
723,757	-17,94
723,986	-21,3
724,215	-20,77
724,443	-20,05
724,672	-19,22
724,901	-17,18
725,129	-15,22
725,358	-11,91
725,586	-14,37
725,815	-15,2
726,043	-16,3
726,272	-16,76
726,5	-16,39
726,729	-15,43
726,957	-17,97
727,186	-20,44
727,414	-18,76
727,642	-18,32
727,871	-17,21
728,099	-17,54
728,327	-18,7
728,556	-16,72
728,784	-16,42
729,012	-17,22
729,241	-15,02
729,469	-16,7
729,697	-18,59
729,925	-16,93
730,153	-19,19
730,381	-19,48
730,61	-20,86
730,838	-22,53
731,066	-22,03
731,294	-22,25
731,522	-24,13
731,75	-26,39
731,978	-26,48
732,206	-26,78
732,434	-27,7
732,662	-25,28
732,89	-25,82
733,118	-25,54
733,346	-24,53
733,573	-24,66
733,801	-24,04
734,029	-17,89
734,257	-16,38
734,485	-14,8
734,712	-12,86
734,94	-13,99
735,168	-10,74
735,396	-10,38
735,623	-11,2
735,851	-10,8
736,078	-9,99
736,306	-8,6
736,534	-8,99
736,761	-7,63
736,989	-10,83
737,216	-10,48
737,444	-11,9
737,671	-9,47
737,899	-4,67
738,126	-5,12
738,354	-4,74
738,581	-4,37
738,809	-3,51
739,036	-6,09
739,263	-6,22
739,491	-9,09
739,718	-9,33
739,945	-6,63
740,173	-4,87
740,4	-4,82
740,627	-6,33
740,854	-8,06
741,081	-11,13
741,309	-12,03
741,536	-14,27
741,763	-15,98
741,99	-14,87
742,217	-15,52
742,444	-15,66
742,671	-15,2
742,898	-15,58
743,125	-16,09
743,352	-19,45
743,579	-18,73
743,806	-19,61
744,033	-16,14
744,26	-15,84
744,487	-16,68
744,714	-17,44
744,941	-18,51
745,167	-15,93
745,394	-16,42
745,621	-17,04
745,848	-16,56
746,075	-14,35
746,301	-11,69
746,528	-7,63
746,755	-9,26
746,981	-9,62
747,208	-9,18
747,435	-6,96
747,661	-5,8
747,888	-4,13
748,114	-5,83
748,341	-3,59
748,567	-1,89
748,794	-2,36
749,02	-1,97
749,247	-3,96
749,473	-3,15
749,7	-4,35
749,926	-4,09
750,152	-1,98
750,379	-0,49
750,605	0,17
750,831	-0,5
751,058	-2,72
751,284	-4,73
751,51	-1,86
751,737	-1,55
751,963	-3,6
752,189	-4,08
752,415	-4,35
752,641	-4,93
752,867	-4,81
753,094	-5,88
753,32	-7,22
753,546	-9,16
753,772	-6,84
753,998	-8,47
754,224	-8,76
754,45	-9,72
754,676	-10,65
754,902	-12,68
755,128	-12,31
755,354	-13,22
755,579	-13,05
755,805	-11,11
756,031	-12,04
756,257	-11,91
756,483	-13,21
756,709	-14,49
756,934	-14,79
757,16	-15,79
757,386	-15,84
757,612	-17,74
757,837	-17,99
758,063	-16,32
758,289	-12,49
758,514	-13,98
758,74	-15,69
758,965	-16,6
759,191	-15,91
759,416	-15,03
759,642	-12,88
759,868	-13,71
760,093	-13,04
760,318	-13,51
760,544	-12,7
760,769	-14,68
760,995	-13,46
761,22	-15,01
761,445	-13,42
761,671	-10,81
761,896	-7,74
762,121	-8,18
762,347	-8,09
762,572	-10,05
762,797	-10,05
763,022	-10,18
763,248	-6,8
763,473	-7,47
763,698	-6,94
763,923	-7,77
764,148	-8,42
764,373	-9,36
764,598	-6,88
764,823	-6,45
765,048	-8,66
765,273	-10,76
765,498	-12,06
765,723	-11,82
765,948	-11,43
766,173	-13,59
766,398	-13,58
766,623	-15,83
766,848	-15,54
767,073	-16,32
767,298	-16,92
767,522	-18,41
767,747	-16,5
767,972	-17,76
768,197	-16,88
768,421	-20,68
768,646	-23,78
768,871	-26,71
769,095	-25,7
769,32	-25,34
769,545	-24,82
769,769	-25
769,994	-23,68
770,218	-25,69
770,443	-23,53
770,667	-22,97
770,892	-22,29
771,116	-22,81
771,341	-20,45
771,565	-21,64
771,79	-20,68
772,014	-20,11
772,238	-21,29
772,463	-19,27
772,687	-18,57
772,911	-18,64
773,136	-18,72
773,36	-17,88
773,584	-16,26
773,808	-17,26
774,033	-17,51
774,257	-17,76
774,481	-17,86
774,705	-19,52
774,929	-19,36
775,153	-19,01
775,377	-16,92
775,602	-16,45
775,826	-15,31
776,05	-13,15
776,274	-13,54
776,498	-14,04
776,722	-13,9
776,945	-14,61
777,169	-14,98
777,393	-15,45
777,617	-15,61
777,841	-14,95
778,065	-13,58
778,289	-15,78
778,512	-16,58
778,736	-16,45
778,96	-16,64
779,184	-15,02
779,407	-15,41
779,631	-15,24
779,855	-15,43
780,078	-14,9
780,302	-16,31
780,526	-17,22
780,749	-17,81
780,973	-15,32
781,196	-15,65
781,42	-17,71
781,643	-17,05
781,867	-15,19
782,09	-18,4
782,314	-18,79
782,537	-19,14
782,76	-18,9
782,984	-19,17
783,207	-20,69
783,431	-19,68
783,654	-21,87
783,877	-22,87
784,1	-23,66
784,324	-24,68
784,547	-24,6
784,77	-26,4
784,993	-27,66
785,216	-28,21
785,44	-27,36
785,663	-29,29
785,886	-28,47
786,109	-28,11
786,332	-29,38
786,555	-29,92
786,778	-28,45
787,001	-27,88
787,224	-26,34
787,447	-25,55
787,67	-24,79
787,893	-24,91
788,116	-24,76
788,339	-23,31
788,561	-23,67
788,784	-27,75
789,007	-27,76
789,23	-28,39
789,453	-28,63
789,675	-30,25
789,898	-32,57
790,121	-32,57
790,344	-33,27
790,566	-31,6
790,789	-31,05
791,012	-30,54
791,234	-27,98
791,457	-24,97
791,679	-24,5
791,902	-24,5
792,124	-24,64
792,347	-26,51
792,569	-25,48
792,792	-26,59
793,014	-24,68
793,237	-22,34
793,459	-22,38
793,681	-22,46
793,904	-22,54
794,126	-24,51
794,348	-25,65
794,571	-23,89
794,793	-25,98
795,015	-24,36
795,237	-23,15
795,46	-22,5
795,682	-22,21
795,904	-19,35
796,126	-20,18
796,348	-19,71
796,57	-17,48
796,792	-16,31
797,014	-13,28
797,237	-11,8
797,459	-11,14
797,681	-10,62
797,903	-13
798,124	-13,52
798,346	-4,63
798,568	-3,43
798,79	0,08
799,012	1,77
799,234	3,22
799,456	3,84
799,678	4,28
799,899	1,77
800,121	-0,16
800,343	-0,11
800,565	-0,38
800,786	-0,35
801,008	1,47
801,23	2,1
801,451	1,33
801,673	0,21
801,895	-1,59
802,116	-1,71
802,338	-0,48
802,559	0,7
802,781	-0,87
803,002	1,81
803,224	4,54
803,445	2,56
803,667	3,74
803,888	1
804,109	0,75
804,331	0,95
804,552	1,25
804,773	4,31
804,995	2,97
805,216	-8,86
805,437	-10,22
805,658	-13,69
805,88	-15,01
806,101	-14,35
806,322	-15,07
806,543	-14,31
806,764	-15,99
806,985	-14,24
807,207	-12,63
807,428	-11,85
807,649	-13,93
807,87	-15,79
808,091	-16,47
808,312	-15,56
808,533	-11,25
808,754	-8,83
808,975	-9,7
809,195	-8,72
809,416	-8,84
809,637	-8,5
809,858	-10,68
810,079	-13,77
810,3	-11,78
810,52	-12,02
810,741	-13,33
810,962	-14,58
811,183	-15,83
811,403	-15,72
811,624	-15,01
811,845	-14,34
812,065	-13,19
812,286	-12,96
812,506	-12,7
812,727	-11,75
812,948	-10,99
813,168	-8,8
813,389	-11,41
813,609	-10,16
813,83	-11,76
814,05	-14
814,27	-14,62
814,491	-12,05
814,711	-12,48
814,931	-14,25
815,152	-14,79
815,372	-17,6
815,592	-18,76
815,813	-18,15
816,033	-19,44
816,253	-17,77
816,473	-18,57
816,694	-17,51
816,914	-14,97
817,134	-14,74
817,354	-16,98
817,574	-15,82
817,794	-15,88
818,014	-17,02
818,234	-17,42
818,454	-19,62
818,674	-21,22
818,894	-23,94
819,114	-22,08
819,334	-21,65
819,554	-20,47
819,774	-19,13
819,994	-20,99
820,214	-20,27
820,433	-20,08
820,653	-20,73
820,873	-18,79
821,093	-18,14
821,312	-19,78
821,532	-17,84
821,752	-14,74
821,972	-15,87
822,191	-13,06
822,411	-13,76
822,63	-14,28
822,85	-13,66
823,07	-15,64
823,289	-14,98
823,509	-15,73
823,728	-16,93
823,948	-19,08
824,167	-19,27
824,387	-20,48
824,606	-19,65
824,825	-19,52
825,045	-19,48
825,264	-20,56
825,483	-18,99
825,703	-17,65
825,922	-20,37
826,141	-20,09
826,361	-20,38
826,58	-24,58
826,799	-25,72
827,018	-24,32
827,237	-24,79
827,456	-22,67
827,676	-22,97
827,895	-22,67
828,114	-22,42
828,333	-22,68
828,552	-22,53
828,771	-22,08
828,99	-25,08
829,209	-24,64
829,428	-22,42
829,647	-22,15
829,866	-22,09
830,084	-22,16
830,303	-22,54
830,522	-22,72
830,741	-21,43
830,96	-19,51
831,179	-18,33
831,397	-19,48
831,616	-19,23
831,835	-19,36
832,053	-18,92
832,272	-19,11
832,491	-16,84
832,709	-16,33
832,928	-16,4
833,147	-16,62
833,365	-13,46
833,584	-12,05
833,802	-10,61
834,021	-10,08
834,239	-9,81
834,458	-11,95
834,676	-15,23
834,894	-14,46
835,113	-14,26
835,331	-16,04
835,55	-15,18
835,768	-13,23
835,986	-13,37
836,204	-15,64
836,423	-15,59
836,641	-17,13
836,859	-18,51
837,077	-17,05
837,296	-16,95
837,514	-18,79
837,732	-20,72
837,95	-21,25
838,168	-18,77
838,386	-19,59
838,604	-17,55
838,822	-15,86
839,04	-15,86
839,258	-15,93
839,476	-15,23
839,694	-14,94
839,912	-16,35
840,13	-17,43
840,348	-14,33
840,566	-17,38
840,783	-15,74
841,001	-16,3
841,219	-13,08
841,437	-11,16
841,655	-11,4
841,872	-12,38
842,09	-11,76
842,308	-10,97
842,525	-11,58
842,743	-10,88
842,961	-11,07
843,178	-13,39
843,396	-9,71
843,613	-7,23
843,831	-7,21
844,048	-7,63
844,266	-6,34
844,483	-6,18
844,701	-6,14
844,918	-7,6
845,136	-6,89
845,353	-8,51
845,57	-8,29
845,788	-5,99
846,005	-8,59
846,222	-8,85
846,439	-7,65
846,657	-7,32
846,874	-6,48
847,091	-9,61
847,308	-9,33
847,526	-11,15
847,743	-10,57
847,96	-11,65
848,177	-12,25
848,394	-12,29
848,611	-12,21
848,828	-12,66
849,045	-13,9
849,262	-13,4
849,479	-13,37
849,696	-13,76
849,913	-14,98
850,13	-18,55
850,347	-18,31
850,564	-19,11
850,78	-19,03
850,997	-21,04
851,214	-19,87
851,431	-18,21
851,647	-19,18
851,864	-18,92
852,081	-18,36
852,298	-22,11
852,514	-23,97
852,731	-22,07
852,948	-19,55
853,164	-20,9
853,381	-21,08
853,597	-23,15
853,814	-24,43
854,03	-25,53
854,247	-23,91
854,463	-25,47
854,68	-27,76
854,896	-26,49
855,113	-25,68
855,329	-25,08
855,545	-23,92
855,762	-24,65
855,978	-26,59
856,194	-28,67
856,411	-25,79
856,627	-24,09
856,843	-22,52
857,059	-21,16
857,275	-21,63
857,492	-21,76
857,708	-18,82
857,924	-19,28
858,14	-18,74
858,356	-19,88
858,572	-20,02
858,788	-21,43
859,004	-18,88
859,22	-21,35
859,436	-21,23
859,652	-24,16
859,868	-24,48
860,084	-24,13
860,3	-22,79
860,516	-21,91
860,731	-21,58
860,947	-23,5
861,163	-22,45
861,379	-20,66
861,595	-20,49
861,81	-20,71
862,026	-21,51
862,242	-21,75
862,457	-21,64
862,673	-20,53
862,889	-18,81
863,104	-20
863,32	-19,03
863,535	-18,12
863,751	-21,32
863,966	-19,27
864,182	-17,33
864,397	-18,06
864,613	-19,45
864,828	-19,93
865,044	-18,22
865,259	-17,07
865,474	-16,84
865,69	-15,48
865,905	-14,09
866,12	-16,27
866,336	-15,61
866,551	-14,41
866,766	-15,17
866,981	-16,18
867,196	-16,06
867,412	-15,37
867,627	-15,43
867,842	-15,8
868,057	-15,67
868,272	-16,75
868,487	-17,31
868,702	-18,72
868,917	-18,43
869,132	-16,94
869,347	-16,9
869,562	-18,59
869,777	-18,68
869,992	-19,58
870,207	-21,86
870,422	-21,65
870,636	-22,86
870,851	-24,02
871,066	-25,42
871,281	-24,48
871,495	-26,31
871,71	-25,1
871,925	-27,15
872,14	-26,85
872,354	-27,95
872,569	-28,47
872,783	-26,62
872,998	-27,16
873,213	-28,1
873,427	-25,82
873,642	-25,26
873,856	-25,48
874,071	-24,92
874,285	-25,79
874,5	-26,51
874,714	-27,95
874,928	-27,77
875,143	-28,21
875,357	-27,46
875,571	-29,26
875,786	-30,35
876	-28,76
876,214	-27,58
876,429	-29,05
876,643	-28,62
876,857	-26,88
877,071	-25
877,285	-26,16
877,499	-29,04
877,714	-27,58
877,928	-25,82
878,142	-27,71
878,356	-28,44
878,57	-26,64
878,784	-26,2
878,998	-26,57
879,212	-24,6
879,426	-27,08
879,639	-25,33
879,853	-26,81
880,067	-27,48
880,281	-27,89
880,495	-26,23
880,709	-25,62
880,922	-24,08
881,136	-22,61
881,35	-20,57
881,564	-21,38
881,777	-23,23
881,991	-23,15
882,205	-20,84
882,418	-19,66
882,632	-21,69
882,845	-21,07
883,059	-19,75
883,273	-20,58
883,486	-20,99
883,7	-21,52
883,913	-21,08
884,126	-19,63
884,34	-21,92
884,553	-23,42
884,767	-20,01
884,98	-21,07
885,193	-22,47
885,407	-23,25
885,62	-22,56
885,833	-22,87
886,046	-20,68
886,26	-22,95
886,473	-21,77
886,686	-22,28
886,899	-20,32
887,112	-21,67
887,326	-22,59
887,539	-21,96
887,752	-20,86
887,965	-22,94
888,178	-21,64
888,391	-20,82
888,604	-21,15
888,817	-22,1
889,03	-22,75
889,243	-24,1
889,455	-26,77
889,668	-26,3
889,881	-25,45
890,094	-25,89
890,307	-25,7
890,52	-24,76
890,732	-24,36
890,945	-24,3
891,158	-24,19
891,37	-25,68
891,583	-25,56
891,796	-24,56
892,008	-25,37
892,221	-26,8
892,434	-29,3
892,646	-29,44
892,859	-29,22
893,071	-28,99
893,284	-28,3
893,496	-29,69
893,709	-29,34
893,921	-28,24
894,133	-28,76
894,346	-29,73
894,558	-29,06
894,771	-29,3
894,983	-26,75
895,195	-25,19
895,407	-25,73
895,62	-27,55
895,832	-26,08
896,044	-23,73
896,256	-24,73
896,468	-25,07
896,681	-24,31
896,893	-24,17
897,105	-24,4
897,317	-24,64
897,529	-22,15
897,741	-22,18
897,953	-20,41
898,165	-21,49
898,377	-21,86
898,589	-21,64
898,801	-21,29
899,013	-20,09
899,224	-19,32
899,436	-17,65
899,648	-18,13
899,86	-19,05
900,072	-17,45
900,283	-16,3
900,495	-15,64
900,707	-14,98
900,919	-16,74
901,13	-16,99
901,342	-18,11
901,554	-18,94
901,765	-19,53
901,977	-20,14
902,188	-19,85
902,4	-20,49
902,611	-22,02
902,823	-24,02
903,034	-25,2
903,246	-26,17
903,457	-27,01
903,669	-27,45
903,88	-26,37
904,091	-27,45
904,303	-25,57
904,514	-26,65
904,725	-24,66
904,936	-24,68
905,148	-23,85
905,359	-23,14
905,57	-22,77
905,781	-24,78
905,992	-25,56
906,204	-24,4
906,415	-23,83
906,626	-25,4
906,837	-25,29
907,048	-25,96
907,259	-27,67
907,47	-28,9
907,681	-28,87
907,892	-26,86
908,103	-28,5
908,314	-29,06
908,525	-28
908,735	-27,29
908,946	-26,76
909,157	-26,55
909,368	-24,24
909,579	-23,11
909,789	-24,44
910	-26,2
910,211	-24,31
910,421	-24,86
910,632	-23,03
910,843	-25,47
911,053	-22,53
911,264	-20,9
911,475	-20,91
911,685	-19,84
911,896	-19,54
912,106	-18,58
912,317	-19,08
912,527	-17,81
912,737	-18,29
912,948	-18,11
913,158	-17,85
913,369	-20,14
913,579	-19,03
913,789	-18,34
914	-15,15
914,21	-15,01
914,42	-15,13
914,63	-14,62
914,841	-13,8
915,051	-11,32
915,261	-10,4
915,471	-8,81
915,681	-8,27
915,891	-8,59
916,101	-9,44
916,311	-9,09
916,521	-8
916,731	-8,7
916,941	-7,09
917,151	-8,69
917,361	-6,33
917,571	-9,07
917,781	-10,75
917,991	-12,44
918,201	-12,64
918,411	-13,61
918,621	-13,97
918,83	-12,33
919,04	-13,07
919,25	-12,11
919,46	-10,66
919,669	-11,97
919,879	-11,3
920,089	-12,92
920,298	-12,34
920,508	-11,9
920,717	-11,26
920,927	-13,34
921,136	-13,12
921,346	-14,33
921,555	-16,66
921,765	-16,95
921,974	-19,57
922,184	-21,7
922,393	-21,94
922,603	-22,6
922,812	-20,68
923,021	-21,86
923,23	-22,95
923,44	-25,18
923,649	-24,54
923,858	-25,9
924,067	-26,86
924,277	-28,43
924,486	-26,9
924,695	-27,83
924,904	-27,12
925,113	-26,52
925,322	-26,48
925,531	-27,54
925,74	-29,57
925,949	-32,25
926,158	-30,15
926,367	-31,12
926,576	-29,51
926,785	-30,81
926,994	-32,75
927,203	-32,33
927,412	-31,68
927,621	-31,44
927,83	-29,49
928,038	-30,2
928,247	-31,05
928,456	-30,1
928,665	-28,58
928,873	-27,32
929,082	-25,59
929,291	-23,7
929,499	-21,21
929,708	-20,71
929,916	-20,1
930,125	-21,64
930,333	-22,29
930,542	-20,7
930,75	-18,1
930,959	-17,81
931,167	-18,07
931,376	-18,38
931,584	-17,98
931,793	-18,02
932,001	-17,11
932,209	-18,48
932,418	-19,26
932,626	-21,27
932,834	-21,29
933,042	-24,05
933,251	-23,27
933,459	-22,24
933,667	-22,04
933,875	-21,54
934,083	-21,38
934,291	-21,55
934,499	-21,6
934,707	-21,74
934,915	-21,56
935,123	-20,41
935,331	-21,16
935,539	-23,35
935,747	-25,86
935,955	-26,98
936,163	-27,61
936,371	-28,06
936,579	-25,7
936,787	-25,83
936,995	-25,45
937,202	-27,89
937,41	-27,37
937,618	-27,34
937,826	-26,06
938,033	-30,27
938,241	-31,1
938,449	-30,08
938,656	-26,99
938,864	-26,49
939,071	-26,02
939,279	-24,34
939,486	-22,9
939,694	-23,22
939,901	-25,21
940,109	-25,63
940,316	-25,14
940,524	-25,56
940,731	-26
940,939	-24,44
941,146	-24,24
941,353	-24,92
941,561	-25,6
941,768	-26,15
941,975	-24,77
942,182	-24,92
942,39	-24,77
942,597	-22,3
942,804	-21,31
943,011	-21,07
943,218	-20,68
943,425	-20,96
943,632	-20,73
943,839	-22,08
944,046	-22,79
944,253	-22,99
944,46	-22,2
944,667	-19,13
944,874	-19,86
945,081	-19,83
945,288	-18,67
945,495	-17,35
945,702	-16,86
945,909	-18,03
946,115	-18,28
946,322	-18,88
946,529	-19,85
946,736	-20,36
946,942	-19,75
947,149	-22,1
947,356	-23,11
947,562	-23,7
947,769	-23,03
947,976	-23,09
948,182	-22,03
948,389	-22,53
948,595	-21,85
948,802	-19,86
949,008	-21,43
949,215	-21,06
949,421	-22,43
949,628	-23,62
949,834	-24,54
950,04	-23,66
950,247	-20,36
950,453	-19,87
950,659	-20,79
950,865	-19,72
951,072	-23,65
951,278	-22,8
951,484	-23,94
951,69	-25,73
951,896	-26,8
952,103	-27,66
952,309	-26,38
952,515	-26,4
952,721	-24,69
952,927	-24,3
953,133	-24,35
953,339	-25,36
953,545	-23,54
953,751	-23,3
953,957	-22,2
954,163	-23,97
954,369	-23,93
954,574	-26,03
954,78	-26,42
954,986	-25,12
955,192	-25,38
955,398	-25,83
955,603	-28,55
955,809	-27,98
956,015	-27,5
956,22	-26,65
956,426	-26,52
956,632	-28,6
956,837	-28,29
957,043	-28,02
957,248	-27,01
957,454	-25,77
957,66	-25,51
957,865	-25,28
958,07	-24,37
958,276	-25,03
958,481	-25,87
958,687	-25,56
958,892	-24,54
959,097	-23,78
959,303	-23,47
959,508	-24,42
959,713	-23,13
959,919	-23,91
960,124	-24,15
960,329	-23,05
960,534	-20,75
960,739	-19,45
960,945	-17,09
961,15	-17,02
961,355	-18,54
961,56	-21,4
961,765	-22,51
961,97	-21,8
962,175	-20,92
962,38	-23,45
962,585	-24,13
962,79	-24,54
962,995	-25,68
963,2	-26,46
963,404	-27,09
963,609	-29,24
963,814	-30,76
964,019	-34,06
964,224	-36,8
964,428	-35,3
964,633	-34,39
964,838	-33,34
965,042	-35,35
965,247	-36,59
965,452	-37,61
965,656	-36,22
965,861	-35,35
966,066	-36,57
966,27	-33,86
966,475	-30,7
966,679	-33,62
966,884	-33,02
967,088	-35,38
967,292	-35,07
967,497	-32,75
967,701	-33,48
967,906	-32,77
968,11	-30,51
968,314	-26,47
968,518	-27,17
968,723	-23,82
968,927	-22,53
969,131	-22,13
969,335	-20,54
969,539	-20,63
969,744	-19,96
969,948	-16,96
970,152	-14,87
970,356	-13,71
970,56	-12,26
970,764	-13,11
970,968	-11,57
971,172	-11,5
971,376	-10,08
971,58	-8,7
971,784	-9,02
971,988	-10,94
972,192	-8,84
972,395	-9,73
972,599	-12,53
972,803	-14,59
973,007	-13,02
973,21	-14,15
973,414	-13,91
973,618	-15,96
973,822	-16,81
974,025	-15,97
974,229	-15,83
974,432	-18,98
974,636	-22,07
974,84	-21,07
975,043	-20,58
975,247	-21,29
975,45	-22,09
975,654	-21,16
975,857	-18,92
976,06	-18,38
976,264	-20,39
976,467	-20,36
976,671	-20,31
976,874	-19,26
977,077	-20,9
977,28	-21,65
977,484	-22,98
977,687	-23,36
977,89	-22,35
978,093	-20,7
978,297	-19,1
978,5	-21,11
978,703	-19,53
978,906	-17,82
979,109	-17,07
979,312	-16,07
979,515	-15,27
979,718	-14,33
979,921	-14,72
980,124	-17
980,327	-18,67
980,53	-17,82
980,733	-15,63
980,936	-14,62
981,138	-16,93
981,341	-17,08
981,544	-17,48
981,747	-18,37
981,949	-19,83
982,152	-20,3
982,355	-22,73
982,558	-19,68
982,76	-20,25
982,963	-21,13
983,165	-20,69
983,368	-20,14
983,571	-20,35
983,773	-18,1
983,976	-18,07
984,178	-18,19
984,381	-19,24
984,583	-22,43
984,785	-22,19
984,988	-20,49
985,19	-19,74
985,392	-21,83
985,595	-23,33
985,797	-24,7
985,999	-23,18
986,202	-21,27
986,404	-20,19
986,606	-16,3
986,808	-18,37
987,01	-18,36
987,212	-17,93
987,415	-18,64
987,617	-18,92
987,819	-18,54
988,021	-17,25
988,223	-18,47
988,425	-20,17
988,627	-19,19
988,829	-22,84
989,031	-22,43
989,232	-22,28
989,434	-22,41
989,636	-21,9
989,838	-22,24
990,04	-21,95
990,242	-21,84
990,443	-23,15
990,645	-21,63
990,847	-19,53
991,048	-19,77
991,25	-20,8
991,452	-21,69
991,653	-22,03
991,855	-22,67
992,057	-22,8
992,258	-23,91
992,46	-23,74
992,661	-22,53
992,863	-23,91
993,064	-22,8
993,265	-23,89
993,467	-25,4
993,668	-23,04
993,87	-23,55
994,071	-24,94
994,272	-23,46
994,473	-21,9
994,675	-20,39
994,876	-19,22
995,077	-18,47
995,278	-19,11
995,48	-17,86
995,681	-18,54
995,882	-17,54
996,083	-17,73
996,284	-21,21
996,485	-20,74
996,686	-21,11
996,887	-21,5
997,088	-23,14
997,289	-23,75
997,49	-23,24
997,691	-23,96
997,892	-23,28
998,092	-19,65
998,293	-18,59
998,494	-17,95
998,695	-19,51
998,896	-20,25
999,096	-21,11
999,297	-20,75
999,498	-20,98
999,698	-22,11
999,899	-23,82
1000,1	-23,14
1000,3	-22,09
1000,501	-24,06
1000,701	-24,68
1000,902	-25,19
1001,102	-25,52
1001,303	-24,27
1001,503	-25
1001,704	-25,52
1001,904	-25,95
1002,105	-26,94
1002,305	-27,24
1002,505	-26,83
1002,706	-28,37
1002,906	-28,88
1003,106	-30,27
1003,306	-29,32
1003,507	-27,77
1003,707	-29,43
1003,907	-27,16
1004,107	-26,3
1004,307	-27,27
1004,507	-27,72
1004,707	-28,62
1004,907	-29,74
1005,107	-29,89
1005,308	-28,96
1005,507	-30,78
1005,707	-29
1005,907	-29,13
1006,107	-27,53
1006,307	-28,39
1006,507	-30,2
1006,707	-28,32
1006,907	-27,12
1007,106	-26,99
1007,306	-27,14
1007,506	-27,46
1007,706	-27,31
1007,905	-28,19
1008,105	-27,42
1008,305	-26,19
1008,504	-24,52
1008,704	-21,5
1008,903	-20,34
1009,103	-18,42
1009,303	-19,79
1009,502	-18,74
1009,702	-20,29
1009,901	-19,86
1010,1	-23,12
1010,3	-22,11
1010,499	-24,58
1010,699	-26,02
1010,898	-26,77
1011,097	-25,68
1011,296	-25,4
1011,496	-26,69
1011,695	-24,65
1011,894	-25,63
1012,093	-22,94
1012,293	-24,24
1012,492	-24,18
1012,691	-23,47
1012,89	-25
1013,089	-27,2
1013,288	-27,09
1013,487	-27,75
1013,686	-27,48
1013,885	-27,75
1014,084	-28,18
1014,283	-27,67
1014,482	-28,74
1014,681	-29,78
1014,88	-32,29
1015,078	-31,85
1015,277	-34,07
1015,476	-34,72
1015,675	-35,2
1015,873	-33,86
1016,072	-34,54
1016,271	-31,51
1016,47	-34,27
1016,668	-33,05
1016,867	-32,69
1017,065	-33,49
1017,264	-34,99
1017,463	-34,92
1017,661	-34,21
1017,86	-35,03
1018,058	-33,8
1018,256	-35,02
1018,455	-34,59
1018,653	-33,45
1018,852	-32,22
1019,05	-33,89
1019,248	-34,2
1019,447	-36,12
1019,645	-36,05
1019,843	-37,28
1020,041	-35,41
1020,24	-34,24
1020,438	-32,06
1020,636	-32,56
1020,834	-34,2
1021,032	-32
1021,23	-32,06
1021,428	-29,44
1021,626	-26,89
1021,824	-27,29
1022,022	-28,22
1022,22	-26,4
1022,418	-25,78
1022,616	-25,86
1022,814	-26,59
1023,012	-25,94
1023,21	-25,56
1023,408	-23,46
1023,606	-24,25
1023,803	-20,6
1024,001	-20,87
1024,199	-23,24
1024,397	-22,2
1024,594	-22,3
1024,792	-24,61
1024,99	-23,89
1025,187	-22,17
1025,385	-19,78
1025,582	-18,91
1025,78	-18,46
1025,977	-17,01
1026,175	-17,63
1026,372	-18,1
1026,57	-19,58
1026,767	-17,3
1026,965	-16,61
1027,162	-17,34
1027,359	-17,87
1027,557	-19,57
1027,754	-21,32
1027,951	-21,98
1028,148	-20,62
1028,346	-23,24
1028,543	-25,21
1028,74	-24,82
1028,937	-25,37
1029,134	-25,78
1029,331	-25,46
1029,528	-25,31
1029,725	-26,16
1029,923	-29,41
1030,12	-26,17
1030,317	-24,58
1030,513	-24,51
1030,71	-24,16
1030,907	-21,3
1031,104	-21,98
1031,301	-23,52
1031,498	-23,46
1031,695	-23,66
1031,892	-23,2
1032,088	-23,71
1032,285	-24,87
1032,482	-25,94
1032,678	-28,17
1032,875	-30,43
1033,072	-30,62
1033,268	-31,36
1033,465	-32,13
1033,662	-33,02
1033,858	-32,23
1034,055	-31,51
1034,251	-29,87
1034,448	-29,75
1034,644	-29,84
1034,84	-27,57
1035,037	-26,83
1035,233	-27,37
1035,43	-26,51
1035,626	-27,2
1035,822	-25,21
1036,019	-26,3
1036,215	-29,89
1036,411	-31,04
1036,607	-32,88
1036,803	-33,85
1037	-35,16
1037,196	-37,14
1037,392	-35,66
1037,588	-36,74
1037,784	-35,27
1037,98	-36,7
1038,176	-37,05
1038,372	-37,44
1038,568	-35,9
1038,764	-34,99
1038,96	-33,26
1039,156	-34,18
1039,352	-34,41
1039,547	-32,35
1039,743	-32,32
1039,939	-29,65
1040,135	-30,33
1040,331	-33,04
1040,526	-31,19
1040,722	-32,02
1040,918	-34,07
1041,113	-35,7
1041,309	-35,59
1041,505	-36,38
1041,7	-35,52
1041,896	-36,09
1042,091	-36,12
1042,287	-35,19
1042,482	-34,64
1042,678	-34,19
1042,873	-33,86
1043,069	-34,18
1043,264	-32,57
1043,459	-32,97
1043,655	-33,01
1043,85	-34,03
1044,045	-32,8
1044,24	-32,82
1044,436	-31,35
1044,631	-31,48
1044,826	-31,68
1045,021	-34,08
1045,216	-31,66
